201 psinorm ne(10^20/m^3) dne/dpsiN
 0.000000   0.573751   -0.567875
 0.005000   0.570924   -0.562953
 0.010000   0.568121   -0.558054
 0.015000   0.565343   -0.553200
 0.020000   0.562589   -0.548391
 0.025000   0.559859   -0.543625
 0.030000   0.557153   -0.538903
 0.035000   0.554470   -0.534224
 0.040000   0.551811   -0.529587
 0.045000   0.549175   -0.524993
 0.050000   0.546561   -0.520440
 0.055000   0.543970   -0.515928
 0.060000   0.541402   -0.511457
 0.065000   0.538856   -0.507026
 0.070000   0.536331   -0.502635
 0.075000   0.533829   -0.498283
 0.080000   0.531349   -0.493971
 0.085000   0.528890   -0.489696
 0.090000   0.526452   -0.485460
 0.095000   0.524035   -0.481262
 0.100000   0.521639   -0.477101
 0.105000   0.519264   -0.472977
 0.110000   0.516909   -0.468889
 0.115000   0.514575   -0.464837
 0.120000   0.512261   -0.460821
 0.125000   0.509967   -0.456840
 0.130000   0.507693   -0.452895
 0.135000   0.505438   -0.448984
 0.140000   0.503203   -0.445106
 0.145000   0.500987   -0.441263
 0.150000   0.498790   -0.437453
 0.155000   0.496612   -0.433677
 0.160000   0.494453   -0.429933
 0.165000   0.492313   -0.426221
 0.170000   0.490191   -0.422541
 0.175000   0.488088   -0.418894
 0.180000   0.486002   -0.415277
 0.185000   0.483935   -0.411691
 0.190000   0.481885   -0.408136
 0.195000   0.479853   -0.404612
 0.200000   0.477839   -0.401117
 0.205000   0.475842   -0.397652
 0.210000   0.473863   -0.394217
 0.215000   0.471900   -0.390810
 0.220000   0.469954   -0.387432
 0.225000   0.468026   -0.384083
 0.230000   0.466114   -0.380762
 0.235000   0.464218   -0.377468
 0.240000   0.462339   -0.374202
 0.245000   0.460476   -0.370964
 0.250000   0.458629   -0.367752
 0.255000   0.456799   -0.364567
 0.260000   0.454984   -0.361408
 0.265000   0.453184   -0.358276
 0.270000   0.451401   -0.355169
 0.275000   0.449633   -0.352087
 0.280000   0.447880   -0.349031
 0.285000   0.446142   -0.346000
 0.290000   0.444420   -0.342994
 0.295000   0.442713   -0.340012
 0.300000   0.441020   -0.337054
 0.305000   0.439342   -0.334120
 0.310000   0.437679   -0.331210
 0.315000   0.436030   -0.328324
 0.320000   0.434395   -0.325460
 0.325000   0.432775   -0.322619
 0.330000   0.431169   -0.319801
 0.335000   0.429577   -0.317006
 0.340000   0.427999   -0.314232
 0.345000   0.426435   -0.311481
 0.350000   0.424884   -0.308751
 0.355000   0.423347   -0.306043
 0.360000   0.421824   -0.303356
 0.365000   0.420314   -0.300690
 0.370000   0.418817   -0.298045
 0.375000   0.417333   -0.295421
 0.380000   0.415863   -0.292816
 0.385000   0.414405   -0.290232
 0.390000   0.412961   -0.287668
 0.395000   0.411529   -0.285124
 0.400000   0.410109   -0.282599
 0.405000   0.408703   -0.280093
 0.410000   0.407308   -0.277607
 0.415000   0.405927   -0.275139
 0.420000   0.404557   -0.272690
 0.425000   0.403200   -0.270260
 0.430000   0.401854   -0.267847
 0.435000   0.400521   -0.265453
 0.440000   0.399200   -0.263077
 0.445000   0.397890   -0.260718
 0.450000   0.396593   -0.258377
 0.455000   0.395307   -0.256053
 0.460000   0.394032   -0.253747
 0.465000   0.392769   -0.251457
 0.470000   0.391518   -0.249184
 0.475000   0.390277   -0.246928
 0.480000   0.389048   -0.244688
 0.485000   0.387830   -0.242464
 0.490000   0.386624   -0.240256
 0.495000   0.385428   -0.238064
 0.500000   0.384243   -0.235888
 0.505000   0.383069   -0.233727
 0.510000   0.381906   -0.231582
 0.515000   0.380753   -0.229452
 0.520000   0.379611   -0.227337
 0.525000   0.378480   -0.225237
 0.530000   0.377359   -0.223151
 0.535000   0.376248   -0.221080
 0.540000   0.375148   -0.219023
 0.545000   0.374058   -0.216981
 0.550000   0.372978   -0.214952
 0.555000   0.371909   -0.212938
 0.560000   0.370849   -0.210937
 0.565000   0.369799   -0.208950
 0.570000   0.368759   -0.206976
 0.575000   0.367729   -0.205016
 0.580000   0.366709   -0.203069
 0.585000   0.365699   -0.201134
 0.590000   0.364698   -0.199213
 0.595000   0.363707   -0.197304
 0.600000   0.362725   -0.195408
 0.605000   0.361753   -0.193524
 0.610000   0.360790   -0.191652
 0.615000   0.359836   -0.189793
 0.620000   0.358892   -0.187945
 0.625000   0.357957   -0.186109
 0.630000   0.357031   -0.184285
 0.635000   0.356114   -0.182472
 0.640000   0.355206   -0.180670
 0.645000   0.354307   -0.178879
 0.650000   0.353417   -0.177099
 0.655000   0.352536   -0.175329
 0.660000   0.351664   -0.173570
 0.665000   0.350800   -0.171820
 0.670000   0.349946   -0.170080
 0.675000   0.349100   -0.168349
 0.680000   0.348262   -0.166627
 0.685000   0.347433   -0.164912
 0.690000   0.346613   -0.163204
 0.695000   0.345801   -0.161503
 0.700000   0.344998   -0.159807
 0.705000   0.344203   -0.158114
 0.710000   0.343417   -0.156423
 0.715000   0.342639   -0.154732
 0.720000   0.341869   -0.153038
 0.725000   0.341109   -0.151338
 0.730000   0.340356   -0.149627
 0.735000   0.339612   -0.147901
 0.740000   0.338877   -0.146152
 0.745000   0.338151   -0.144374
 0.750000   0.337433   -0.142555
 0.755000   0.336725   -0.140684
 0.760000   0.336026   -0.138745
 0.765000   0.335338   -0.136718
 0.770000   0.334659   -0.134581
 0.775000   0.333992   -0.132303
 0.780000   0.333336   -0.129847
 0.785000   0.332693   -0.127170
 0.790000   0.332065   -0.124214
 0.795000   0.331451   -0.120914
 0.800000   0.330855   -0.117184
 0.805000   0.330279   -0.112924
 0.810000   0.329726   -0.108011
 0.815000   0.329199   -0.102296
 0.820000   0.328703   -0.095603
 0.825000   0.328243   -0.087718
 0.830000   0.327826   -0.078391
 0.835000   0.327459   -0.067331
 0.840000   0.327153   -0.054203
 0.845000   0.326917   -0.038626
 0.850000   0.326766   -0.020185
 0.855000   0.326716   0.001562
 0.860000   0.326782   0.027053
 0.865000   0.326986   0.056675
 0.870000   0.327349   0.090692
 0.875000   0.327893   0.129115
 0.880000   0.328640   0.171514
 0.885000   0.329608   0.216728
 0.890000   0.330807   0.262441
 0.895000   0.332233   0.304580
 0.900000   0.333853   0.336501
 0.905000   0.335598   0.347976
 0.910000   0.337333   0.324064
 0.915000   0.338838   0.244225
 0.920000   0.339775   0.082325
 0.925000   0.339661   -0.191258
 0.930000   0.337863   -0.603902
 0.935000   0.333622   -1.170247
 0.940000   0.326160   -1.877977
 0.945000   0.314843   -2.675151
 0.950000   0.299409   -3.468547
 0.955000   0.280157   -4.141408
 0.960000   0.257994   -4.588694
 0.965000   0.234270   -4.753543
 0.970000   0.210459   -4.643990
 0.975000   0.187830   -4.321402
 0.980000   0.167245   -3.870977
 0.985000   0.149121   -3.372814
 0.990000   0.133517   -2.885513
 0.995000   0.120265   -2.443121
 1.000000   0.109086   -2.028788
201 psinorm te(KeV) dte/dpsiN
 0.000000   3.978128   -3.728001
 0.005000   3.959484   -3.729899
 0.010000   3.940829   -3.731701
 0.015000   3.922167   -3.733312
 0.020000   3.903496   -3.734731
 0.025000   3.884819   -3.735961
 0.030000   3.866137   -3.737002
 0.035000   3.847449   -3.737854
 0.040000   3.828758   -3.738519
 0.045000   3.810064   -3.738997
 0.050000   3.791368   -3.739290
 0.055000   3.772671   -3.739398
 0.060000   3.753974   -3.739321
 0.065000   3.735278   -3.739062
 0.070000   3.716584   -3.738621
 0.075000   3.697892   -3.737999
 0.080000   3.679204   -3.737196
 0.085000   3.660520   -3.736215
 0.090000   3.641841   -3.735055
 0.095000   3.623169   -3.733717
 0.100000   3.604504   -3.732204
 0.105000   3.585847   -3.730516
 0.110000   3.567199   -3.728653
 0.115000   3.548561   -3.726617
 0.120000   3.529933   -3.724409
 0.125000   3.511317   -3.722030
 0.130000   3.492713   -3.719481
 0.135000   3.474122   -3.716763
 0.140000   3.455545   -3.713878
 0.145000   3.436983   -3.710826
 0.150000   3.418437   -3.707608
 0.155000   3.399907   -3.704226
 0.160000   3.381395   -3.700681
 0.165000   3.362900   -3.696974
 0.170000   3.344425   -3.693106
 0.175000   3.325969   -3.689078
 0.180000   3.307534   -3.684891
 0.185000   3.289120   -3.680547
 0.190000   3.270729   -3.676047
 0.195000   3.252360   -3.671392
 0.200000   3.234015   -3.666583
 0.205000   3.215694   -3.661621
 0.210000   3.197398   -3.656508
 0.215000   3.179129   -3.651245
 0.220000   3.160886   -3.645833
 0.225000   3.142670   -3.640274
 0.230000   3.124483   -3.634568
 0.235000   3.106325   -3.628717
 0.240000   3.088196   -3.622723
 0.245000   3.070098   -3.616585
 0.250000   3.052030   -3.610307
 0.255000   3.033995   -3.603889
 0.260000   3.015991   -3.597332
 0.265000   2.998021   -3.590637
 0.270000   2.980085   -3.583807
 0.275000   2.962183   -3.576842
 0.280000   2.944317   -3.569743
 0.285000   2.926486   -3.562513
 0.290000   2.908691   -3.555151
 0.295000   2.890934   -3.547661
 0.300000   2.873215   -3.540042
 0.305000   2.855534   -3.532296
 0.310000   2.837892   -3.524426
 0.315000   2.820290   -3.516431
 0.320000   2.802727   -3.508313
 0.325000   2.785206   -3.500074
 0.330000   2.767727   -3.491716
 0.335000   2.750289   -3.483238
 0.340000   2.732894   -3.474644
 0.345000   2.715543   -3.465933
 0.350000   2.698235   -3.457109
 0.355000   2.680972   -3.448171
 0.360000   2.663753   -3.439121
 0.365000   2.646580   -3.429962
 0.370000   2.629454   -3.420693
 0.375000   2.612374   -3.411317
 0.380000   2.595341   -3.401834
 0.385000   2.578355   -3.392247
 0.390000   2.561418   -3.382556
 0.395000   2.544530   -3.372764
 0.400000   2.527690   -3.362871
 0.405000   2.510901   -3.352879
 0.410000   2.494162   -3.342789
 0.415000   2.477473   -3.332602
 0.420000   2.460836   -3.322321
 0.425000   2.444250   -3.311945
 0.430000   2.427716   -3.301478
 0.435000   2.411235   -3.290920
 0.440000   2.394807   -3.280272
 0.445000   2.378432   -3.269537
 0.450000   2.362112   -3.258714
 0.455000   2.345845   -3.247807
 0.460000   2.329634   -3.236815
 0.465000   2.313477   -3.225742
 0.470000   2.297376   -3.214587
 0.475000   2.281331   -3.203352
 0.480000   2.265343   -3.192039
 0.485000   2.249411   -3.180649
 0.490000   2.233536   -3.169183
 0.495000   2.217719   -3.157643
 0.500000   2.201960   -3.146031
 0.505000   2.186259   -3.134347
 0.510000   2.170616   -3.122592
 0.515000   2.155033   -3.110770
 0.520000   2.139509   -3.098879
 0.525000   2.124044   -3.086923
 0.530000   2.108639   -3.074902
 0.535000   2.093295   -3.062818
 0.540000   2.078011   -3.050672
 0.545000   2.062788   -3.038465
 0.550000   2.047626   -3.026199
 0.555000   2.032526   -3.013875
 0.560000   2.017488   -3.001495
 0.565000   2.002511   -2.989059
 0.570000   1.987597   -2.976569
 0.575000   1.972746   -2.964027
 0.580000   1.957957   -2.951433
 0.585000   1.943231   -2.938790
 0.590000   1.928569   -2.926097
 0.595000   1.913970   -2.913358
 0.600000   1.899435   -2.900572
 0.605000   1.884965   -2.887741
 0.610000   1.870558   -2.874867
 0.615000   1.856216   -2.861951
 0.620000   1.841938   -2.848994
 0.625000   1.827726   -2.835997
 0.630000   1.813578   -2.822962
 0.635000   1.799496   -2.809889
 0.640000   1.785480   -2.796781
 0.645000   1.771529   -2.783638
 0.650000   1.757643   -2.770462
 0.655000   1.743824   -2.757253
 0.660000   1.730071   -2.744014
 0.665000   1.716384   -2.730745
 0.670000   1.702763   -2.717448
 0.675000   1.689209   -2.704124
 0.680000   1.675722   -2.690774
 0.685000   1.662302   -2.677399
 0.690000   1.648948   -2.664002
 0.695000   1.635662   -2.650582
 0.700000   1.622442   -2.637143
 0.705000   1.609290   -2.623684
 0.710000   1.596205   -2.610208
 0.715000   1.583188   -2.596716
 0.720000   1.570238   -2.583211
 0.725000   1.557356   -2.569693
 0.730000   1.544541   -2.556165
 0.735000   1.531794   -2.542630
 0.740000   1.519115   -2.529091
 0.745000   1.506503   -2.515550
 0.750000   1.493959   -2.502012
 0.755000   1.481483   -2.488483
 0.760000   1.469075   -2.474967
 0.765000   1.456734   -2.461473
 0.770000   1.444460   -2.448010
 0.775000   1.432253   -2.434592
 0.780000   1.420114   -2.421233
 0.785000   1.408041   -2.407954
 0.790000   1.396034   -2.394784
 0.795000   1.384093   -2.381757
 0.800000   1.372217   -2.368919
 0.805000   1.360404   -2.356333
 0.810000   1.348654   -2.344081
 0.815000   1.336963   -2.332270
 0.820000   1.325331   -2.321044
 0.825000   1.313753   -2.310597
 0.830000   1.302225   -2.301184
 0.835000   1.290741   -2.293150
 0.840000   1.279293   -2.286954
 0.845000   1.267871   -2.283215
 0.850000   1.256461   -2.282761
 0.855000   1.245044   -2.286706
 0.860000   1.233594   -2.296547
 0.865000   1.222078   -2.314295
 0.870000   1.210451   -2.342655
 0.875000   1.198652   -2.385255
 0.880000   1.186599   -2.446961
 0.885000   1.174182   -2.534276
 0.890000   1.161256   -2.655861
 0.895000   1.147624   -2.823183
 0.900000   1.133024   -3.051297
 0.905000   1.117111   -3.359729
 0.910000   1.099427   -3.773358
 0.915000   1.079377   -4.323057
 0.920000   1.056196   -5.045627
 0.925000   1.028921   -5.982160
 0.930000   0.996375   -7.173472
 0.935000   0.957186   -8.650650
 0.940000   0.909868   -10.418563
 0.945000   0.853000   -12.431269
 0.950000   0.785555   -14.562259
 0.955000   0.707378   -16.580700
 0.960000   0.619748   -18.155861
 0.965000   0.525819   -18.916351
 0.970000   0.430585   -18.572196
 0.975000   0.340097   -17.058310
 0.980000   0.260002   -14.608698
 0.985000   0.194010   -11.686835
 0.990000   0.143133   -8.798558
 0.995000   0.106025   -6.309488
 1.000000   0.080039   -4.084974
201 psinorm ni(10^20/m^3) dni/dpsiN
 0.000000   0.366316   -0.601046
 0.005000   0.363515   -0.519405
 0.010000   0.361122   -0.452252
 0.015000   0.358992   -0.402819
 0.020000   0.357094   -0.360673
 0.025000   0.355386   -0.324664
 0.030000   0.353847   -0.293747
 0.035000   0.352448   -0.267441
 0.040000   0.351173   -0.243805
 0.045000   0.350010   -0.223220
 0.050000   0.348940   -0.205813
 0.055000   0.347952   -0.190619
 0.060000   0.347034   -0.177593
 0.065000   0.346176   -0.166564
 0.070000   0.345369   -0.157213
 0.075000   0.344604   -0.149326
 0.080000   0.343875   -0.142789
 0.085000   0.343176   -0.137749
 0.090000   0.342498   -0.133872
 0.095000   0.341837   -0.130818
 0.100000   0.341190   -0.128586
 0.105000   0.340551   -0.127098
 0.110000   0.339919   -0.126359
 0.115000   0.339288   -0.126350
 0.120000   0.338655   -0.126747
 0.125000   0.338020   -0.127426
 0.130000   0.337381   -0.128461
 0.135000   0.336736   -0.129796
 0.140000   0.336083   -0.131409
 0.145000   0.335422   -0.133231
 0.150000   0.334751   -0.135246
 0.155000   0.334069   -0.137432
 0.160000   0.333376   -0.139735
 0.165000   0.332672   -0.142131
 0.170000   0.331955   -0.144671
 0.175000   0.331225   -0.147524
 0.180000   0.330480   -0.150450
 0.185000   0.329721   -0.153177
 0.190000   0.328948   -0.155847
 0.195000   0.328162   -0.158515
 0.200000   0.327363   -0.161156
 0.205000   0.326551   -0.163739
 0.210000   0.325725   -0.166244
 0.215000   0.324888   -0.168752
 0.220000   0.324038   -0.171471
 0.225000   0.323173   -0.173776
 0.230000   0.322300   -0.175465
 0.235000   0.321419   -0.177046
 0.240000   0.320530   -0.178506
 0.245000   0.319634   -0.179864
 0.250000   0.318731   -0.181626
 0.255000   0.317817   -0.183262
 0.260000   0.316898   -0.184385
 0.265000   0.315974   -0.185589
 0.270000   0.315043   -0.186853
 0.275000   0.314105   -0.188485
 0.280000   0.313158   -0.190364
 0.285000   0.312201   -0.192079
 0.290000   0.311237   -0.193785
 0.295000   0.310264   -0.195614
 0.300000   0.309281   -0.197777
 0.305000   0.308286   -0.200075
 0.310000   0.307280   -0.202115
 0.315000   0.306265   -0.204100
 0.320000   0.305239   -0.206039
 0.325000   0.304204   -0.208046
 0.330000   0.303159   -0.209836
 0.335000   0.302106   -0.211168
 0.340000   0.301047   -0.212361
 0.345000   0.299982   -0.213529
 0.350000   0.298912   -0.214615
 0.355000   0.297836   -0.215467
 0.360000   0.296757   -0.216222
 0.365000   0.295674   -0.217041
 0.370000   0.294587   -0.217991
 0.375000   0.293494   -0.218889
 0.380000   0.292398   -0.219684
 0.385000   0.291297   -0.220503
 0.390000   0.290193   -0.221431
 0.395000   0.289083   -0.222297
 0.400000   0.287970   -0.222962
 0.405000   0.286853   -0.223545
 0.410000   0.285734   -0.224122
 0.415000   0.284612   -0.224579
 0.420000   0.283488   -0.224795
 0.425000   0.282364   -0.224858
 0.430000   0.281240   -0.224864
 0.435000   0.280115   -0.224766
 0.440000   0.278992   -0.224475
 0.445000   0.277871   -0.224055
 0.450000   0.276752   -0.223599
 0.455000   0.275635   -0.223068
 0.460000   0.274521   -0.222353
 0.465000   0.273411   -0.221483
 0.470000   0.272306   -0.220507
 0.475000   0.271206   -0.219353
 0.480000   0.270113   -0.217900
 0.485000   0.269027   -0.216143
 0.490000   0.267951   -0.214136
 0.495000   0.266886   -0.211874
 0.500000   0.265832   -0.209269
 0.505000   0.264793   -0.206325
 0.510000   0.263769   -0.203130
 0.515000   0.262762   -0.199741
 0.520000   0.261772   -0.196117
 0.525000   0.260801   -0.192246
 0.530000   0.259849   -0.188206
 0.535000   0.258919   -0.184090
 0.540000   0.258008   -0.179853
 0.545000   0.257120   -0.175437
 0.550000   0.256254   -0.170903
 0.555000   0.255411   -0.166283
 0.560000   0.254591   -0.161534
 0.565000   0.253796   -0.156592
 0.570000   0.253025   -0.151490
 0.575000   0.252281   -0.146271
 0.580000   0.251563   -0.140957
 0.585000   0.250871   -0.135525
 0.590000   0.250207   -0.129990
 0.595000   0.249571   -0.124396
 0.600000   0.248963   -0.118771
 0.605000   0.248384   -0.113096
 0.610000   0.247832   -0.107354
 0.615000   0.247310   -0.101572
 0.620000   0.246817   -0.095751
 0.625000   0.246352   -0.089896
 0.630000   0.245918   -0.084020
 0.635000   0.245512   -0.078136
 0.640000   0.245136   -0.072268
 0.645000   0.244790   -0.066431
 0.650000   0.244472   -0.060622
 0.655000   0.244183   -0.054902
 0.660000   0.243923   -0.049346
 0.665000   0.243690   -0.043919
 0.670000   0.243484   -0.038470
 0.675000   0.243305   -0.032735
 0.680000   0.243156   -0.026044
 0.685000   0.243045   -0.018040
 0.690000   0.242976   -0.009077
 0.695000   0.242954   0.000650
 0.700000   0.242983   0.011050
 0.705000   0.243065   0.021870
 0.710000   0.243201   0.033316
 0.715000   0.243398   0.044795
 0.720000   0.243649   0.055059
 0.725000   0.243948   0.063910
 0.730000   0.244288   0.071238
 0.735000   0.244661   0.076670
 0.740000   0.245055   0.079949
 0.745000   0.245460   0.080548
 0.750000   0.245860   0.078259
 0.755000   0.246243   0.073592
 0.760000   0.246596   0.067024
 0.765000   0.246913   0.058994
 0.770000   0.247186   0.049745
 0.775000   0.247410   0.039732
 0.780000   0.247584   0.030100
 0.785000   0.247711   0.021399
 0.790000   0.247798   0.013609
 0.795000   0.247848   0.006961
 0.800000   0.247867   0.001575
 0.805000   0.247863   -0.002335
 0.810000   0.247844   -0.004484
 0.815000   0.247818   -0.005045
 0.820000   0.247793   -0.004259
 0.825000   0.247776   -0.002029
 0.830000   0.247773   0.001859
 0.835000   0.247794   0.007709
 0.840000   0.247850   0.015892
 0.845000   0.247953   0.026789
 0.850000   0.248118   0.040792
 0.855000   0.248361   0.058344
 0.860000   0.248702   0.079897
 0.865000   0.249160   0.105878
 0.870000   0.249760   0.136565
 0.875000   0.250526   0.171975
 0.880000   0.251480   0.211715
 0.885000   0.252643   0.254685
 0.890000   0.254027   0.298683
 0.895000   0.255630   0.339804
 0.900000   0.257425   0.371739
 0.905000   0.259347   0.384865
 0.910000   0.261274   0.365257
 0.915000   0.263000   0.294081
 0.920000   0.264214   0.148017
 0.925000   0.264480   -0.096746
 0.930000   0.263247   -0.460448
 0.935000   0.259876   -0.949395
 0.940000   0.253753   -1.540947
 0.945000   0.244466   -2.175323
 0.950000   0.232000   -2.759406
 0.955000   0.216872   -3.182329
 0.960000   0.200177   -3.378988
 0.965000   0.183082   -3.355634
 0.970000   0.166620   -3.165045
 0.975000   0.151432   -2.888108
 0.980000   0.137739   -2.592228
 0.985000   0.125509   -2.310577
 0.990000   0.114633   -2.051795
 0.995000   0.104991   -1.811187
 1.000000   0.096521   -1.576802
201 psinorm ti(KeV) dti/dpsiN
 0.000000   5.300670   0.002903
 0.005000   5.300059   -0.247246
 0.010000   5.298197   -0.501628
 0.015000   5.295043   -0.764085
 0.020000   5.290557   -1.033750
 0.025000   5.284705   -1.309542
 0.030000   5.277461   -1.590165
 0.035000   5.268804   -1.874161
 0.040000   5.258720   -2.159311
 0.045000   5.247211   -2.444215
 0.050000   5.234277   -2.728011
 0.055000   5.219930   -3.009097
 0.060000   5.204186   -3.286310
 0.065000   5.187067   -3.558892
 0.070000   5.168598   -3.825545
 0.075000   5.148812   -4.086952
 0.080000   5.127728   -4.344001
 0.085000   5.105372   -4.595558
 0.090000   5.081772   -4.841279
 0.095000   5.056959   -5.081161
 0.100000   5.030961   -5.314860
 0.105000   5.003810   -5.542788
 0.110000   4.975533   -5.765634
 0.115000   4.946154   -5.983474
 0.120000   4.915698   -6.196588
 0.125000   4.884188   -6.404941
 0.130000   4.851649   -6.608233
 0.135000   4.818106   -6.804863
 0.140000   4.783600   -6.992814
 0.145000   4.748178   -7.171556
 0.150000   4.711885   -7.340753
 0.155000   4.674770   -7.499621
 0.160000   4.636888   -7.647263
 0.165000   4.598298   -7.782250
 0.170000   4.559066   -7.903766
 0.175000   4.519260   -8.011880
 0.180000   4.478947   -8.106421
 0.185000   4.438196   -8.187303
 0.190000   4.397074   -8.254274
 0.195000   4.355653   -8.309546
 0.200000   4.313979   -8.358771
 0.205000   4.272065   -8.404725
 0.210000   4.229931   -8.447451
 0.215000   4.187591   -8.487635
 0.220000   4.145055   -8.526832
 0.225000   4.102322   -8.568128
 0.230000   4.059374   -8.607678
 0.235000   4.016246   -8.641501
 0.240000   3.972959   -8.670533
 0.245000   3.929540   -8.693216
 0.250000   3.886027   -8.708724
 0.255000   3.842453   -8.717841
 0.260000   3.798848   -8.712837
 0.265000   3.755325   -8.689438
 0.270000   3.711954   -8.651513
 0.275000   3.668810   -8.598435
 0.280000   3.625969   -8.529786
 0.285000   3.583512   -8.443727
 0.290000   3.541532   -8.338012
 0.295000   3.500132   -8.212970
 0.300000   3.459402   -8.070855
 0.305000   3.419423   -7.915101
 0.310000   3.380251   -7.750512
 0.315000   3.341918   -7.578455
 0.320000   3.304467   -7.407986
 0.325000   3.267838   -7.245157
 0.330000   3.232015   -7.085939
 0.335000   3.196979   -6.931013
 0.340000   3.162705   -6.780990
 0.345000   3.129169   -6.637646
 0.350000   3.096329   -6.501923
 0.355000   3.064150   -6.372072
 0.360000   3.032608   -6.246709
 0.365000   3.001683   -6.124992
 0.370000   2.971358   -6.005241
 0.375000   2.941630   -5.885527
 0.380000   2.912503   -5.756881
 0.385000   2.884061   -5.613593
 0.390000   2.856367   -5.459440
 0.395000   2.829467   -5.296759
 0.400000   2.803399   -5.127673
 0.405000   2.778190   -4.952358
 0.410000   2.753876   -4.777077
 0.415000   2.730419   -4.610324
 0.420000   2.707772   -4.451888
 0.425000   2.685901   -4.300346
 0.430000   2.664769   -4.155667
 0.435000   2.644344   -4.016686
 0.440000   2.624602   -3.884762
 0.445000   2.605496   -3.762712
 0.450000   2.586975   -3.649742
 0.455000   2.568999   -3.544738
 0.460000   2.551528   -3.447646
 0.465000   2.534522   -3.358751
 0.470000   2.517940   -3.278693
 0.475000   2.501735   -3.206135
 0.480000   2.485879   -3.138407
 0.485000   2.470351   -3.073378
 0.490000   2.455145   -3.009089
 0.495000   2.440260   -2.943957
 0.500000   2.425705   -2.876875
 0.505000   2.411492   -2.809265
 0.510000   2.397613   -2.742911
 0.515000   2.384063   -2.677973
 0.520000   2.370833   -2.614775
 0.525000   2.357915   -2.552869
 0.530000   2.345304   -2.491069
 0.535000   2.333004   -2.432801
 0.540000   2.320976   -2.380196
 0.545000   2.309202   -2.331493
 0.550000   2.297661   -2.286936
 0.555000   2.286333   -2.246462
 0.560000   2.275197   -2.209497
 0.565000   2.264238   -2.178808
 0.570000   2.253409   -2.155562
 0.575000   2.242682   -2.137767
 0.580000   2.232031   -2.125366
 0.585000   2.221429   -2.118273
 0.590000   2.210848   -2.117581
 0.595000   2.200253   -2.122885
 0.600000   2.189620   -2.132704
 0.605000   2.178926   -2.146922
 0.610000   2.168150   -2.165184
 0.615000   2.157274   -2.187094
 0.620000   2.146279   -2.214936
 0.625000   2.135125   -2.245584
 0.630000   2.123824   -2.275220
 0.635000   2.112372   -2.305461
 0.640000   2.100769   -2.335793
 0.645000   2.089014   -2.365569
 0.650000   2.077113   -2.395910
 0.655000   2.065055   -2.425348
 0.660000   2.052860   -2.452718
 0.665000   2.040528   -2.479885
 0.670000   2.028061   -2.506593
 0.675000   2.015462   -2.531932
 0.680000   2.002742   -2.555221
 0.685000   1.989910   -2.573953
 0.690000   1.977002   -2.586753
 0.695000   1.964042   -2.595037
 0.700000   1.951052   -2.599343
 0.705000   1.938049   -2.599881
 0.710000   1.925053   -2.595818
 0.715000   1.912091   -2.587303
 0.720000   1.899180   -2.576197
 0.725000   1.886329   -2.563015
 0.730000   1.873550   -2.547702
 0.735000   1.860852   -2.530725
 0.740000   1.848242   -2.511851
 0.745000   1.835733   -2.493716
 0.750000   1.823305   -2.480886
 0.755000   1.810924   -2.473806
 0.760000   1.798567   -2.470993
 0.765000   1.786215   -2.471160
 0.770000   1.773856   -2.472651
 0.775000   1.761488   -2.473502
 0.780000   1.749121   -2.472498
 0.785000   1.736763   -2.469894
 0.790000   1.724422   -2.466146
 0.795000   1.712102   -2.461529
 0.800000   1.699806   -2.456716
 0.805000   1.687534   -2.455106
 0.810000   1.675255   -2.461284
 0.815000   1.662922   -2.476835
 0.820000   1.650487   -2.501702
 0.825000   1.637905   -2.535731
 0.830000   1.625130   -2.579679
 0.835000   1.612108   -2.635519
 0.840000   1.598774   -2.697515
 0.845000   1.585133   -2.765330
 0.850000   1.571121   -2.847199
 0.855000   1.556661   -2.946090
 0.860000   1.541660   -3.065293
 0.865000   1.526008   -3.216066
 0.870000   1.509500   -3.386227
 0.875000   1.492145   -3.565948
 0.880000   1.473840   -3.767796
 0.885000   1.454468   -3.994140
 0.890000   1.433899   -4.248521
 0.895000   1.411982   -4.562472
 0.900000   1.388274   -4.930691
 0.905000   1.362675   -5.339051
 0.910000   1.334883   -5.811041
 0.915000   1.304565   -6.352698
 0.920000   1.271356   -6.969703
 0.925000   1.234868   -7.709945
 0.930000   1.194257   -8.525241
 0.935000   1.149616   -9.342542
 0.940000   1.100832   -10.169759
 0.945000   1.047918   -10.972780
 0.950000   0.991104   -11.703527
 0.955000   0.930883   -12.328400
 0.960000   0.867820   -12.752628
 0.965000   0.803356   -12.896710
 0.970000   0.738853   -12.766469
 0.975000   0.675692   -12.361815
 0.980000   0.615235   -11.698576
 0.985000   0.558706   -10.796628
 0.990000   0.507268   -9.708421
 0.995000   0.461622   -8.526058
 1.000000   0.422008   -7.319561
201 psinorm nb(10^20/m^3) dnb/dpsiN
 0.000000   0.087404   0.033159
 0.005000   0.087385   -0.040640
 0.010000   0.086997   -0.099958
 0.015000   0.086385   -0.141580
 0.020000   0.085581   -0.175941
 0.025000   0.084626   -0.204201
 0.030000   0.083539   -0.227410
 0.035000   0.082352   -0.246059
 0.040000   0.081079   -0.262100
 0.045000   0.079731   -0.275160
 0.050000   0.078327   -0.285113
 0.055000   0.076880   -0.292935
 0.060000   0.075398   -0.298679
 0.065000   0.073893   -0.302522
 0.070000   0.072373   -0.304796
 0.075000   0.070845   -0.305716
 0.080000   0.069316   -0.305390
 0.085000   0.067791   -0.303671
 0.090000   0.066279   -0.300891
 0.095000   0.064782   -0.297385
 0.100000   0.063305   -0.293147
 0.105000   0.061851   -0.288250
 0.110000   0.060422   -0.282701
 0.115000   0.059024   -0.276529
 0.120000   0.057657   -0.270063
 0.125000   0.056323   -0.263433
 0.130000   0.055023   -0.256565
 0.135000   0.053757   -0.249522
 0.140000   0.052528   -0.242338
 0.145000   0.051334   -0.235088
 0.150000   0.050177   -0.227791
 0.155000   0.049056   -0.220478
 0.160000   0.047972   -0.213210
 0.165000   0.046924   -0.206019
 0.170000   0.045912   -0.198864
 0.175000   0.044935   -0.191576
 0.180000   0.043996   -0.184402
 0.185000   0.043091   -0.177619
 0.190000   0.042220   -0.171095
 0.195000   0.041380   -0.164782
 0.200000   0.040572   -0.158675
 0.205000   0.039794   -0.152780
 0.210000   0.039044   -0.147096
 0.215000   0.038323   -0.141503
 0.220000   0.037629   -0.135740
 0.225000   0.036965   -0.130367
 0.230000   0.036326   -0.125619
 0.235000   0.035709   -0.121053
 0.240000   0.035115   -0.116692
 0.245000   0.034542   -0.112534
 0.250000   0.033990   -0.108084
 0.255000   0.033461   -0.103864
 0.260000   0.032951   -0.100360
 0.265000   0.032458   -0.097042
 0.270000   0.031981   -0.093900
 0.275000   0.031519   -0.090642
 0.280000   0.031074   -0.087406
 0.285000   0.030645   -0.084642
 0.290000   0.030228   -0.082197
 0.295000   0.029823   -0.079884
 0.300000   0.029429   -0.077451
 0.305000   0.029048   -0.075066
 0.310000   0.028678   -0.073083
 0.315000   0.028317   -0.071321
 0.320000   0.027965   -0.069645
 0.325000   0.027621   -0.067809
 0.330000   0.027287   -0.066129
 0.335000   0.026960   -0.064831
 0.340000   0.026639   -0.063596
 0.345000   0.026324   -0.062292
 0.350000   0.026016   -0.060996
 0.355000   0.025714   -0.059925
 0.360000   0.025416   -0.058996
 0.365000   0.025124   -0.058067
 0.370000   0.024836   -0.057080
 0.375000   0.024553   -0.056208
 0.380000   0.024274   -0.055504
 0.385000   0.023998   -0.054828
 0.390000   0.023725   -0.054062
 0.395000   0.023457   -0.053347
 0.400000   0.023192   -0.052798
 0.405000   0.022929   -0.052271
 0.410000   0.022669   -0.051661
 0.415000   0.022413   -0.051056
 0.420000   0.022159   -0.050565
 0.425000   0.021907   -0.050093
 0.430000   0.021658   -0.049548
 0.435000   0.021412   -0.048985
 0.440000   0.021168   -0.048511
 0.445000   0.020926   -0.048070
 0.450000   0.020687   -0.047571
 0.455000   0.020451   -0.047049
 0.460000   0.020217   -0.046603
 0.465000   0.019985   -0.046197
 0.470000   0.019755   -0.045751
 0.475000   0.019527   -0.045276
 0.480000   0.019302   -0.044864
 0.485000   0.019079   -0.044504
 0.490000   0.018857   -0.044126
 0.495000   0.018637   -0.043718
 0.500000   0.018420   -0.043356
 0.505000   0.018204   -0.043049
 0.510000   0.017989   -0.042736
 0.515000   0.017776   -0.042380
 0.520000   0.017565   -0.042045
 0.525000   0.017356   -0.041767
 0.530000   0.017148   -0.041495
 0.535000   0.016941   -0.041169
 0.540000   0.016736   -0.040850
 0.545000   0.016532   -0.040598
 0.550000   0.016330   -0.040350
 0.555000   0.016129   -0.040072
 0.560000   0.015929   -0.039792
 0.565000   0.015731   -0.039560
 0.570000   0.015534   -0.039348
 0.575000   0.015338   -0.039130
 0.580000   0.015142   -0.038903
 0.585000   0.014949   -0.038706
 0.590000   0.014755   -0.038547
 0.595000   0.014563   -0.038401
 0.600000   0.014371   -0.038247
 0.605000   0.014181   -0.038111
 0.610000   0.013990   -0.038016
 0.615000   0.013800   -0.037937
 0.620000   0.013611   -0.037871
 0.625000   0.013422   -0.037817
 0.630000   0.013233   -0.037786
 0.635000   0.013044   -0.037775
 0.640000   0.012855   -0.037777
 0.645000   0.012666   -0.037795
 0.650000   0.012477   -0.037834
 0.655000   0.012288   -0.037887
 0.660000   0.012098   -0.037948
 0.665000   0.011908   -0.038018
 0.670000   0.011718   -0.038104
 0.675000   0.011527   -0.038210
 0.680000   0.011336   -0.038321
 0.685000   0.011144   -0.038433
 0.690000   0.010952   -0.038552
 0.695000   0.010759   -0.038681
 0.700000   0.010565   -0.038834
 0.705000   0.010370   -0.038988
 0.710000   0.010175   -0.039127
 0.715000   0.009979   -0.039266
 0.720000   0.009782   -0.039403
 0.725000   0.009585   -0.039543
 0.730000   0.009387   -0.039686
 0.735000   0.009188   -0.039811
 0.740000   0.008989   -0.039918
 0.745000   0.008789   -0.040018
 0.750000   0.008589   -0.040107
 0.755000   0.008388   -0.040184
 0.760000   0.008187   -0.040251
 0.765000   0.007985   -0.040298
 0.770000   0.007784   -0.040328
 0.775000   0.007582   -0.040347
 0.780000   0.007380   -0.040358
 0.785000   0.007178   -0.040360
 0.790000   0.006977   -0.040349
 0.795000   0.006775   -0.040324
 0.800000   0.006573   -0.040287
 0.805000   0.006372   -0.040237
 0.810000   0.006171   -0.040172
 0.815000   0.005970   -0.040092
 0.820000   0.005770   -0.039995
 0.825000   0.005570   -0.039881
 0.830000   0.005371   -0.039750
 0.835000   0.005173   -0.039594
 0.840000   0.004975   -0.039411
 0.845000   0.004779   -0.039212
 0.850000   0.004583   -0.038993
 0.855000   0.004389   -0.038752
 0.860000   0.004196   -0.038487
 0.865000   0.004004   -0.038191
 0.870000   0.003814   -0.037880
 0.875000   0.003625   -0.037585
 0.880000   0.003438   -0.037316
 0.885000   0.003252   -0.037063
 0.890000   0.003067   -0.036807
 0.895000   0.002884   -0.036529
 0.900000   0.002702   -0.036199
 0.905000   0.002522   -0.035785
 0.910000   0.002344   -0.035270
 0.915000   0.002169   -0.034636
 0.920000   0.001998   -0.033856
 0.925000   0.001831   -0.032918
 0.930000   0.001669   -0.031859
 0.935000   0.001512   -0.030768
 0.940000   0.001361   -0.029768
 0.945000   0.001214   -0.028974
 0.950000   0.001071   -0.028410
 0.955000   0.000930   -0.027881
 0.960000   0.000792   -0.026935
 0.965000   0.000661   -0.025162
 0.970000   0.000541   -0.022497
 0.975000   0.000436   -0.019216
 0.980000   0.000349   -0.015868
 0.985000   0.000277   -0.013176
 0.990000   0.000217   -0.011532
 0.995000   0.000162   -0.011833
 1.000000   0.000099   -0.013548
201 psinorm pb(KPa) dpb/dpsiN
 0.000000   35.380391   -4.951490
 0.005000   35.292996   -30.006630
 0.010000   35.080325   -51.278771
 0.015000   34.780208   -67.988894
 0.020000   34.400436   -81.767073
 0.025000   33.962537   -92.441088
 0.030000   33.476025   -100.717504
 0.035000   32.955362   -107.198818
 0.040000   32.404037   -112.985123
 0.045000   31.825511   -117.666055
 0.050000   31.227376   -121.110838
 0.055000   30.614403   -123.719392
 0.060000   29.990182   -125.544212
 0.065000   29.358961   -126.640858
 0.070000   28.723774   -127.146802
 0.075000   28.087493   -127.213261
 0.080000   27.451641   -126.821978
 0.085000   26.819273   -125.812538
 0.090000   26.193516   -124.372537
 0.095000   25.575547   -122.671271
 0.100000   24.966803   -120.698868
 0.105000   24.368559   -118.476236
 0.110000   23.782041   -116.015255
 0.115000   23.208406   -113.332457
 0.120000   22.648716   -110.550697
 0.125000   22.102899   -107.723168
 0.130000   21.571485   -104.815994
 0.135000   21.054739   -101.855293
 0.140000   20.552932   -98.862421
 0.145000   20.066115   -95.857260
 0.150000   19.594359   -92.835861
 0.155000   19.137757   -89.814365
 0.160000   18.696215   -86.819885
 0.165000   18.269558   -83.865476
 0.170000   17.857561   -80.934251
 0.175000   17.460215   -77.960227
 0.180000   17.077958   -74.999704
 0.185000   16.710218   -72.192182
 0.190000   16.356036   -69.533270
 0.195000   16.014885   -66.971479
 0.200000   15.686322   -64.497972
 0.205000   15.369906   -62.112718
 0.210000   15.065195   -59.816106
 0.215000   14.771745   -57.560275
 0.220000   14.489592   -55.245710
 0.225000   14.219288   -53.112534
 0.230000   13.958466   -51.230144
 0.235000   13.706986   -49.395839
 0.240000   13.464508   -47.638286
 0.245000   13.230603   -45.962665
 0.250000   13.004881   -44.181752
 0.255000   12.788786   -42.493944
 0.260000   12.579942   -41.082020
 0.265000   12.377966   -39.744338
 0.270000   12.182499   -38.475865
 0.275000   11.993207   -37.160187
 0.280000   11.810897   -35.854114
 0.285000   11.634666   -34.736020
 0.290000   11.463536   -33.742855
 0.295000   11.297237   -32.802261
 0.300000   11.135514   -31.818125
 0.305000   10.979056   -30.853462
 0.310000   10.826979   -30.042754
 0.315000   10.678628   -29.317579
 0.320000   10.533803   -28.626338
 0.325000   10.392365   -27.877483
 0.330000   10.255029   -27.191381
 0.335000   10.120451   -26.651113
 0.340000   9.988517   -26.133872
 0.345000   9.859112   -25.592463
 0.350000   9.732593   -25.055837
 0.355000   9.608554   -24.604659
 0.360000   9.486546   -24.208353
 0.365000   9.366471   -23.813794
 0.370000   9.248408   -23.399370
 0.375000   9.132477   -23.029485
 0.380000   9.018113   -22.723164
 0.385000   8.905245   -22.428852
 0.390000   8.793825   -22.103527
 0.395000   8.684210   -21.799203
 0.400000   8.575833   -21.555962
 0.405000   8.468650   -21.321038
 0.410000   8.362623   -21.056199
 0.415000   8.258088   -20.792151
 0.420000   8.154701   -20.567863
 0.425000   8.052410   -20.349225
 0.430000   7.951209   -20.103861
 0.435000   7.851371   -19.850708
 0.440000   7.752702   -19.629597
 0.445000   7.655075   -19.422690
 0.450000   7.558475   -19.194813
 0.455000   7.463127   -18.963081
 0.460000   7.368844   -18.762385
 0.465000   7.275503   -18.574670
 0.470000   7.183097   -18.373468
 0.475000   7.091769   -18.165121
 0.480000   7.001446   -17.982130
 0.485000   6.911947   -17.820137
 0.490000   6.823245   -17.654986
 0.495000   6.735397   -17.484679
 0.500000   6.648398   -17.332777
 0.505000   6.562070   -17.200377
 0.510000   6.476394   -17.067558
 0.515000   6.391394   -16.923607
 0.520000   6.307158   -16.785701
 0.525000   6.223537   -16.663161
 0.530000   6.140526   -16.541532
 0.535000   6.058122   -16.408071
 0.540000   5.976446   -16.278633
 0.545000   5.895335   -16.165476
 0.550000   5.814791   -16.052411
 0.555000   5.734811   -15.930443
 0.560000   5.655487   -15.808177
 0.565000   5.576729   -15.699036
 0.570000   5.498496   -15.595058
 0.575000   5.420779   -15.489342
 0.580000   5.343603   -15.383525
 0.585000   5.266944   -15.285887
 0.590000   5.190744   -15.196255
 0.595000   5.114981   -15.111874
 0.600000   5.039625   -15.026392
 0.605000   4.964717   -14.948637
 0.610000   4.890139   -14.883475
 0.615000   4.815882   -14.820557
 0.620000   4.741933   -14.761998
 0.625000   4.668262   -14.709493
 0.630000   4.594838   -14.663624
 0.635000   4.521626   -14.623160
 0.640000   4.448607   -14.586491
 0.645000   4.375761   -14.554889
 0.650000   4.303058   -14.530172
 0.655000   4.230460   -14.508971
 0.660000   4.157968   -14.488850
 0.665000   4.085571   -14.471178
 0.670000   4.013256   -14.458272
 0.675000   3.940988   -14.451244
 0.680000   3.868744   -14.446093
 0.685000   3.796527   -14.440792
 0.690000   3.724336   -14.435959
 0.695000   3.652168   -14.433006
 0.700000   3.580006   -14.437641
 0.705000   3.507791   -14.441910
 0.710000   3.435587   -14.439940
 0.715000   3.363392   -14.437476
 0.720000   3.291212   -14.433515
 0.725000   3.219057   -14.429582
 0.730000   3.146916   -14.425251
 0.735000   3.074804   -14.414549
 0.740000   3.002771   -14.397278
 0.745000   2.930832   -14.376447
 0.750000   2.859006   -14.351159
 0.755000   2.787320   -14.320392
 0.760000   2.715802   -14.283479
 0.765000   2.644485   -14.238321
 0.770000   2.573419   -14.187070
 0.775000   2.502614   -14.134295
 0.780000   2.432076   -14.080297
 0.785000   2.361812   -14.024200
 0.790000   2.291834   -13.964236
 0.795000   2.222169   -13.900092
 0.800000   2.152833   -13.833810
 0.805000   2.083831   -13.765137
 0.810000   2.015182   -13.692654
 0.815000   1.946905   -13.616070
 0.820000   1.879021   -13.534788
 0.825000   1.811557   -13.448802
 0.830000   1.744533   -13.358662
 0.835000   1.677970   -13.261037
 0.840000   1.611923   -13.155647
 0.845000   1.546414   -13.046777
 0.850000   1.481455   -12.933297
 0.855000   1.417081   -12.814492
 0.860000   1.353310   -12.689344
 0.865000   1.290187   -12.555411
 0.870000   1.227756   -12.416354
 0.875000   1.166024   -12.278853
 0.880000   1.104967   -12.144445
 0.885000   1.044579   -12.009350
 0.890000   0.984874   -11.868797
 0.895000   0.925891   -11.718274
 0.900000   0.867691   -11.549550
 0.905000   0.810396   -11.354364
 0.910000   0.754148   -11.129451
 0.915000   0.699101   -10.871759
 0.920000   0.645430   -10.576577
 0.925000   0.593335   -10.242834
 0.930000   0.543002   -9.882641
 0.935000   0.494509   -9.523100
 0.940000   0.447771   -9.201984
 0.945000   0.402489   -8.962051
 0.950000   0.358150   -8.825053
 0.955000   0.314239   -8.755400
 0.960000   0.270596   -8.640911
 0.965000   0.227830   -8.342022
 0.970000   0.187176   -7.774326
 0.975000   0.150086   -6.946241
 0.980000   0.117714   -5.948308
 0.985000   0.090603   -4.945581
 0.990000   0.068258   -4.061960
 0.995000   0.049984   -3.662867
 1.000000   0.031629   -3.678931
201 psinorm ptot(KPa) dptot/dpsiN
 0.000000   104.758097   -126.450157
 0.005000   104.078222   -145.499989
 0.010000   103.303097   -162.013774
 0.015000   102.458084   -175.502886
 0.020000   101.548069   -186.709757
 0.025000   100.590987   -195.360522
 0.030000   99.594463   -202.067370
 0.035000   98.570313   -207.384692
 0.040000   97.520616   -212.236436
 0.045000   96.447949   -216.237060
 0.050000   95.358246   -219.261995
 0.055000   94.255329   -221.620574
 0.060000   93.142040   -223.354666
 0.065000   92.021782   -224.500969
 0.070000   90.897030   -225.162173
 0.075000   89.770160   -225.475306
 0.080000   88.642277   -225.417261
 0.085000   87.515988   -224.832265
 0.090000   86.393955   -223.877474
 0.095000   85.277213   -222.693614
 0.100000   84.167019   -221.268049
 0.105000   83.064532   -219.617053
 0.110000   81.970848   -217.755691
 0.115000   80.886976   -215.698228
 0.120000   79.813866   -213.542431
 0.125000   78.751551   -211.330858
 0.130000   77.700557   -209.033136
 0.135000   76.661220   -206.661241
 0.140000   75.633945   -204.222764
 0.145000   74.618992   -201.728866
 0.150000   73.616656   -199.172221
 0.155000   72.627270   -196.562582
 0.160000   71.651030   -193.917803
 0.165000   70.688092   -191.241317
 0.170000   69.738617   -188.515301
 0.175000   68.802939   -185.686555
 0.180000   67.881752   -182.793080
 0.185000   66.975008   -179.954903
 0.190000   66.082203   -177.177230
 0.195000   65.203236   -174.425454
 0.200000   64.337948   -171.721214
 0.205000   63.486024   -169.078328
 0.210000   62.647165   -166.496666
 0.215000   61.821057   -163.938329
 0.220000   61.007781   -161.326571
 0.225000   60.207791   -158.878068
 0.230000   59.419001   -156.628273
 0.235000   58.641509   -154.386606
 0.240000   57.875135   -152.186493
 0.245000   57.119644   -150.026340
 0.250000   56.374871   -147.746092
 0.255000   55.642183   -145.515894
 0.260000   54.919712   -143.452992
 0.265000   54.207653   -141.370369
 0.270000   53.506009   -139.283666
 0.275000   52.814816   -137.091674
 0.280000   52.135092   -134.842226
 0.285000   51.466394   -132.680501
 0.290000   50.808287   -130.542022
 0.295000   50.160974   -128.365518
 0.300000   49.524632   -126.079765
 0.305000   48.900176   -123.755637
 0.310000   48.287075   -121.532286
 0.315000   47.684853   -119.360427
 0.320000   47.093471   -117.237484
 0.325000   46.512478   -115.110125
 0.330000   45.942370   -113.062686
 0.335000   45.381852   -111.169711
 0.340000   44.830673   -109.328268
 0.345000   44.288569   -107.506021
 0.350000   43.755613   -105.733253
 0.355000   43.231236   -104.073565
 0.360000   42.714877   -102.495542
 0.365000   42.206281   -100.949408
 0.370000   41.705383   -99.407892
 0.375000   41.212202   -97.916996
 0.380000   40.726213   -96.449126
 0.385000   40.247711   -94.931366
 0.390000   39.776899   -93.344349
 0.395000   39.314267   -91.744680
 0.400000   38.859452   -90.177371
 0.405000   38.412494   -88.596790
 0.410000   37.973485   -86.998975
 0.415000   37.542504   -85.450857
 0.420000   37.118976   -83.984676
 0.425000   36.702657   -82.563117
 0.430000   36.293345   -81.157244
 0.435000   35.891085   -79.778047
 0.440000   35.495564   -78.467490
 0.445000   35.106410   -77.223267
 0.450000   34.723332   -76.009687
 0.455000   34.346313   -74.836431
 0.460000   33.974967   -73.733223
 0.465000   33.608981   -72.684041
 0.470000   33.248127   -71.667079
 0.475000   32.892310   -70.679523
 0.480000   32.541332   -69.736495
 0.485000   32.194945   -68.823716
 0.490000   31.853095   -67.910299
 0.495000   31.515842   -66.987075
 0.500000   31.183224   -66.069439
 0.505000   30.855147   -65.165198
 0.510000   30.531572   -64.265868
 0.515000   30.212489   -63.363442
 0.520000   29.897937   -62.474809
 0.525000   29.587741   -61.606631
 0.530000   29.281871   -60.741919
 0.535000   28.980322   -59.886252
 0.540000   28.683009   -59.062855
 0.545000   28.389693   -58.273670
 0.550000   28.100272   -57.505671
 0.555000   27.814636   -56.750469
 0.560000   27.532767   -56.012456
 0.565000   27.254512   -55.314576
 0.570000   26.979621   -54.654794
 0.575000   26.707964   -54.018699
 0.580000   26.439434   -53.408103
 0.585000   26.173883   -52.829770
 0.590000   25.911137   -52.288372
 0.595000   25.650999   -51.780621
 0.600000   25.393330   -51.294578
 0.605000   25.138053   -50.837753
 0.610000   24.884953   -50.412702
 0.615000   24.633926   -50.008293
 0.620000   24.384870   -49.636168
 0.625000   24.137565   -49.284971
 0.630000   23.892020   -48.939492
 0.635000   23.648170   -48.605781
 0.640000   23.405963   -48.280842
 0.645000   23.165361   -47.963686
 0.650000   22.926326   -47.660720
 0.655000   22.688754   -47.364204
 0.660000   22.452684   -47.068995
 0.665000   22.218064   -46.783183
 0.670000   21.984852   -46.503898
 0.675000   21.753025   -46.221440
 0.680000   21.522637   -45.911490
 0.685000   21.293910   -45.552876
 0.690000   21.067109   -45.150749
 0.695000   20.842403   -44.718246
 0.700000   20.619926   -44.266127
 0.705000   20.399741   -43.794392
 0.710000   20.181982   -43.288808
 0.715000   19.966853   -42.770987
 0.720000   19.754272   -42.279135
 0.725000   19.544062   -41.820863
 0.730000   19.336064   -41.397086
 0.735000   19.130091   -41.011864
 0.740000   18.925945   -40.668854
 0.745000   18.723403   -40.393128
 0.750000   18.522014   -40.205817
 0.755000   18.321344   -40.093379
 0.760000   18.121080   -40.035703
 0.765000   17.920987   -40.013261
 0.770000   17.720947   -40.014046
 0.775000   17.520847   -40.022335
 0.780000   17.320724   -40.005405
 0.785000   17.120793   -39.949945
 0.790000   16.921225   -39.856050
 0.795000   16.722232   -39.718471
 0.800000   16.524040   -39.538487
 0.805000   16.326847   -39.324088
 0.810000   16.130799   -39.085236
 0.815000   15.935995   -38.830481
 0.820000   15.742494   -38.562205
 0.825000   15.550373   -38.274964
 0.830000   15.359745   -37.964886
 0.835000   15.170724   -37.627359
 0.840000   14.983471   -37.227422
 0.845000   14.798450   -36.757527
 0.850000   14.615896   -36.241511
 0.855000   14.436035   -35.682723
 0.860000   14.259068   -35.088936
 0.865000   14.085146   -34.506187
 0.870000   13.914007   -33.899882
 0.875000   13.746147   -33.265997
 0.880000   13.581347   -32.715713
 0.885000   13.418990   -32.352681
 0.890000   13.257820   -32.342955
 0.895000   13.095560   -33.056597
 0.900000   12.927254   -34.814193
 0.905000   12.747418   -38.040031
 0.910000   12.546854   -43.490418
 0.915000   12.312514   -52.008358
 0.920000   12.026770   -64.527017
 0.925000   11.667244   -82.061357
 0.930000   11.206156   -104.800335
 0.935000   10.619240   -131.937107
 0.940000   9.886785   -161.593618
 0.945000   9.003304   -190.073959
 0.950000   7.986046   -212.441060
 0.955000   6.878894   -223.829999
 0.960000   5.747746   -221.256695
 0.965000   4.666327   -205.084059
 0.970000   3.696905   -178.850824
 0.975000   2.877818   -147.688563
 0.980000   2.220020   -116.538694
 0.985000   1.712431   -88.862577
 0.990000   1.331394   -66.300838
 0.995000   1.049423   -49.321894
 1.000000   0.838175   -35.177415
201 psinorm omeg(kRad/s) domeg/dpsiN
 0.000000   72.781251   0.019790
 0.005000   72.780804   -0.198857
 0.010000   72.779263   -0.449519
 0.015000   72.776308   -0.768073
 0.020000   72.771582   -1.160506
 0.025000   72.764703   -1.629539
 0.030000   72.755287   -2.174487
 0.035000   72.742958   -2.790730
 0.040000   72.727379   -3.462587
 0.045000   72.708333   -4.177052
 0.050000   72.685609   -4.924702
 0.055000   72.659086   -5.688500
 0.060000   72.628724   -6.453312
 0.065000   72.594552   -7.207304
 0.070000   72.556651   -7.924860
 0.075000   72.515304   -8.617849
 0.080000   72.470472   -9.313681
 0.085000   72.422167   -10.006694
 0.090000   72.370405   -10.701248
 0.095000   72.315155   -11.407360
 0.100000   72.256332   -12.126052
 0.105000   72.193894   -12.868615
 0.110000   72.127646   -13.647990
 0.115000   72.057414   -14.464868
 0.120000   71.982997   -15.328282
 0.125000   71.904131   -16.248544
 0.130000   71.820511   -17.237178
 0.135000   71.731760   -18.296767
 0.140000   71.637544   -19.417850
 0.145000   71.537581   -20.600570
 0.150000   71.431538   -21.849557
 0.155000   71.319085   -23.162213
 0.160000   71.199916   -24.542518
 0.165000   71.073660   -25.976780
 0.170000   70.940148   -27.428724
 0.175000   70.799373   -28.888925
 0.180000   70.651259   -30.358672
 0.185000   70.495786   -31.825678
 0.190000   70.333002   -33.271973
 0.195000   70.163067   -34.658761
 0.200000   69.986414   -35.960911
 0.205000   69.803458   -37.174053
 0.210000   69.614674   -38.285526
 0.215000   69.420602   -39.284717
 0.220000   69.221827   -40.143212
 0.225000   69.019170   -40.815570
 0.230000   68.813671   -41.379144
 0.235000   68.605379   -41.891227
 0.240000   68.394759   -42.313385
 0.245000   68.182245   -42.652415
 0.250000   67.968235   -42.899939
 0.255000   67.753245   -43.020846
 0.260000   67.538026   -43.138766
 0.265000   67.321858   -43.338580
 0.270000   67.104640   -43.571268
 0.275000   66.886145   -43.862678
 0.280000   66.666014   -44.238246
 0.285000   66.443763   -44.741576
 0.290000   66.218598   -45.390970
 0.295000   65.989853   -46.114444
 0.300000   65.757453   -46.834693
 0.305000   65.521506   -47.523510
 0.310000   65.282218   -48.170421
 0.315000   65.039802   -48.780809
 0.320000   64.794410   -49.350503
 0.325000   64.546297   -49.875235
 0.330000   64.295658   -50.359984
 0.335000   64.042697   -50.803365
 0.340000   63.787624   -51.204287
 0.345000   63.530654   -51.552474
 0.350000   63.272099   -51.852845
 0.355000   63.012126   -52.118365
 0.360000   62.750916   -52.347095
 0.365000   62.488655   -52.538267
 0.370000   62.225533   -52.688746
 0.375000   61.961767   -52.764028
 0.380000   61.697893   -52.741659
 0.385000   61.434351   -52.634031
 0.390000   61.171553   -52.442270
 0.395000   60.909928   -52.180448
 0.400000   60.649748   -51.895431
 0.405000   60.390974   -51.727332
 0.410000   60.132475   -51.977147
 0.415000   59.871202   -52.783812
 0.420000   59.604637   -54.072219
 0.425000   59.330480   -55.798986
 0.430000   59.046647   -57.916050
 0.435000   58.751319   -60.567437
 0.440000   58.440972   -63.679230
 0.445000   58.114527   -66.802454
 0.450000   57.772948   -69.832277
 0.455000   57.416204   -72.825998
 0.460000   57.044688   -75.698615
 0.465000   56.659218   -78.501312
 0.470000   56.259675   -81.091213
 0.475000   55.848306   -83.031498
 0.480000   55.429360   -84.270460
 0.485000   55.005602   -84.939575
 0.490000   54.579964   -85.027673
 0.495000   54.155325   -84.575361
 0.500000   53.734210   -83.663007
 0.505000   53.318695   -82.418519
 0.510000   52.910025   -80.951376
 0.515000   52.509181   -79.304690
 0.520000   52.116978   -77.511948
 0.525000   51.734061   -75.583879
 0.530000   51.361140   -73.506076
 0.535000   50.999001   -71.419408
 0.540000   50.646945   -69.425591
 0.545000   50.304745   -67.493192
 0.550000   49.972014   -65.651990
 0.555000   49.648225   -63.919610
 0.560000   49.332817   -62.300208
 0.565000   49.025223   -60.896888
 0.570000   48.723849   -59.753525
 0.575000   48.427688   -58.807875
 0.580000   48.135770   -58.043613
 0.585000   47.847251   -57.425805
 0.590000   47.561512   -56.890089
 0.595000   47.278351   -56.391302
 0.600000   46.997599   -55.939575
 0.605000   46.718955   -55.553128
 0.610000   46.442067   -55.241253
 0.615000   46.166542   -55.012039
 0.620000   45.891947   -54.838730
 0.625000   45.618155   -54.760331
 0.630000   45.344344   -54.823906
 0.635000   45.069916   -55.007699
 0.640000   44.794267   -55.314620
 0.645000   44.516770   -55.749134
 0.650000   44.236775   -56.310132
 0.655000   43.953668   -57.051472
 0.660000   43.666261   -58.019990
 0.665000   43.373469   -59.190999
 0.670000   43.074351   -60.515923
 0.675000   42.768309   -61.905117
 0.680000   42.455300   -63.169728
 0.685000   42.136612   -64.125403
 0.690000   41.814046   -64.799405
 0.695000   41.488618   -65.303540
 0.700000   41.161010   -65.706604
 0.705000   40.831552   -66.076201
 0.710000   40.500248   -66.415262
 0.715000   40.167399   -66.820268
 0.720000   39.832045   -67.412528
 0.725000   39.493274   -68.159958
 0.730000   39.150446   -69.041518
 0.735000   38.802859   -70.073568
 0.740000   38.449710   -71.359103
 0.745000   38.089268   -73.158770
 0.750000   37.718122   -75.612347
 0.755000   37.333144   -78.695452
 0.760000   36.931168   -82.339007
 0.765000   36.509754   -86.362553
 0.770000   36.067542   -90.718161
 0.775000   35.602573   -95.157117
 0.780000   35.115971   -98.947985
 0.785000   34.613093   -101.854688
 0.790000   34.097424   -103.993392
 0.795000   33.573159   -105.245891
 0.800000   33.044965   -105.615677
 0.805000   32.517002   -105.241378
 0.810000   31.992552   -104.154675
 0.815000   31.475455   -102.448532
 0.820000   30.968066   -100.263233
 0.825000   30.472823   -97.590350
 0.830000   29.992163   -94.495588
 0.835000   29.527867   -91.123950
 0.840000   29.080923   -87.467405
 0.845000   28.653193   -83.850392
 0.850000   28.242419   -80.860540
 0.855000   27.844588   -78.847952
 0.860000   27.453940   -78.265315
 0.865000   27.061935   -80.085727
 0.870000   26.653083   -84.632231
 0.875000   26.215612   -92.568798
 0.880000   25.727395   -105.722571
 0.885000   25.158387   -125.706133
 0.890000   24.470333   -154.054029
 0.895000   23.617846   -192.803312
 0.900000   22.542300   -241.131199
 0.905000   21.206534   -296.504398
 0.910000   19.577256   -356.351081
 0.915000   17.643023   -415.357347
 0.920000   15.423683   -466.602241
 0.925000   12.977001   -502.175062
 0.930000   10.401932   -513.478763
 0.935000   7.842213   -495.849509
 0.940000   5.443437   -450.254835
 0.945000   3.339665   -380.981559
 0.950000   1.633622   -295.701923
 0.955000   0.382646   -203.431352
 0.960000   -0.400692   -114.997804
 0.965000   -0.767332   -39.060254
 0.970000   -0.791295   20.844860
 0.975000   -0.558884   63.423564
 0.980000   -0.157059   89.495984
 0.985000   0.336076   100.688690
 0.990000   0.849828   100.406954
 0.995000   1.340146   92.904206
 1.000000   1.778870   82.585505
201 psinorm omegp(kRad/s) domegp/dpsiN
 0.000000   0.000000   86.767430
 0.005000   0.340589   49.468134
 0.010000   0.494681   28.600169
 0.015000   0.626591   24.965400
 0.020000   0.744335   22.976496
 0.025000   0.856356   21.623557
 0.030000   0.960571   20.032613
 0.035000   1.056682   18.929298
 0.040000   1.149864   17.865801
 0.045000   1.235340   16.841236
 0.050000   1.318276   16.165941
 0.055000   1.396999   15.832657
 0.060000   1.476603   15.781690
 0.065000   1.554816   16.063615
 0.070000   1.637239   16.435775
 0.075000   1.719174   16.643807
 0.080000   1.803677   17.175409
 0.085000   1.890928   17.332517
 0.090000   1.977002   17.581782
 0.095000   2.066746   17.937376
 0.100000   2.156376   17.898165
 0.105000   2.245727   18.057674
 0.110000   2.336953   18.222736
 0.115000   2.427955   18.352720
 0.120000   2.520480   18.638188
 0.125000   2.614337   18.868648
 0.130000   2.709166   19.091403
 0.135000   2.805251   19.069075
 0.140000   2.899857   18.864133
 0.145000   2.993892   18.617706
 0.150000   3.086034   18.244414
 0.155000   3.176336   17.538087
 0.160000   3.261415   16.690833
 0.165000   3.343244   15.858768
 0.170000   3.420003   14.770080
 0.175000   3.490945   13.332278
 0.180000   3.553326   11.676204
 0.185000   3.607707   10.105983
 0.190000   3.654385   8.507828
 0.195000   3.692785   6.957211
 0.200000   3.723957   5.668407
 0.205000   3.749470   4.640181
 0.210000   3.770359   3.612936
 0.215000   3.785599   2.708932
 0.220000   3.797449   2.118771
 0.225000   3.806787   1.201981
 0.230000   3.809468   0.110860
 0.235000   3.807895   -0.880827
 0.240000   3.800660   -2.045150
 0.245000   3.787444   -3.306282
 0.250000   3.767597   -4.537070
 0.255000   3.742073   -5.869663
 0.260000   3.708901   -7.133444
 0.265000   3.670739   -8.323011
 0.270000   3.625671   -9.563678
 0.275000   3.575102   -10.764729
 0.280000   3.518023   -12.043100
 0.285000   3.454671   -13.339557
 0.290000   3.384628   -14.766365
 0.295000   3.307007   -16.336448
 0.300000   3.221263   -18.051148
 0.305000   3.126496   -20.008031
 0.310000   3.021183   -22.158691
 0.315000   2.904909   -24.382437
 0.320000   2.777359   -26.541975
 0.325000   2.639489   -28.642623
 0.330000   2.490932   -30.544444
 0.335000   2.334045   -32.153850
 0.340000   2.169394   -33.534829
 0.345000   1.998696   -34.781066
 0.350000   1.821583   -35.814244
 0.355000   1.640554   -36.828611
 0.360000   1.453297   -38.078841
 0.365000   1.259765   -39.358407
 0.370000   1.059713   -40.881717
 0.375000   0.850948   -42.666875
 0.380000   0.633044   -44.665232
 0.385000   0.404296   -46.889262
 0.390000   0.164152   -48.841827
 0.395000   -0.084122   -50.483400
 0.400000   -0.340682   -51.876727
 0.405000   -0.602890   -53.113650
 0.410000   -0.871819   -55.004036
 0.415000   -1.152930   -57.962467
 0.420000   -1.451444   -61.999796
 0.425000   -1.772928   -66.913042
 0.430000   -2.120574   -72.657897
 0.435000   -2.499507   -79.246228
 0.440000   -2.913036   -86.660055
 0.445000   -3.366107   -93.910164
 0.450000   -3.852138   -99.983974
 0.455000   -4.365947   -104.721633
 0.460000   -4.899354   -107.562676
 0.465000   -5.441574   -108.118161
 0.470000   -5.980536   -105.539592
 0.475000   -6.496970   -99.994732
 0.480000   -6.980483   -92.646435
 0.485000   -7.423434   -84.014553
 0.490000   -7.820629   -74.506790
 0.495000   -8.168502   -64.430987
 0.500000   -8.464939   -54.622243
 0.505000   -8.714725   -46.373183
 0.510000   -8.928670   -39.977923
 0.515000   -9.114504   -35.245472
 0.520000   -9.281125   -31.863118
 0.525000   -9.433135   -29.563566
 0.530000   -9.576761   -28.145793
 0.535000   -9.714593   -26.939852
 0.540000   -9.846159   -25.725628
 0.545000   -9.971849   -24.481490
 0.550000   -10.090974   -23.168969
 0.555000   -10.203539   -21.893508
 0.560000   -10.309909   -20.456993
 0.565000   -10.408109   -18.679422
 0.570000   -10.496703   -16.810565
 0.575000   -10.576214   -14.820300
 0.580000   -10.644906   -12.555131
 0.585000   -10.701766   -10.276450
 0.590000   -10.747671   -7.920957
 0.595000   -10.780975   -5.527571
 0.600000   -10.802947   -3.236725
 0.605000   -10.813343   -1.060898
 0.610000   -10.813556   0.917394
 0.615000   -10.804169   2.842528
 0.620000   -10.785130   4.570697
 0.625000   -10.758462   6.083766
 0.630000   -10.724293   7.501974
 0.635000   -10.683442   8.849490
 0.640000   -10.635798   10.077284
 0.645000   -10.582669   11.221499
 0.650000   -10.523583   12.392425
 0.655000   -10.458745   13.388006
 0.660000   -10.389703   14.373517
 0.665000   -10.315010   15.316618
 0.670000   -10.236537   16.203276
 0.675000   -10.152977   17.114718
 0.680000   -10.065389   17.998148
 0.685000   -9.972995   19.163481
 0.690000   -9.873755   20.394546
 0.695000   -9.769050   21.714044
 0.700000   -9.656614   23.228025
 0.705000   -9.536770   24.814868
 0.710000   -9.408465   26.233993
 0.715000   -9.274430   27.246320
 0.720000   -9.136002   27.999305
 0.725000   -8.994437   28.345854
 0.730000   -8.852544   28.177541
 0.735000   -8.712661   27.456871
 0.740000   -8.577975   26.323293
 0.745000   -8.449428   24.743631
 0.750000   -8.330539   22.735018
 0.755000   -8.222078   20.635743
 0.760000   -8.124181   18.447203
 0.765000   -8.037606   16.406265
 0.770000   -7.960119   14.682932
 0.775000   -7.890777   13.173125
 0.780000   -7.828387   11.751149
 0.785000   -7.773265   10.206076
 0.790000   -7.726327   8.334207
 0.795000   -7.689923   5.821061
 0.800000   -7.668116   2.553630
 0.805000   -7.664387   -1.553997
 0.810000   -7.683656   -6.413728
 0.815000   -7.728524   -11.662415
 0.820000   -7.800280   -16.968477
 0.825000   -7.898209   -21.944205
 0.830000   -8.019722   -26.129181
 0.835000   -8.159501   -29.207802
 0.840000   -8.311800   -31.068538
 0.845000   -8.470186   -31.757307
 0.850000   -8.629373   -31.066542
 0.855000   -8.780852   -29.509212
 0.860000   -8.924465   -27.822993
 0.865000   -9.059082   -26.222104
 0.870000   -9.186686   -24.757701
 0.875000   -9.306659   -23.492881
 0.880000   -9.421615   -22.798994
 0.885000   -9.534648   -22.568524
 0.890000   -9.647301   -22.407300
 0.895000   -9.758721   -22.225937
 0.900000   -9.869560   -21.862350
 0.905000   -9.977345   -21.415280
 0.910000   -10.083713   -21.129263
 0.915000   -10.188638   -20.184987
 0.920000   -10.285563   -16.160554
 0.925000   -10.350243   -8.740288
 0.930000   -10.372965   1.661128
 0.935000   -10.333632   18.830771
 0.940000   -10.184658   49.377444
 0.945000   -9.839857   92.586668
 0.950000   -9.258791   141.897779
 0.955000   -8.420880   188.874525
 0.960000   -7.370046   217.921803
 0.965000   -6.241662   217.885533
 0.970000   -5.191190   192.655735
 0.975000   -4.315104   177.337116
 0.980000   -3.417819   225.709691
 0.985000   -2.058007   358.714416
 0.990000   0.169325   523.222870
 0.995000   3.174221   603.343759
 1.000000   6.202762   608.072680
201 psinorm omgvb(kRad/s) domgvb/dpsiN
 0.000000   72.781251   86.787219
 0.005000   73.121393   49.269277
 0.010000   73.273944   28.150650
 0.015000   73.402899   24.197327
 0.020000   73.515917   21.815989
 0.025000   73.621059   19.994018
 0.030000   73.715857   17.858126
 0.035000   73.799640   16.138569
 0.040000   73.877243   14.403214
 0.045000   73.943672   12.664185
 0.050000   74.003885   11.241239
 0.055000   74.056085   10.144157
 0.060000   74.105327   9.328377
 0.065000   74.149368   8.856311
 0.070000   74.193890   8.510915
 0.075000   74.234478   8.025959
 0.080000   74.274149   7.861728
 0.085000   74.313095   7.325823
 0.090000   74.347408   6.880534
 0.095000   74.381900   6.530016
 0.100000   74.412708   5.772113
 0.105000   74.439621   5.189059
 0.110000   74.464598   4.574747
 0.115000   74.485369   3.887852
 0.120000   74.503477   3.309907
 0.125000   74.518468   2.620104
 0.130000   74.529678   1.854225
 0.135000   74.537010   0.772307
 0.140000   74.537401   -0.553717
 0.145000   74.531473   -1.982863
 0.150000   74.517572   -3.605144
 0.155000   74.495422   -5.624126
 0.160000   74.461331   -7.851685
 0.165000   74.416905   -10.118012
 0.170000   74.360151   -12.658644
 0.175000   74.290318   -15.556647
 0.180000   74.204584   -18.682468
 0.185000   74.103494   -21.719695
 0.190000   73.987387   -24.764145
 0.195000   73.855852   -27.701550
 0.200000   73.710372   -30.292504
 0.205000   73.552927   -32.533872
 0.210000   73.385033   -34.672589
 0.215000   73.206201   -36.575785
 0.220000   73.019275   -38.024441
 0.225000   72.825957   -39.613589
 0.230000   72.623140   -41.268284
 0.235000   72.413274   -42.772054
 0.240000   72.195419   -44.358534
 0.245000   71.969689   -45.958697
 0.250000   71.735832   -47.437009
 0.255000   71.495319   -48.890509
 0.260000   71.246927   -50.272210
 0.265000   70.992596   -51.661591
 0.270000   70.730311   -53.134945
 0.275000   70.461247   -54.627406
 0.280000   70.184037   -56.281346
 0.285000   69.898434   -58.081134
 0.290000   69.603226   -60.157335
 0.295000   69.296860   -62.450892
 0.300000   68.978717   -64.885841
 0.305000   68.648002   -67.531541
 0.310000   68.303401   -70.329112
 0.315000   67.944711   -73.163246
 0.320000   67.571769   -75.892478
 0.325000   67.185786   -78.517859
 0.330000   66.786590   -80.904428
 0.335000   66.376742   -82.957215
 0.340000   65.957018   -84.739116
 0.345000   65.529350   -86.333540
 0.350000   65.093683   -87.667089
 0.355000   64.652680   -88.946976
 0.360000   64.204213   -90.425936
 0.365000   63.748420   -91.896674
 0.370000   63.285246   -93.570463
 0.375000   62.812716   -95.430903
 0.380000   62.330937   -97.406891
 0.385000   61.838647   -99.523292
 0.390000   61.335704   -101.284097
 0.395000   60.825806   -102.663848
 0.400000   60.309066   -103.772157
 0.405000   59.788084   -104.840982
 0.410000   59.260656   -106.981183
 0.415000   58.718272   -110.746279
 0.420000   58.153193   -116.072015
 0.425000   57.557552   -122.712028
 0.430000   56.926073   -130.573947
 0.435000   56.251813   -139.813665
 0.440000   55.527936   -150.339285
 0.445000   54.748420   -160.712619
 0.450000   53.920810   -169.816251
 0.455000   53.050257   -177.547630
 0.460000   52.145334   -183.261291
 0.465000   51.217644   -186.619474
 0.470000   50.279139   -186.630805
 0.475000   49.351336   -183.026230
 0.480000   48.448877   -176.916894
 0.485000   47.582167   -168.954128
 0.490000   46.759335   -159.534463
 0.495000   45.986823   -149.006347
 0.500000   45.269272   -138.285250
 0.505000   44.603970   -128.791702
 0.510000   43.981355   -120.929299
 0.515000   43.394677   -114.550162
 0.520000   42.835853   -109.375066
 0.525000   42.300927   -105.147446
 0.530000   41.784379   -101.651868
 0.535000   41.284408   -98.359260
 0.540000   40.800786   -95.151220
 0.545000   40.332896   -91.974682
 0.550000   39.881039   -88.820959
 0.555000   39.444686   -85.813118
 0.560000   39.022908   -82.757202
 0.565000   38.617114   -79.576310
 0.570000   38.227145   -76.564090
 0.575000   37.851473   -73.628175
 0.580000   37.490863   -70.598744
 0.585000   37.145486   -67.702255
 0.590000   36.813841   -64.811047
 0.595000   36.497375   -61.918873
 0.600000   36.194652   -59.176300
 0.605000   35.905612   -56.614026
 0.610000   35.628512   -54.323859
 0.615000   35.362374   -52.169511
 0.620000   35.106817   -50.268033
 0.625000   34.859693   -48.676566
 0.630000   34.620051   -47.321932
 0.635000   34.386474   -46.158209
 0.640000   34.158469   -45.237336
 0.645000   33.934101   -44.527634
 0.650000   33.713193   -43.917707
 0.655000   33.494924   -43.663466
 0.660000   33.276558   -43.646473
 0.665000   33.058459   -43.874381
 0.670000   32.837814   -44.312646
 0.675000   32.615332   -44.790398
 0.680000   32.389910   -45.171580
 0.685000   32.163617   -44.961922
 0.690000   31.940291   -44.404858
 0.695000   31.719568   -43.589496
 0.700000   31.504396   -42.478580
 0.705000   31.294782   -41.261333
 0.710000   31.091783   -40.181269
 0.715000   30.892970   -39.573948
 0.720000   30.696043   -39.413222
 0.725000   30.498837   -39.814104
 0.730000   30.297902   -40.863977
 0.735000   30.090198   -42.616697
 0.740000   29.871735   -45.035809
 0.745000   29.639839   -48.415140
 0.750000   29.387584   -52.877329
 0.755000   29.111066   -58.059709
 0.760000   28.806987   -63.891804
 0.765000   28.472148   -69.956288
 0.770000   28.107424   -76.035228
 0.775000   27.711796   -81.983992
 0.780000   27.287584   -87.196836
 0.785000   26.839827   -91.648612
 0.790000   26.371098   -95.659186
 0.795000   25.883236   -99.424830
 0.800000   25.376849   -103.062047
 0.805000   24.852615   -106.795376
 0.810000   24.308896   -110.568403
 0.815000   23.746931   -114.110947
 0.820000   23.167786   -117.231709
 0.825000   22.574614   -119.534555
 0.830000   21.972441   -120.624768
 0.835000   21.368366   -120.331752
 0.840000   20.769123   -118.535943
 0.845000   20.183007   -115.607699
 0.850000   19.613046   -111.927082
 0.855000   19.063736   -108.357163
 0.860000   18.529475   -106.088308
 0.865000   18.002853   -106.307831
 0.870000   17.466396   -109.389932
 0.875000   16.908954   -116.061679
 0.880000   16.305779   -128.521565
 0.885000   15.623738   -148.274656
 0.890000   14.823033   -176.461329
 0.895000   13.859125   -215.029248
 0.900000   12.672740   -262.993549
 0.905000   11.229189   -317.919678
 0.910000   9.493544   -377.480344
 0.915000   7.454386   -435.542335
 0.920000   5.138120   -482.762795
 0.925000   2.626758   -510.915350
 0.930000   0.028967   -511.817635
 0.935000   -2.491418   -477.018738
 0.940000   -4.741221   -400.877391
 0.945000   -6.500192   -288.394890
 0.950000   -7.625170   -153.804144
 0.955000   -8.038234   -14.556827
 0.960000   -7.770738   102.924000
 0.965000   -7.008994   178.825279
 0.970000   -5.982485   213.500595
 0.975000   -4.873988   240.760680
 0.980000   -3.574878   315.205675
 0.985000   -1.721931   459.403106
 0.990000   1.019153   623.629824
 0.995000   4.514367   696.247965
 1.000000   7.981632   690.658185
201 psinorm omgpp(kRad/s) domgpp/dpsiN
 0.000000   -0.054691   -27.275621
 0.005000   -0.221231   -39.340566
 0.010000   -0.448097   -45.912788
 0.015000   -0.680359   -46.921055
 0.020000   -0.917307   -47.759967
 0.025000   -1.157959   -48.382927
 0.030000   -1.401136   -48.797491
 0.035000   -1.645934   -48.995859
 0.040000   -1.891095   -48.951451
 0.045000   -2.135448   -48.672997
 0.050000   -2.377825   -48.114139
 0.055000   -2.616590   -47.276738
 0.060000   -2.850592   -46.448176
 0.065000   -3.081072   -45.611985
 0.070000   -3.306712   -44.607638
 0.075000   -3.527148   -43.533745
 0.080000   -3.742050   -42.364334
 0.085000   -3.950791   -41.145494
 0.090000   -4.153505   -40.144437
 0.095000   -4.352236   -39.208855
 0.100000   -4.545593   -38.121387
 0.105000   -4.733449   -37.010357
 0.110000   -4.915697   -35.896534
 0.115000   -5.092415   -34.943468
 0.120000   -5.265131   -33.975896
 0.125000   -5.432174   -32.756640
 0.130000   -5.592698   -31.387490
 0.135000   -5.746049   -29.892203
 0.140000   -5.891620   -28.290908
 0.145000   -6.028958   -26.656668
 0.150000   -6.158187   -24.733058
 0.155000   -6.276288   -22.575871
 0.160000   -6.383945   -20.435656
 0.165000   -6.480645   -18.198098
 0.170000   -6.565926   -15.877525
 0.175000   -6.639420   -13.273718
 0.180000   -6.698663   -10.679160
 0.185000   -6.746212   -8.352771
 0.190000   -6.782191   -6.176000
 0.195000   -6.807972   -4.307140
 0.200000   -6.825262   -2.796555
 0.205000   -6.835937   -1.764989
 0.210000   -6.842912   -1.336629
 0.215000   -6.849304   -1.141985
 0.220000   -6.854332   -0.872097
 0.225000   -6.858025   -0.570698
 0.230000   -6.860039   -0.166486
 0.235000   -6.859689   -0.312643
 0.240000   -6.863166   0.203220
 0.245000   -6.857657   2.136584
 0.250000   -6.841800   4.088452
 0.255000   -6.816773   6.038156
 0.260000   -6.781418   8.202893
 0.265000   -6.734744   10.290064
 0.270000   -6.678518   13.015560
 0.275000   -6.604588   16.439367
 0.280000   -6.514124   19.514865
 0.285000   -6.409440   22.358646
 0.290000   -6.290537   25.189757
 0.295000   -6.157542   28.451975
 0.300000   -6.006018   31.642961
 0.305000   -5.841112   33.120042
 0.310000   -5.674817   33.387578
 0.315000   -5.507237   33.415575
 0.320000   -5.340662   33.036400
 0.325000   -5.176873   32.467601
 0.330000   -5.015986   31.399228
 0.335000   -4.862880   29.732012
 0.340000   -4.718665   28.269389
 0.345000   -4.580186   27.170153
 0.350000   -4.446964   26.186552
 0.355000   -4.318321   25.203188
 0.360000   -4.194932   24.141808
 0.365000   -4.076903   23.850667
 0.370000   -3.956425   24.343462
 0.375000   -3.833468   25.022692
 0.380000   -3.706198   25.982805
 0.385000   -3.573640   27.086716
 0.390000   -3.435331   28.461816
 0.395000   -3.289022   29.382474
 0.400000   -3.141507   29.354970
 0.405000   -2.995472   28.809783
 0.410000   -2.853409   27.829210
 0.415000   -2.717180   26.592028
 0.420000   -2.587488   25.465089
 0.425000   -2.462529   23.917586
 0.430000   -2.348313   22.169075
 0.435000   -2.240839   20.821104
 0.440000   -2.140101   19.475896
 0.445000   -2.046080   18.134422
 0.450000   -1.958757   16.870574
 0.455000   -1.877374   15.396886
 0.460000   -1.804788   13.814199
 0.465000   -1.739232   12.385073
 0.470000   -1.680938   10.921695
 0.475000   -1.630015   9.454285
 0.480000   -1.586395   8.017443
 0.485000   -1.549840   7.050441
 0.490000   -1.515890   6.433881
 0.495000   -1.485502   5.673546
 0.500000   -1.459155   4.849335
 0.505000   -1.437008   4.007089
 0.510000   -1.419084   3.381610
 0.515000   -1.403192   2.723260
 0.520000   -1.391851   1.849969
 0.525000   -1.384692   1.069305
 0.530000   -1.381158   0.357965
 0.535000   -1.381113   -0.332810
 0.540000   -1.384487   -0.789287
 0.545000   -1.389006   -1.447286
 0.550000   -1.398959   -2.517518
 0.555000   -1.414181   -3.497486
 0.560000   -1.433934   -4.423833
 0.565000   -1.458419   -5.378814
 0.570000   -1.487722   -6.309239
 0.575000   -1.521512   -7.318909
 0.580000   -1.560911   -8.332860
 0.585000   -1.604840   -9.165174
 0.590000   -1.652563   -9.894054
 0.595000   -1.703781   -10.565377
 0.600000   -1.758217   -11.312722
 0.605000   -1.816908   -12.092791
 0.610000   -1.879145   -12.579200
 0.615000   -1.942700   -12.903696
 0.620000   -2.008182   -13.245750
 0.625000   -2.075157   -13.499817
 0.630000   -2.143180   -13.807723
 0.635000   -2.213235   -14.053895
 0.640000   -2.283719   -13.752453
 0.645000   -2.350759   -13.255654
 0.650000   -2.416275   -12.931528
 0.655000   -2.480074   -12.571820
 0.660000   -2.541994   -12.256985
 0.665000   -2.602644   -12.214087
 0.670000   -2.664135   -12.586502
 0.675000   -2.728509   -13.700726
 0.680000   -2.801142   -15.507760
 0.685000   -2.883587   -17.520531
 0.690000   -2.976347   -19.837292
 0.695000   -3.081960   -23.133105
 0.700000   -3.207678   -24.211582
 0.705000   -3.324076   -23.220904
 0.710000   -3.439887   -22.773312
 0.715000   -3.551809   -21.594090
 0.720000   -3.655828   -19.677941
 0.725000   -3.748588   -17.440323
 0.730000   -3.830231   -12.265207
 0.735000   -3.871240   -5.328214
 0.740000   -3.883513   0.575779
 0.745000   -3.865483   6.657976
 0.750000   -3.816934   12.614216
 0.755000   -3.739340   19.305548
 0.760000   -3.623878   24.515345
 0.765000   -3.494187   27.301067
 0.770000   -3.350868   29.495246
 0.775000   -3.199234   30.630981
 0.780000   -3.044558   30.753547
 0.785000   -2.891699   30.986002
 0.790000   -2.734698   29.177198
 0.795000   -2.599927   25.536194
 0.800000   -2.479336   22.677016
 0.805000   -2.373157   19.748004
 0.810000   -2.281856   16.816884
 0.815000   -2.204988   13.886686
 0.820000   -2.142989   11.416055
 0.825000   -2.090827   9.677095
 0.830000   -2.046218   8.176642
 0.835000   -2.009061   6.672633
 0.840000   -1.979492   5.070136
 0.845000   -1.958360   2.335059
 0.850000   -1.956141   -1.017462
 0.855000   -1.968534   -3.686290
 0.860000   -1.993004   -6.390022
 0.865000   -2.032435   -9.412930
 0.870000   -2.087133   -12.539262
 0.875000   -2.157827   -17.118624
 0.880000   -2.258319   -21.982407
 0.885000   -2.377651   -25.358566
 0.890000   -2.511905   -29.936437
 0.895000   -2.677016   -37.026128
 0.900000   -2.882166   -46.161427
 0.905000   -3.138630   -59.810321
 0.910000   -3.480270   -78.062439
 0.915000   -3.919254   -97.525438
 0.920000   -4.455524   -122.792041
 0.925000   -5.147175   -158.730372
 0.930000   -6.042828   -205.335462
 0.935000   -7.200529   -269.418303
 0.940000   -8.737011   -351.864688
 0.945000   -10.719176   -425.338087
 0.950000   -12.990392   -481.209151
 0.955000   -15.531268   -516.409012
 0.960000   -18.154482   -502.688692
 0.965000   -20.558155   -425.378124
 0.970000   -22.408263   -272.927754
 0.975000   -23.287432   -39.651639
 0.980000   -22.804779   206.556180
 0.985000   -21.221870   394.090072
 0.990000   -18.863879   506.935428
 0.995000   -16.152516   537.563197
 1.000000   -13.488247   528.144545
201 psinorm omgeb(kRad/s) domgeb/dpsiN
 0.000000   72.726560   59.511598
 0.005000   72.900161   9.928710
 0.010000   72.825847   -17.762139
 0.015000   72.722540   -22.723728
 0.020000   72.598610   -25.943978
 0.025000   72.463100   -28.388910
 0.030000   72.314721   -30.939365
 0.035000   72.153706   -32.857291
 0.040000   71.986148   -34.548238
 0.045000   71.808224   -36.008813
 0.050000   71.626060   -36.872900
 0.055000   71.439495   -37.132581
 0.060000   71.254734   -37.119798
 0.065000   71.068297   -36.755674
 0.070000   70.887177   -36.096722
 0.075000   70.707330   -35.507787
 0.080000   70.532100   -34.502606
 0.085000   70.362304   -33.819671
 0.090000   70.193903   -33.263903
 0.095000   70.029665   -32.678839
 0.100000   69.867115   -32.349274
 0.105000   69.706172   -31.821298
 0.110000   69.548902   -31.321787
 0.115000   69.392954   -31.055617
 0.120000   69.238345   -30.665989
 0.125000   69.086294   -30.136536
 0.130000   68.936980   -29.533265
 0.135000   68.790961   -29.119895
 0.140000   68.645781   -28.844625
 0.145000   68.502515   -28.639531
 0.150000   68.359386   -28.338201
 0.155000   68.219133   -28.199996
 0.160000   68.077386   -28.287341
 0.165000   67.936260   -28.316110
 0.170000   67.794225   -28.536169
 0.175000   67.650898   -28.830365
 0.180000   67.505921   -29.361628
 0.185000   67.357282   -30.072466
 0.190000   67.205196   -30.940145
 0.195000   67.047880   -32.008690
 0.200000   66.885109   -33.089059
 0.205000   66.716990   -34.298861
 0.210000   66.542121   -36.009218
 0.215000   66.356898   -37.717770
 0.220000   66.164943   -38.896538
 0.225000   65.967932   -40.184286
 0.230000   65.763100   -41.434770
 0.235000   65.553585   -43.084697
 0.240000   65.332253   -44.155314
 0.245000   65.112031   -43.822112
 0.250000   64.894032   -43.348557
 0.255000   64.678546   -42.852352
 0.260000   64.465509   -42.069317
 0.265000   64.257853   -41.371528
 0.270000   64.051793   -40.119385
 0.275000   63.856659   -38.188039
 0.280000   63.669913   -36.766481
 0.285000   63.488994   -35.722487
 0.290000   63.312688   -34.967577
 0.295000   63.139318   -33.998917
 0.300000   62.972699   -33.242880
 0.305000   62.806889   -34.411499
 0.310000   62.628584   -36.941533
 0.315000   62.437474   -39.747671
 0.320000   62.231107   -42.856078
 0.325000   62.008913   -46.050258
 0.330000   61.770605   -49.505201
 0.335000   61.513861   -53.225203
 0.340000   61.238353   -56.469727
 0.345000   60.949164   -59.163388
 0.350000   60.646719   -61.480537
 0.355000   60.334359   -63.743788
 0.360000   60.009281   -66.284128
 0.365000   59.671517   -68.046007
 0.370000   59.328821   -69.227001
 0.375000   58.979247   -70.408211
 0.380000   58.624739   -71.424087
 0.385000   58.265006   -72.436577
 0.390000   57.900373   -72.822281
 0.395000   57.536784   -73.281374
 0.400000   57.167559   -74.417187
 0.405000   56.792612   -76.031198
 0.410000   56.407247   -79.151973
 0.415000   56.001092   -84.154251
 0.420000   55.565705   -90.606925
 0.425000   55.095023   -98.794442
 0.430000   54.577760   -108.404871
 0.435000   54.010974   -118.992561
 0.440000   53.387835   -130.863389
 0.445000   52.702340   -142.578197
 0.450000   51.962053   -152.945677
 0.455000   51.172883   -162.150744
 0.460000   50.340545   -169.447093
 0.465000   49.478413   -174.234400
 0.470000   48.598201   -175.709110
 0.475000   47.721321   -173.571945
 0.480000   46.862482   -168.899451
 0.485000   46.032327   -161.903686
 0.490000   45.243445   -153.100581
 0.495000   44.501321   -143.332801
 0.500000   43.810117   -133.435915
 0.505000   43.166962   -124.784613
 0.510000   42.562271   -117.547688
 0.515000   41.991485   -111.826903
 0.520000   41.444002   -107.525097
 0.525000   40.916234   -104.078140
 0.530000   40.403220   -101.293903
 0.535000   39.903295   -98.692070
 0.540000   39.416300   -95.940506
 0.545000   38.943890   -93.421968
 0.550000   38.482080   -91.338476
 0.555000   38.030505   -89.310603
 0.560000   37.588974   -87.181034
 0.565000   37.158695   -84.955123
 0.570000   36.739423   -82.873329
 0.575000   36.329962   -80.947084
 0.580000   35.929952   -78.931604
 0.585000   35.540646   -76.867429
 0.590000   35.161278   -74.705101
 0.595000   34.793595   -72.484250
 0.600000   34.436435   -70.489023
 0.605000   34.088704   -68.706817
 0.610000   33.749367   -66.903059
 0.615000   33.419674   -65.073207
 0.620000   33.098635   -63.513783
 0.625000   32.784536   -62.176383
 0.630000   32.476871   -61.129655
 0.635000   32.173239   -60.212103
 0.640000   31.874750   -58.989789
 0.645000   31.583341   -57.783289
 0.650000   31.296917   -56.849235
 0.655000   31.014849   -56.235286
 0.660000   30.734564   -55.903457
 0.665000   30.455815   -56.088467
 0.670000   30.173680   -56.899149
 0.675000   29.886823   -58.491124
 0.680000   29.588768   -60.679341
 0.685000   29.280030   -62.482453
 0.690000   28.963944   -64.242150
 0.695000   28.637608   -66.722601
 0.700000   28.296718   -66.690161
 0.705000   27.970707   -64.482238
 0.710000   27.651895   -62.954581
 0.715000   27.341161   -61.168038
 0.720000   27.040215   -59.091163
 0.725000   26.750249   -57.254427
 0.730000   26.467671   -53.129185
 0.735000   26.218957   -47.944910
 0.740000   25.988222   -44.460030
 0.745000   25.774357   -41.757164
 0.750000   25.570650   -40.263114
 0.755000   25.371726   -38.754162
 0.760000   25.183108   -39.376459
 0.765000   24.977961   -42.655220
 0.770000   24.756556   -46.539982
 0.775000   24.512561   -51.353010
 0.780000   24.243026   -56.443289
 0.785000   23.948129   -60.662610
 0.790000   23.636400   -66.481988
 0.795000   23.283309   -73.888637
 0.800000   22.897514   -80.385031
 0.805000   22.479458   -87.047371
 0.810000   22.027040   -93.751519
 0.815000   21.541943   -100.224262
 0.820000   21.024797   -105.815655
 0.825000   20.483787   -109.857460
 0.830000   19.926223   -112.448126
 0.835000   19.359305   -113.659118
 0.840000   18.789632   -113.465807
 0.845000   18.224647   -113.272640
 0.850000   17.656905   -112.944544
 0.855000   17.095202   -112.043453
 0.860000   16.536471   -112.478330
 0.865000   15.970419   -115.720761
 0.870000   15.379263   -121.929193
 0.875000   14.751127   -133.180304
 0.880000   14.047460   -150.503972
 0.885000   13.246087   -173.633222
 0.890000   12.311128   -206.397766
 0.895000   11.182109   -252.055376
 0.900000   9.790574   -309.154976
 0.905000   8.090559   -377.730000
 0.910000   6.013274   -455.542783
 0.915000   3.535132   -533.067773
 0.920000   0.682596   -605.554836
 0.925000   -2.520417   -669.645723
 0.930000   -6.013861   -717.153098
 0.935000   -9.691948   -746.437040
 0.940000   -13.478231   -752.742079
 0.945000   -17.219369   -713.732977
 0.950000   -20.615561   -635.013295
 0.955000   -23.569501   -530.965839
 0.960000   -25.925220   -399.764693
 0.965000   -27.567148   -246.552845
 0.970000   -28.390748   -59.427159
 0.975000   -28.161420   201.109041
 0.980000   -26.379658   521.761855
 0.985000   -22.943801   853.493178
 0.990000   -17.844726   1130.565252
 0.995000   -11.638149   1233.811162
 1.000000   -5.506614   1218.802730
201 psinorm er(kV/m) der/dpsiN
 0.000000   1.442008   1134.003805
 0.005000   6.083689   722.668569
 0.010000   8.668694   456.350694
 0.015000   10.647196   365.938891
 0.020000   12.328083   313.680435
 0.025000   13.784000   276.846926
 0.030000   15.096552   251.163559
 0.035000   16.295636   230.796831
 0.040000   17.404520   214.359218
 0.045000   18.439228   199.664562
 0.050000   19.401166   186.727180
 0.055000   20.306500   175.219490
 0.060000   21.153361   167.517994
 0.065000   21.981680   160.836963
 0.070000   22.761730   150.513364
 0.075000   23.486813   145.378311
 0.080000   24.215513   141.102161
 0.085000   24.897835   132.448707
 0.090000   25.540001   129.800766
 0.095000   26.195843   123.931595
 0.100000   26.779316   119.729660
 0.105000   27.393139   116.362253
 0.110000   27.942939   111.829048
 0.115000   28.511430   108.530408
 0.120000   29.028243   104.797549
 0.125000   29.559405   101.529603
 0.130000   30.043539   98.809789
 0.135000   30.547503   95.249936
 0.140000   30.996038   93.365879
 0.145000   31.481162   89.320055
 0.150000   31.889239   88.421526
 0.155000   32.365377   83.909487
 0.160000   32.728334   81.140850
 0.165000   33.176786   81.494371
 0.170000   33.543278   75.756283
 0.175000   33.934349   77.115147
 0.180000   34.314429   70.692779
 0.185000   34.641276   71.357596
 0.190000   35.028005   66.203906
 0.195000   35.303315   62.332159
 0.200000   35.651327   65.461496
 0.205000   35.957930   57.198082
 0.210000   36.223307   57.982107
 0.215000   36.537751   53.030623
 0.220000   36.753614   48.427757
 0.225000   37.022029   52.357650
 0.230000   37.277190   43.607960
 0.235000   37.458109   42.248355
 0.240000   37.699674   43.423632
 0.245000   37.892345   36.605753
 0.250000   38.065731   39.220697
 0.255000   38.284552   36.625518
 0.260000   38.431986   32.420935
 0.265000   38.608761   37.588059
 0.270000   38.807867   31.862252
 0.275000   38.927384   30.030481
 0.280000   39.108172   36.951508
 0.285000   39.296899   29.434977
 0.290000   39.402522   27.903401
 0.295000   39.575933   34.435491
 0.300000   39.746877   27.074644
 0.305000   39.846679   24.745843
 0.310000   39.994335   28.118093
 0.315000   40.127860   19.284970
 0.320000   40.187185   15.653098
 0.325000   40.284391   18.139009
 0.330000   40.368575   9.394559
 0.335000   40.378337   5.005445
 0.340000   40.418629   6.904468
 0.345000   40.447381   -0.005214
 0.350000   40.418577   -3.944075
 0.355000   40.407941   -2.737374
 0.360000   40.391203   -7.662902
 0.365000   40.331312   -11.726728
 0.370000   40.273936   -11.143042
 0.375000   40.219881   -13.227277
 0.380000   40.141663   -17.238596
 0.385000   40.047495   -17.838395
 0.390000   39.963279   -17.825413
 0.395000   39.869241   -21.515367
 0.400000   39.748126   -23.128248
 0.405000   39.637959   -23.011725
 0.410000   39.518008   -28.430487
 0.415000   39.353654   -33.476685
 0.420000   39.183242   -36.821626
 0.425000   38.985438   -44.508223
 0.430000   38.738159   -53.398914
 0.435000   38.451448   -61.076298
 0.440000   38.127396   -70.027067
 0.445000   37.751178   -80.725110
 0.450000   37.320145   -89.239813
 0.455000   36.858780   -95.718324
 0.460000   36.362962   -103.083778
 0.465000   35.827942   -108.099208
 0.470000   35.281970   -109.205724
 0.475000   34.735885   -108.724633
 0.480000   34.194724   -107.114053
 0.485000   33.664744   -102.779046
 0.490000   33.166933   -96.444511
 0.495000   32.700299   -90.892579
 0.500000   32.258007   -84.610917
 0.505000   31.854190   -78.115563
 0.510000   31.476852   -73.622277
 0.515000   31.117967   -70.547376
 0.520000   30.771378   -67.698125
 0.525000   30.440986   -65.183524
 0.530000   30.119543   -64.267430
 0.535000   29.798311   -62.956513
 0.540000   29.489978   -60.696639
 0.545000   29.191345   -59.440133
 0.550000   28.895576   -58.732261
 0.555000   28.604022   -57.373749
 0.560000   28.321839   -55.699020
 0.565000   28.047032   -54.999455
 0.570000   27.771844   -53.873724
 0.575000   27.508295   -52.077146
 0.580000   27.251073   -51.019166
 0.585000   26.998103   -50.197787
 0.590000   26.749095   -48.613488
 0.595000   26.511968   -46.689928
 0.600000   26.282196   -46.005766
 0.605000   26.051911   -45.046429
 0.610000   25.831731   -43.252506
 0.615000   25.619386   -42.068646
 0.620000   25.411045   -41.695912
 0.625000   25.202427   -40.703795
 0.630000   25.004007   -39.420290
 0.635000   24.808224   -39.393302
 0.640000   24.610074   -38.989443
 0.645000   24.418329   -37.674469
 0.650000   24.233329   -36.706720
 0.655000   24.051262   -37.343395
 0.660000   23.859895   -37.275970
 0.665000   23.678502   -36.575243
 0.670000   23.494143   -37.628835
 0.675000   23.302214   -39.744849
 0.680000   23.096694   -41.282582
 0.685000   22.889388   -42.081256
 0.690000   22.675882   -44.325740
 0.695000   22.446131   -46.873613
 0.700000   22.207146   -46.246819
 0.705000   21.983663   -44.170109
 0.710000   21.765445   -44.372731
 0.715000   21.539935   -43.229394
 0.720000   21.333151   -40.458713
 0.725000   21.135348   -39.346534
 0.730000   20.939685   -37.341895
 0.735000   20.761929   -33.084230
 0.740000   20.608843   -29.322447
 0.745000   20.468705   -27.966696
 0.750000   20.329176   -27.657048
 0.755000   20.192134   -25.935430
 0.760000   20.069822   -25.841175
 0.765000   19.933723   -29.509954
 0.770000   19.774722   -33.121492
 0.775000   19.602508   -36.252954
 0.780000   19.412193   -40.171352
 0.785000   19.200794   -44.701770
 0.790000   18.965175   -49.666784
 0.795000   18.704126   -54.902580
 0.800000   18.416149   -60.419821
 0.805000   18.099928   -66.657574
 0.810000   17.749573   -72.245919
 0.815000   17.377469   -77.095405
 0.820000   16.978619   -82.023034
 0.825000   16.557239   -86.012310
 0.830000   16.118496   -88.246366
 0.835000   15.674775   -89.050449
 0.840000   15.227992   -89.367682
 0.845000   14.781098   -89.802319
 0.850000   14.329969   -89.601412
 0.855000   13.885084   -88.797139
 0.860000   13.441997   -89.655217
 0.865000   12.988532   -92.771384
 0.870000   12.514283   -97.812234
 0.875000   12.010409   -106.973386
 0.880000   11.444549   -121.580676
 0.885000   10.794603   -140.774929
 0.890000   10.036800   -167.412133
 0.895000   9.120481   -204.759895
 0.900000   7.989201   -251.490474
 0.905000   6.605577   -307.329104
 0.910000   4.915910   -370.906154
 0.915000   2.896515   -435.159234
 0.920000   0.564318   -496.002393
 0.925000   -2.063509   -549.218036
 0.930000   -4.927863   -589.221740
 0.935000   -7.955726   -620.269030
 0.940000   -11.130553   -638.626886
 0.945000   -14.341995   -607.104085
 0.950000   -17.201594   -535.407986
 0.955000   -19.696075   -467.338629
 0.960000   -21.874980   -384.936403
 0.965000   -23.545439   -242.368766
 0.970000   -24.298668   -59.363221
 0.975000   -24.139071   158.103862
 0.980000   -22.717629   425.992330
 0.985000   -19.879148   723.001654
 0.990000   -15.487612   975.220763
 0.995000   -10.126940   1069.621939
 1.000000   -4.791393   1064.596936
201 psinorm ommvb() dommvb/dpsiN
 0.000000   72.852741   24151.003350
 0.005000   165.911195   13072.378425
 0.010000   203.576525   8118.726902
 0.015000   247.098464   8147.679363
 0.020000   285.053318   6809.342747
 0.025000   315.191891   5438.251904
 0.030000   339.435837   4499.011051
 0.035000   360.182002   4155.040871
 0.040000   380.986246   3850.357256
 0.045000   398.685575   3282.267783
 0.050000   413.808924   2935.454167
 0.055000   428.040116   2593.570943
 0.060000   439.744633   2258.861132
 0.065000   450.628728   1993.810526
 0.070000   459.682739   1749.048633
 0.075000   468.119214   1586.109682
 0.080000   475.543836   1306.810555
 0.085000   481.187319   1026.709197
 0.090000   485.810927   807.530283
 0.095000   489.262622   561.658797
 0.100000   491.427515   395.344064
 0.105000   493.216063   265.924805
 0.110000   494.086763   106.848067
 0.115000   494.284544   -30.912578
 0.120000   493.777638   -177.771066
 0.125000   492.506833   -315.969018
 0.130000   490.617948   -439.132997
 0.135000   488.115503   -551.793524
 0.140000   485.100012   -650.269539
 0.145000   481.612808   -754.020865
 0.150000   477.559804   -857.436327
 0.155000   473.038444   -942.007227
 0.160000   468.139731   -1012.597060
 0.165000   462.912474   -1074.140224
 0.170000   457.398329   -1127.901419
 0.175000   451.633459   -1205.450514
 0.180000   445.343824   -1293.114553
 0.185000   438.702314   -1298.125372
 0.190000   432.362570   -1274.686560
 0.195000   425.955448   -1398.687107
 0.200000   418.375699   -1501.477233
 0.205000   410.940676   -1402.158918
 0.210000   404.354110   -1315.194195
 0.215000   397.788734   -1308.533971
 0.220000   391.268770   -1282.494223
 0.225000   384.963792   -1227.164354
 0.230000   378.997127   -1339.854080
 0.235000   371.565251   -1486.876629
 0.240000   364.128360   -1335.699448
 0.245000   358.208257   -1166.512962
 0.250000   352.463231   -1134.045258
 0.255000   346.867804   -1099.664053
 0.260000   341.466590   -1238.762116
 0.265000   334.480183   -1250.356623
 0.270000   328.963024   -1026.629561
 0.275000   324.213887   -930.418642
 0.280000   319.658838   -886.123341
 0.285000   315.352654   -972.358712
 0.290000   309.935251   -1000.731004
 0.295000   305.345344   -809.069903
 0.300000   301.844552   -684.489955
 0.305000   298.500444   -652.843262
 0.310000   295.316119   -775.143866
 0.315000   290.749006   -749.672994
 0.320000   287.819389   -539.427519
 0.325000   285.354730   -477.864867
 0.330000   283.040740   -487.842855
 0.335000   280.476302   -555.855374
 0.340000   277.482187   -471.915287
 0.345000   275.757149   -334.031552
 0.350000   274.141871   -311.140798
 0.355000   272.645741   -399.566081
 0.360000   270.146210   -369.739722
 0.365000   268.948344   -220.680825
 0.370000   267.939402   -193.457514
 0.375000   267.013769   -241.071390
 0.380000   265.528688   -243.457059
 0.385000   264.579198   -147.997697
 0.390000   264.048711   -100.017060
 0.395000   263.579027   -123.736502
 0.400000   262.811346   -147.067515
 0.405000   262.108352   -94.588794
 0.410000   261.865458   -50.034578
 0.415000   261.608006   -77.755541
 0.420000   261.087903   -141.298257
 0.425000   260.195024   -123.726117
 0.430000   259.850642   -75.256406
 0.435000   259.442460   -105.098935
 0.440000   258.799652   -179.993095
 0.445000   257.642529   -169.866624
 0.450000   257.100986   -107.722443
 0.455000   256.565304   -109.684240
 0.460000   256.004144   -184.267473
 0.465000   254.722630   -180.591820
 0.470000   254.198225   -100.293519
 0.475000   253.719695   -89.421064
 0.480000   253.304015   -135.118554
 0.485000   252.368509   -110.047239
 0.490000   252.203542   -19.209066
 0.495000   252.176418   5.292196
 0.500000   252.256464   -12.764146
 0.505000   252.048777   3.089769
 0.510000   252.287362   63.223177
 0.515000   252.681009   82.264034
 0.520000   253.110002   59.268487
 0.525000   253.273693   49.145088
 0.530000   253.601453   92.286523
 0.535000   254.196559   122.964081
 0.540000   254.831094   114.013819
 0.545000   255.336697   92.591882
 0.550000   255.757013   116.608720
 0.555000   256.502784   153.717197
 0.560000   257.294185   162.013610
 0.565000   258.122920   137.388600
 0.570000   258.668071   153.616422
 0.575000   259.659084   208.659039
 0.580000   260.754661   227.636516
 0.585000   261.935450   219.355126
 0.590000   262.948212   232.911733
 0.595000   264.264567   280.971353
 0.600000   265.757926   311.688333
 0.605000   267.381450   341.758140
 0.610000   269.175507   355.950739
 0.615000   270.940958   386.105230
 0.620000   273.036560   432.711041
 0.625000   275.268068   460.404736
 0.630000   277.640607   491.341241
 0.635000   280.181480   530.424457
 0.640000   282.944852   567.056820
 0.645000   285.852049   598.359640
 0.650000   288.928448   632.865967
 0.655000   292.180708   675.650250
 0.660000   295.684951   722.490316
 0.665000   299.405612   753.470702
 0.670000   303.219658   780.907488
 0.675000   307.214686   819.006082
 0.680000   311.409718   872.854514
 0.685000   315.943232   931.877057
 0.690000   320.728489   962.587405
 0.695000   325.569106   990.811426
 0.700000   330.636603   1038.889574
 0.705000   335.958001   1087.343077
 0.710000   341.510034   1159.766455
 0.715000   347.555666   1211.524713
 0.720000   353.625281   1234.185286
 0.725000   359.897519   1280.193229
 0.730000   366.427213   1334.395681
 0.735000   373.241476   1388.132173
 0.740000   380.308535   1454.740363
 0.745000   387.788879   1504.321440
 0.750000   395.351750   1534.698849
 0.755000   403.135868   1584.565019
 0.760000   411.197400   1636.861639
 0.765000   419.504484   1686.052072
 0.770000   428.057920   1748.235903
 0.775000   436.986843   1828.325688
 0.780000   446.341177   1917.733870
 0.785000   456.164182   2009.197596
 0.790000   466.433153   2106.550745
 0.795000   477.229689   2216.938837
 0.800000   488.602542   2331.638481
 0.805000   500.546074   2449.479116
 0.810000   513.097333   2559.882354
 0.815000   526.144898   2681.547306
 0.820000   539.912806   2837.858997
 0.825000   554.523488   3011.211195
 0.830000   570.024918   3195.191212
 0.835000   586.475400   3390.815105
 0.840000   603.933069   3602.267971
 0.845000   622.498079   3833.875123
 0.850000   642.271820   4087.851855
 0.855000   663.376598   4382.522969
 0.860000   686.097050   4648.062508
 0.865000   709.857223   4924.847805
 0.870000   735.345528   5400.219362
 0.875000   763.859417   6002.998041
 0.880000   795.375508   6623.628931
 0.885000   830.095706   7282.206935
 0.890000   868.197578   7987.572214
 0.895000   909.971428   8702.741872
 0.900000   955.224996   9389.671283
 0.905000   1003.868141   10085.896491
 0.910000   1056.083961   10819.363060
 0.915000   1112.061772   11568.953241
 0.920000   1171.773494   12326.219371
 0.925000   1235.323965   13264.324209
 0.930000   1304.416736   14840.960354
 0.935000   1383.733569   17761.152992
 0.940000   1482.028266   23083.379211
 0.945000   1614.567361   31934.750134
 0.950000   1801.375767   44712.080442
 0.955000   2061.688165   59629.412271
 0.960000   2397.669890   72430.436270
 0.965000   2785.992528   78415.660999
 0.970000   3181.826500   71286.159422
 0.975000   3498.854122   54389.128628
 0.980000   3725.717786   37209.104246
 0.985000   3870.945165   36284.671760
 0.990000   4088.564504   76656.900715
 0.995000   4637.514172   536686.322494
 1.000000   9455.427728   1390479.100175
201 psinorm ommpp() dommpp/dpsiN
 0.000000   -0.126180   -24091.491752
 0.005000   -93.011034   -13062.449715
 0.010000   -130.750677   -8136.489041
 0.015000   -174.375924   -8170.403091
 0.020000   -212.454708   -6835.286725
 0.025000   -242.728792   -5466.640814
 0.030000   -267.121116   -4529.950416
 0.035000   -288.028296   -4187.898161
 0.040000   -309.000098   -3884.905493
 0.045000   -326.877351   -3318.276595
 0.050000   -342.182864   -2972.327067
 0.055000   -356.600621   -2630.703524
 0.060000   -368.489899   -2295.980930
 0.065000   -379.560431   -2030.566200
 0.070000   -388.795561   -1785.145355
 0.075000   -397.411884   -1621.617469
 0.080000   -405.011736   -1341.313162
 0.085000   -410.825016   -1060.528868
 0.090000   -415.617025   -840.794186
 0.095000   -419.232958   -594.337636
 0.100000   -421.560401   -427.693339
 0.105000   -423.509891   -297.746102
 0.110000   -424.537862   -138.169854
 0.115000   -424.891590   -0.143039
 0.120000   -424.539292   147.105077
 0.125000   -423.420539   285.832482
 0.130000   -421.680968   409.599732
 0.135000   -419.324541   522.673629
 0.140000   -416.454231   621.424914
 0.145000   -413.110292   725.381333
 0.150000   -409.200418   829.098126
 0.155000   -404.819311   913.807231
 0.160000   -400.062346   984.309719
 0.165000   -394.976214   1045.824114
 0.170000   -389.604104   1099.365250
 0.175000   -383.982561   1176.620149
 0.180000   -377.837903   1263.752925
 0.185000   -371.345032   1268.052906
 0.190000   -365.157374   1243.746415
 0.195000   -358.907568   1366.678417
 0.200000   -351.490590   1468.388174
 0.205000   -344.223686   1367.860058
 0.210000   -337.811989   1279.184977
 0.215000   -331.431836   1270.816202
 0.220000   -325.103827   1243.597685
 0.225000   -318.995860   1186.980068
 0.230000   -313.234026   1298.419310
 0.235000   -306.011667   1443.791932
 0.240000   -298.796107   1291.544134
 0.245000   -293.096225   1122.690850
 0.250000   -287.569199   1090.696701
 0.255000   -282.189258   1056.811700
 0.260000   -277.001082   1196.692799
 0.265000   -270.222330   1208.985095
 0.270000   -264.911231   986.510175
 0.275000   -260.357228   892.230603
 0.280000   -255.988925   849.356861
 0.285000   -251.863660   936.636225
 0.290000   -246.622562   965.763427
 0.295000   -242.206026   775.070986
 0.300000   -238.871853   651.247074
 0.305000   -235.693555   618.431763
 0.310000   -232.687535   738.202332
 0.315000   -228.311531   709.925323
 0.320000   -225.588282   496.571442
 0.325000   -223.345817   431.814609
 0.330000   -221.270136   438.337654
 0.335000   -218.962441   502.630171
 0.340000   -216.243834   415.445560
 0.345000   -214.807985   274.868164
 0.350000   -213.495152   249.660261
 0.355000   -212.311382   335.822293
 0.360000   -210.136929   303.455595
 0.365000   -209.276826   152.634819
 0.370000   -208.610581   124.230513
 0.375000   -208.034521   170.663179
 0.380000   -206.903949   172.032972
 0.385000   -206.314191   75.561120
 0.390000   -206.148338   27.194780
 0.395000   -206.042244   50.455128
 0.400000   -205.643787   72.650328
 0.405000   -205.315740   18.557596
 0.410000   -205.458211   -29.117395
 0.415000   -205.606914   -6.398710
 0.420000   -205.522198   50.691331
 0.425000   -205.100001   24.931674
 0.430000   -205.272881   -33.148466
 0.435000   -205.431486   -13.893626
 0.440000   -205.411818   49.129706
 0.445000   -204.940189   27.288427
 0.450000   -205.138933   -45.223234
 0.455000   -205.392421   -52.466504
 0.460000   -205.663598   14.820380
 0.465000   -205.244217   6.357420
 0.470000   -205.600024   -75.415591
 0.475000   -205.998373   -84.150881
 0.480000   -206.441533   -33.780897
 0.485000   -206.336182   -51.856448
 0.490000   -206.960097   -133.891515
 0.495000   -207.675097   -148.624997
 0.500000   -208.446347   -120.671769
 0.505000   -208.881815   -127.874382
 0.510000   -209.725091   -180.770865
 0.515000   -210.689524   -194.090937
 0.520000   -211.666001   -166.793584
 0.525000   -212.357459   -153.223228
 0.530000   -213.198233   -193.580426
 0.535000   -214.293264   -221.656151
 0.540000   -215.414794   -209.954326
 0.545000   -216.392807   -186.013850
 0.550000   -217.274933   -207.947196
 0.555000   -218.472279   -243.027801
 0.560000   -219.705211   -249.194644
 0.565000   -220.964225   -222.343724
 0.570000   -221.928648   -236.489751
 0.575000   -223.329123   -289.606123
 0.580000   -224.824709   -306.568121
 0.585000   -226.394804   -296.222555
 0.590000   -227.786935   -307.616833
 0.595000   -229.470972   -353.455602
 0.600000   -231.321491   -382.177356
 0.605000   -233.292746   -410.464957
 0.610000   -235.426140   -422.853797
 0.615000   -237.521284   -451.178437
 0.620000   -239.937925   -496.224824
 0.625000   -242.483532   -522.581118
 0.630000   -245.163736   -552.470896
 0.635000   -248.008241   -590.636560
 0.640000   -251.070102   -626.046609
 0.645000   -254.268707   -656.142928
 0.650000   -257.631531   -689.715202
 0.655000   -261.165859   -731.885535
 0.660000   -264.950386   -778.393774
 0.665000   -268.949797   -809.559170
 0.670000   -273.045978   -837.806636
 0.675000   -277.327863   -877.497206
 0.680000   -281.820950   -933.533855
 0.685000   -286.663202   -994.359510
 0.690000   -291.764545   -1026.829555
 0.695000   -296.931497   -1057.534027
 0.700000   -302.339885   -1105.579736
 0.705000   -307.987295   -1151.825314
 0.710000   -313.858139   -1222.721036
 0.715000   -320.214505   -1272.692751
 0.720000   -326.585066   -1293.276449
 0.725000   -333.147270   -1337.447656
 0.730000   -339.959543   -1387.524866
 0.735000   -347.022518   -1436.077084
 0.740000   -354.320313   -1499.200393
 0.745000   -362.014522   -1546.078604
 0.750000   -369.781099   -1574.961963
 0.755000   -377.764142   -1623.319181
 0.760000   -386.014291   -1676.238098
 0.765000   -394.526523   -1728.707292
 0.770000   -403.301364   -1794.775885
 0.775000   -412.474282   -1879.678698
 0.780000   -422.098151   -1974.177159
 0.785000   -432.216053   -2069.860206
 0.790000   -442.796753   -2173.032733
 0.795000   -453.946381   -2290.827474
 0.800000   -465.705028   -2412.023512
 0.805000   -478.066616   -2536.526487
 0.810000   -491.070293   -2653.633873
 0.815000   -504.602954   -2781.771568
 0.820000   -518.888009   -2943.674651
 0.825000   -534.039701   -3121.068655
 0.830000   -550.098695   -3307.639338
 0.835000   -567.116094   -3504.474223
 0.840000   -585.143437   -3715.733778
 0.845000   -604.273432   -3947.147764
 0.850000   -624.614915   -4200.796399
 0.855000   -646.281396   -4494.566422
 0.860000   -669.560579   -4760.540838
 0.865000   -693.886804   -5040.568567
 0.870000   -719.966265   -5522.148555
 0.875000   -749.108290   -6136.178344
 0.880000   -781.328048   -6774.132903
 0.885000   -816.849619   -7455.840157
 0.890000   -855.886450   -8193.969980
 0.895000   -898.789319   -8954.797248
 0.900000   -945.434422   -9698.826259
 0.905000   -995.777581   -10463.626491
 0.910000   -1050.070687   -11274.905843
 0.915000   -1108.526640   -12102.021014
 0.920000   -1171.090897   -12931.774207
 0.925000   -1237.844382   -13933.969931
 0.930000   -1310.430597   -15558.113452
 0.935000   -1393.425516   -18507.590032
 0.940000   -1495.506497   -23836.121290
 0.945000   -1631.786729   -32648.483111
 0.950000   -1821.991328   -45347.093738
 0.955000   -2085.257667   -60160.378110
 0.960000   -2423.595109   -72830.200963
 0.965000   -2813.559676   -78662.213844
 0.970000   -3210.217248   -71345.586581
 0.975000   -3527.015542   -54188.019586
 0.980000   -3752.097444   -36687.342391
 0.985000   -3893.888966   -35431.178582
 0.990000   -4106.409229   -75526.335464
 0.995000   -4649.152321   -535452.511332
 1.000000   -9460.934343   -1389260.297445
201 psinorm omevb() domevb/dpsiN
 0.000000   45.582516   73.110859
 0.005000   45.838556   29.305165
 0.010000   45.875568   4.524057
 0.015000   45.883797   -0.395886
 0.020000   45.871609   -3.575777
 0.025000   45.848039   -5.981634
 0.030000   45.811792   -8.494297
 0.035000   45.763096   -10.375709
 0.040000   45.708035   -12.031418
 0.045000   45.642782   -13.458029
 0.050000   45.573455   -14.289423
 0.055000   45.499888   -14.517679
 0.060000   45.428278   -14.474734
 0.065000   45.355140   -14.081710
 0.070000   45.287461   -13.395115
 0.075000   45.221189   -12.779791
 0.080000   45.159663   -11.749473
 0.085000   45.103694   -11.042646
 0.090000   45.049237   -10.464229
 0.095000   44.999052   -9.857756
 0.100000   44.950659   -9.508017
 0.105000   44.903972   -8.961097
 0.110000   44.861048   -8.443869
 0.115000   44.819533   -8.161204
 0.120000   44.779436   -7.756299
 0.125000   44.741970   -7.212782
 0.130000   44.707308   -6.596654
 0.135000   44.676004   -6.171633
 0.140000   44.645592   -5.885909
 0.145000   44.617145   -5.671556
 0.150000   44.588877   -5.362155
 0.155000   44.563523   -5.217063
 0.160000   44.536706   -5.298699
 0.165000   44.510536   -5.322933
 0.170000   44.483477   -5.539624
 0.175000   44.455140   -5.831615
 0.180000   44.425160   -6.361829
 0.185000   44.391521   -7.072768
 0.190000   44.354433   -7.941694
 0.195000   44.312105   -9.012625
 0.200000   44.264307   -10.096514
 0.205000   44.211139   -11.310962
 0.210000   44.151197   -13.027087
 0.215000   44.080868   -14.742522
 0.220000   44.003772   -15.929281
 0.225000   43.921576   -17.226124
 0.230000   43.831510   -18.486797
 0.235000   43.736708   -20.148004
 0.240000   43.630030   -21.230983
 0.245000   43.524398   -20.911220
 0.250000   43.420918   -20.452172
 0.255000   43.319876   -19.971539
 0.260000   43.221203   -19.205130
 0.265000   43.127825   -18.525016
 0.270000   43.035953   -17.291592
 0.275000   42.954909   -15.379998
 0.280000   42.882153   -13.979220
 0.285000   42.815117   -12.957027
 0.290000   42.752582   -12.224932
 0.295000   42.692867   -11.280092
 0.300000   42.639782   -10.548874
 0.305000   42.587379   -11.743303
 0.310000   42.522348   -14.300131
 0.315000   42.444377   -17.134039
 0.320000   42.351008   -20.271185
 0.325000   42.241666   -23.495065
 0.330000   42.116057   -26.980661
 0.335000   41.971859   -30.732262
 0.340000   41.808735   -34.009323
 0.345000   41.631766   -36.736451
 0.350000   41.441370   -39.087989
 0.355000   41.240886   -41.386542
 0.360000   41.027505   -43.963091
 0.365000   40.801255   -45.762077
 0.370000   40.569884   -46.981068
 0.375000   40.331444   -48.201157
 0.380000   40.087873   -49.256785
 0.385000   39.838876   -50.309893
 0.390000   39.584774   -50.737073
 0.395000   39.331506   -51.238490
 0.400000   39.072389   -52.417469
 0.405000   38.807331   -54.075478
 0.410000   38.531634   -57.241075
 0.415000   38.234920   -62.288989
 0.420000   37.908744   -68.788109
 0.425000   37.547039   -77.022869
 0.430000   37.138515   -86.681333
 0.435000   36.680226   -97.317839
 0.440000   36.165337   -109.238255
 0.445000   35.587843   -121.003417
 0.450000   34.955303   -131.422007
 0.455000   34.273623   -140.678932
 0.460000   33.548513   -148.027877
 0.465000   32.793344   -152.868512
 0.470000   32.019828   -154.397270
 0.475000   31.249372   -152.314867
 0.480000   30.496680   -147.697838
 0.485000   29.772393   -140.758234
 0.490000   29.089097   -132.011977
 0.495000   28.452274   -122.301723
 0.500000   27.866080   -112.463032
 0.505000   27.327643   -103.870585
 0.510000   26.827374   -96.693167
 0.515000   26.360712   -91.032531
 0.520000   25.917049   -86.791508
 0.525000   25.492796   -83.405959
 0.530000   25.082989   -80.683745
 0.535000   24.685959   -78.144542
 0.540000   24.301544   -75.456205
 0.545000   23.931397   -73.001481
 0.550000   23.571529   -70.982382
 0.555000   23.221573   -69.019471
 0.560000   22.881334   -66.955421
 0.565000   22.552019   -64.795579
 0.570000   22.233379   -62.780390
 0.575000   21.924215   -60.921278
 0.580000   21.624166   -58.973445
 0.585000   21.334481   -56.977420
 0.590000   21.054392   -54.883729
 0.595000   20.785643   -52.731991
 0.600000   20.527072   -50.806334
 0.605000   20.277580   -49.094139
 0.610000   20.036130   -47.360810
 0.615000   19.803972   -45.601784
 0.620000   19.580113   -44.113552
 0.625000   19.362836   -42.847681
 0.630000   19.151636   -41.872781
 0.635000   18.944108   -41.027308
 0.640000   18.741363   -39.877270
 0.645000   18.545336   -38.743175
 0.650000   18.353931   -37.881576
 0.655000   18.166520   -37.340027
 0.660000   17.980531   -37.080425
 0.665000   17.795716   -37.337332
 0.670000   17.607157   -38.219392
 0.675000   17.413522   -39.881997
 0.680000   17.208337   -42.139802
 0.685000   16.992124   -44.011100
 0.690000   16.768226   -45.837137
 0.695000   16.533752   -48.381523
 0.700000   16.284411   -48.409926
 0.705000   16.049653   -46.258896
 0.710000   15.821822   -44.783124
 0.715000   15.601822   -43.042139
 0.720000   15.391401   -41.002867
 0.725000   15.191793   -39.193765
 0.730000   14.999463   -35.083699
 0.735000   14.840956   -29.899075
 0.740000   14.700472   -26.394546
 0.745000   14.577011   -23.648094
 0.750000   14.463991   -22.080843
 0.755000   14.356202   -20.462136
 0.760000   14.259370   -20.929674
 0.765000   14.146906   -23.998416
 0.770000   14.019386   -27.605506
 0.775000   13.870851   -32.058303
 0.780000   13.698803   -36.687969
 0.785000   13.503971   -40.325123
 0.790000   13.295552   -45.415838
 0.795000   13.049813   -51.918240
 0.800000   12.776369   -57.301303
 0.805000   12.476800   -62.603266
 0.810000   12.150337   -67.657895
 0.815000   11.800221   -72.146690
 0.820000   11.428870   -75.373122
 0.825000   11.046489   -76.624435
 0.830000   10.662625   -75.962199
 0.835000   10.286867   -73.437455
 0.840000   9.928251   -69.035190
 0.845000   9.596515   -64.219964
 0.850000   9.286051   -58.997615
 0.855000   9.006539   -53.196037
 0.860000   8.754091   -49.178952
 0.865000   8.514750   -49.152124
 0.870000   8.262569   -54.414394
 0.875000   7.970606   -68.763071
 0.880000   7.574939   -95.761441
 0.885000   7.012991   -138.787599
 0.890000   6.187063   -206.789013
 0.895000   4.945101   -310.003862
 0.900000   3.087024   -456.150102
 0.905000   0.383600   -656.678218
 0.910000   -3.479758   -922.427950
 0.915000   -8.840679   -1256.754027
 0.920000   -16.047298   -1663.610223
 0.925000   -25.476781   -2137.233862
 0.930000   -37.419637   -2645.952687
 0.935000   -51.936308   -3132.525611
 0.940000   -68.744893   -3497.872767
 0.945000   -86.915036   -3593.404961
 0.950000   -104.678943   -3295.316390
 0.955000   -119.868200   -2536.218640
 0.960000   -130.041129   -1336.834900
 0.965000   -133.236549   139.121790
 0.970000   -128.649911   1633.172255
 0.975000   -116.904826   2891.006079
 0.980000   -99.739850   3701.595444
 0.985000   -79.888872   3996.020039
 0.990000   -59.779650   3853.335440
 0.995000   -41.355517   3367.770192
 1.000000   -26.101948   2733.657581
201 psinorm omepp() domepp/dpsiN
 0.000000   27.144044   -13.599261
 0.005000   27.061605   -19.376454
 0.010000   26.950280   -22.286196
 0.015000   26.838743   -22.327842
 0.020000   26.727001   -22.368201
 0.025000   26.615061   -22.407275
 0.030000   26.502929   -22.445068
 0.035000   26.390610   -22.481582
 0.040000   26.278113   -22.516820
 0.045000   26.165442   -22.550784
 0.050000   26.052605   -22.583477
 0.055000   25.939607   -22.614903
 0.060000   25.826456   -22.645064
 0.065000   25.713157   -22.673964
 0.070000   25.599716   -22.701607
 0.075000   25.486141   -22.727996
 0.080000   25.372436   -22.753134
 0.085000   25.258609   -22.777025
 0.090000   25.144666   -22.799673
 0.095000   25.030613   -22.821083
 0.100000   24.916455   -22.841257
 0.105000   24.802200   -22.860201
 0.110000   24.687853   -22.877918
 0.115000   24.573421   -22.894413
 0.120000   24.458909   -22.909690
 0.125000   24.344324   -22.923755
 0.130000   24.229672   -22.936610
 0.135000   24.114958   -22.948263
 0.140000   24.000189   -22.958716
 0.145000   23.885371   -22.967975
 0.150000   23.770509   -22.976046
 0.155000   23.655610   -22.982933
 0.160000   23.540680   -22.988642
 0.165000   23.425724   -22.993177
 0.170000   23.310748   -22.996545
 0.175000   23.195758   -22.998750
 0.180000   23.080761   -22.999800
 0.185000   22.965760   -22.999698
 0.190000   22.850764   -22.998451
 0.195000   22.735776   -22.996065
 0.200000   22.620803   -22.992545
 0.205000   22.505850   -22.987899
 0.210000   22.390924   -22.982131
 0.215000   22.276029   -22.975248
 0.220000   22.161171   -22.967256
 0.225000   22.046357   -22.958162
 0.230000   21.931590   -22.947973
 0.235000   21.816877   -22.936693
 0.240000   21.702223   -22.924331
 0.245000   21.587633   -22.910892
 0.250000   21.473114   -22.896384
 0.255000   21.358670   -22.880814
 0.260000   21.244306   -22.864187
 0.265000   21.130028   -22.846511
 0.270000   21.015841   -22.827794
 0.275000   20.901750   -22.808041
 0.280000   20.787760   -22.787261
 0.285000   20.673877   -22.765460
 0.290000   20.560106   -22.742646
 0.295000   20.446451   -22.718825
 0.300000   20.332917   -22.694006
 0.305000   20.219511   -22.668196
 0.310000   20.106235   -22.641402
 0.315000   19.993097   -22.613632
 0.320000   19.880099   -22.584893
 0.325000   19.767248   -22.555193
 0.330000   19.654547   -22.524539
 0.335000   19.542002   -22.492940
 0.340000   19.429618   -22.460404
 0.345000   19.317398   -22.426937
 0.350000   19.205348   -22.392548
 0.355000   19.093473   -22.357246
 0.360000   18.981776   -22.321037
 0.365000   18.870262   -22.283930
 0.370000   18.758937   -22.245933
 0.375000   18.647803   -22.207054
 0.380000   18.536866   -22.167302
 0.385000   18.426130   -22.126684
 0.390000   18.315599   -22.085208
 0.395000   18.205278   -22.042884
 0.400000   18.095171   -21.999718
 0.405000   17.985281   -21.955721
 0.410000   17.875613   -21.910899
 0.415000   17.766172   -21.865261
 0.420000   17.656961   -21.818816
 0.425000   17.547984   -21.771573
 0.430000   17.439245   -21.723539
 0.435000   17.330748   -21.674723
 0.440000   17.222498   -21.625134
 0.445000   17.114497   -21.574780
 0.450000   17.006750   -21.523670
 0.455000   16.899260   -21.471812
 0.460000   16.792032   -21.419216
 0.465000   16.685068   -21.365889
 0.470000   16.578373   -21.311840
 0.475000   16.471950   -21.257079
 0.480000   16.365802   -21.201613
 0.485000   16.259934   -21.145452
 0.490000   16.154348   -21.088604
 0.495000   16.049048   -21.031078
 0.500000   15.944037   -20.972883
 0.505000   15.839319   -20.914028
 0.510000   15.734897   -20.854521
 0.515000   15.630774   -20.794372
 0.520000   15.526953   -20.733589
 0.525000   15.423438   -20.672181
 0.530000   15.320231   -20.610158
 0.535000   15.217336   -20.547528
 0.540000   15.114756   -20.484302
 0.545000   15.012493   -20.420487
 0.550000   14.910551   -20.356094
 0.555000   14.808932   -20.291133
 0.560000   14.707640   -20.225613
 0.565000   14.606676   -20.159545
 0.570000   14.506044   -20.092939
 0.575000   14.405747   -20.025806
 0.580000   14.305786   -19.958159
 0.585000   14.206165   -19.890010
 0.590000   14.106886   -19.821371
 0.595000   14.007951   -19.752259
 0.600000   13.909363   -19.682688
 0.605000   13.811124   -19.612678
 0.610000   13.713237   -19.542249
 0.615000   13.615702   -19.471424
 0.620000   13.518522   -19.400230
 0.625000   13.421700   -19.328701
 0.630000   13.325235   -19.256874
 0.635000   13.229131   -19.184795
 0.640000   13.133387   -19.112519
 0.645000   13.038006   -19.040113
 0.650000   12.942986   -18.967660
 0.655000   12.848329   -18.895258
 0.660000   12.754034   -18.823033
 0.665000   12.660099   -18.751136
 0.670000   12.566522   -18.679756
 0.675000   12.473301   -18.609127
 0.680000   12.380431   -18.539539
 0.685000   12.287906   -18.471353
 0.690000   12.195718   -18.405014
 0.695000   12.103856   -18.341078
 0.700000   12.012307   -18.280235
 0.705000   11.921053   -18.223341
 0.710000   11.830073   -18.171457
 0.715000   11.739339   -18.125899
 0.720000   11.648814   -18.088295
 0.725000   11.558456   -18.060662
 0.730000   11.468208   -18.045486
 0.735000   11.378001   -18.045835
 0.740000   11.287749   -18.065485
 0.745000   11.197346   -18.109070
 0.750000   11.106659   -18.182271
 0.755000   11.015523   -18.292026
 0.760000   10.923738   -18.446785
 0.765000   10.831056   -18.656804
 0.770000   10.737170   -18.934476
 0.775000   10.641711   -19.294707
 0.780000   10.544223   -19.755320
 0.785000   10.444158   -20.337488
 0.790000   10.340848   -21.066150
 0.795000   10.233496   -21.970396
 0.800000   10.121144   -23.083728
 0.805000   10.002659   -24.444105
 0.810000   9.876703   -26.093624
 0.815000   9.741723   -28.077571
 0.820000   9.595928   -30.442533
 0.825000   9.437297   -33.233025
 0.830000   9.263597   -36.485927
 0.835000   9.072438   -40.221664
 0.840000   8.861381   -44.430617
 0.845000   8.628132   -49.052676
 0.850000   8.370854   -53.946929
 0.855000   8.088662   -58.847417
 0.860000   7.782380   -63.299378
 0.865000   7.455669   -66.568638
 0.870000   7.116693   -67.514799
 0.875000   6.780521   -64.417233
 0.880000   6.472521   -54.742531
 0.885000   6.233095   -34.845623
 0.890000   6.124065   0.391247
 0.895000   6.237008   57.948486
 0.900000   6.703550   146.995126
 0.905000   7.706959   278.948219
 0.910000   9.493032   466.885167
 0.915000   12.375811   723.686254
 0.920000   16.729895   1058.055387
 0.925000   22.956365   1467.588139
 0.930000   31.405776   1928.799589
 0.935000   42.244361   2386.088571
 0.940000   55.266662   2745.130688
 0.945000   69.695667   2879.671984
 0.950000   84.063381   2660.303095
 0.955000   96.298698   2005.252801
 0.960000   104.115909   937.070207
 0.965000   105.669400   -385.674634
 0.970000   100.259163   -1692.599414
 0.975000   88.743406   -2689.897038
 0.980000   73.360193   -3179.833588
 0.985000   56.945070   -3142.526861
 0.990000   41.934924   -2722.770189
 0.995000   29.717369   -2133.959030
 1.000000   20.595334   -1514.854851
201 psinorm kpol(km/s/T) dkpol/dpsiN
 0.000000   0.000000   87.693948
 0.005000   0.347347   51.244739
 0.010000   0.512447   30.948755
 0.015000   0.656834   27.551240
 0.020000   0.787960   25.746931
 0.025000   0.914304   24.553579
 0.030000   1.033496   23.066372
 0.035000   1.144967   22.056130
 0.040000   1.254057   21.053919
 0.045000   1.355506   20.079819
 0.050000   1.454855   19.465264
 0.055000   1.550159   19.213659
 0.060000   1.646992   19.270148
 0.065000   1.742861   19.702478
 0.070000   1.844016   20.231811
 0.075000   1.945179   20.581521
 0.080000   2.049832   21.301572
 0.085000   2.158194   21.598247
 0.090000   2.265814   22.000482
 0.095000   2.378199   22.524302
 0.100000   2.491057   22.598449
 0.105000   2.604184   22.898972
 0.110000   2.720047   23.203997
 0.115000   2.836224   23.470449
 0.120000   2.954751   23.921561
 0.125000   3.075439   24.304787
 0.130000   3.197799   24.680825
 0.135000   3.322248   24.771023
 0.140000   3.445509   24.639558
 0.145000   3.568643   24.453241
 0.150000   3.690042   24.113230
 0.155000   3.809775   23.369703
 0.160000   3.923739   22.444378
 0.165000   4.034219   21.526702
 0.170000   4.139006   20.290507
 0.175000   4.237124   18.618643
 0.180000   4.325192   16.663583
 0.185000   4.403760   14.796232
 0.190000   4.473155   12.882071
 0.195000   4.532581   11.006984
 0.200000   4.583224   9.440470
 0.205000   4.626986   8.183817
 0.210000   4.665063   6.918368
 0.215000   4.696169   5.797647
 0.220000   4.723039   5.057402
 0.225000   4.746743   3.906718
 0.230000   4.762106   2.529610
 0.235000   4.772039   1.265116
 0.240000   4.774757   -0.221010
 0.245000   4.769829   -1.841156
 0.250000   4.756346   -3.435160
 0.255000   4.735478   -5.165926
 0.260000   4.704687   -6.821086
 0.265000   4.667267   -8.393175
 0.270000   4.620755   -10.039229
 0.275000   4.566874   -11.646221
 0.280000   4.504293   -13.359359
 0.285000   4.433281   -15.106541
 0.290000   4.353227   -17.033770
 0.295000   4.262943   -19.154651
 0.300000   4.161681   -21.475942
 0.305000   4.048184   -24.127078
 0.310000   3.920410   -27.042857
 0.315000   3.777755   -30.070272
 0.320000   3.619707   -33.033250
 0.325000   3.447423   -35.935580
 0.330000   3.260351   -38.593099
 0.335000   3.061492   -40.882311
 0.340000   2.851528   -42.882079
 0.345000   2.632671   -44.714354
 0.350000   2.404385   -46.274834
 0.355000   2.169923   -47.817948
 0.360000   1.926205   -49.679984
 0.365000   1.673123   -51.590898
 0.370000   1.410296   -53.835968
 0.375000   1.134763   -56.441014
 0.380000   0.845886   -59.345170
 0.385000   0.541311   -62.566476
 0.390000   0.220221   -65.439201
 0.395000   -0.113081   -67.908572
 0.400000   -0.458864   -70.054816
 0.405000   -0.813629   -72.000528
 0.410000   -1.178870   -74.839842
 0.415000   -1.562027   -79.141056
 0.420000   -1.970280   -84.931356
 0.425000   -2.411341   -91.944907
 0.430000   -2.889729   -100.128968
 0.435000   -3.412630   -109.510118
 0.440000   -3.984830   -120.074078
 0.445000   -4.613371   -130.466267
 0.450000   -5.289493   -139.296722
 0.455000   -6.006338   -146.335684
 0.460000   -6.752850   -150.792467
 0.465000   -7.514263   -152.108011
 0.470000   -8.273930   -149.087881
 0.475000   -9.005142   -141.935670
 0.480000   -9.693287   -132.228054
 0.485000   -10.327422   -120.675905
 0.490000   -10.900046   -107.840272
 0.495000   -11.405825   -94.134840
 0.500000   -11.841394   -80.723201
 0.505000   -12.213057   -69.427170
 0.510000   -12.535666   -60.676435
 0.515000   -12.819822   -54.211431
 0.520000   -13.077780   -49.612371
 0.525000   -13.315945   -46.524980
 0.530000   -13.543030   -44.665462
 0.535000   -13.762600   -43.089448
 0.540000   -13.973924   -41.496639
 0.545000   -14.177566   -39.857356
 0.550000   -14.372498   -38.102094
 0.555000   -14.558587   -36.389658
 0.560000   -14.736395   -34.445563
 0.565000   -14.903043   -31.997879
 0.570000   -15.056373   -29.401519
 0.575000   -15.197058   -26.619906
 0.580000   -15.322572   -23.431558
 0.585000   -15.431374   -20.200310
 0.590000   -15.524576   -16.838783
 0.595000   -15.599761   -13.412083
 0.600000   -15.658696   -10.116035
 0.605000   -15.700922   -6.962914
 0.610000   -15.728325   -4.083149
 0.615000   -15.741753   -1.273174
 0.620000   -15.741057   1.269664
 0.625000   -15.729057   3.513661
 0.630000   -15.705921   5.623859
 0.635000   -15.672818   7.639059
 0.640000   -15.629530   9.495230
 0.645000   -15.577866   11.237790
 0.650000   -15.517152   13.020544
 0.655000   -15.447660   14.554930
 0.660000   -15.371603   16.088121
 0.665000   -15.286779   17.561602
 0.670000   -15.195987   18.953381
 0.675000   -15.097245   20.394919
 0.680000   -14.992038   21.803160
 0.685000   -14.879214   23.633398
 0.690000   -14.755704   25.568616
 0.695000   -14.623528   27.652718
 0.700000   -14.479176   30.038251
 0.705000   -14.323145   32.536943
 0.710000   -14.153807   34.797398
 0.715000   -13.975171   36.459977
 0.720000   -13.789207   37.734841
 0.725000   -13.597823   38.395980
 0.730000   -13.405247   38.283740
 0.735000   -13.214985   37.334048
 0.740000   -13.031907   35.746985
 0.745000   -12.857515   33.468941
 0.750000   -12.697218   30.531853
 0.755000   -12.552197   27.441510
 0.760000   -12.422802   24.192621
 0.765000   -12.310271   21.155119
 0.770000   -12.211251   18.594584
 0.775000   -12.124325   16.348895
 0.780000   -12.047762   14.221616
 0.785000   -11.982109   11.896558
 0.790000   -11.928797   9.058530
 0.795000   -11.891523   5.210895
 0.800000   -11.876688   0.172503
 0.805000   -11.889798   -6.191280
 0.810000   -11.938601   -13.752469
 0.815000   -12.027323   -21.958940
 0.820000   -12.158190   -30.295642
 0.825000   -12.330279   -38.150224
 0.830000   -12.539692   -44.803242
 0.835000   -12.778312   -49.757848
 0.840000   -13.037271   -52.824495
 0.845000   -13.306557   -54.056517
 0.850000   -13.577836   -53.121073
 0.855000   -13.837768   -50.821379
 0.860000   -14.086050   -48.305341
 0.865000   -14.320821   -45.907312
 0.870000   -14.545123   -43.714823
 0.875000   -14.757969   -41.834210
 0.880000   -14.963465   -40.849924
 0.885000   -15.166468   -40.593766
 0.890000   -15.369403   -40.448785
 0.895000   -15.570956   -40.275502
 0.900000   -15.772158   -39.805974
 0.905000   -15.969016   -39.197096
 0.910000   -16.164129   -38.846274
 0.915000   -16.357479   -37.438101
 0.920000   -16.538510   -31.058274
 0.925000   -16.668061   -19.173463
 0.930000   -16.730244   -2.419348
 0.935000   -16.692255   25.357761
 0.940000   -16.476667   74.933800
 0.945000   -15.942917   145.266704
 0.950000   -15.023999   225.816524
 0.955000   -13.684752   302.918747
 0.960000   -11.994812   351.146217
 0.965000   -10.173290   352.134900
 0.970000   -8.473463   311.961597
 0.975000   -7.053674   287.845465
 0.980000   -5.595008   367.984333
 0.985000   -3.373830   587.299276
 0.990000   0.277984   859.250735
 0.995000   5.218677   993.451185
 1.000000   10.212496   1004.076474
201 psinorm omghb() domghb/dpsiN
 0.000000   -0.000047   0.076560
 0.005000   0.000283   0.055170
 0.010000   0.000505   0.073049
 0.015000   0.001013   0.106184
 0.020000   0.001567   0.112298
 0.025000   0.002136   0.124899
 0.030000   0.002816   0.132432
 0.035000   0.003460   0.143974
 0.040000   0.004255   0.155197
 0.045000   0.005012   0.142678
 0.050000   0.005682   0.135853
 0.055000   0.006371   0.124758
 0.060000   0.006930   0.112836
 0.065000   0.007499   0.090119
 0.070000   0.007831   0.080061
 0.075000   0.008300   0.089090
 0.080000   0.008722   0.072384
 0.085000   0.009024   0.073214
 0.090000   0.009454   0.087695
 0.095000   0.009901   0.064944
 0.100000   0.010104   0.072477
 0.105000   0.010625   0.079880
 0.110000   0.010902   0.065057
 0.115000   0.011276   0.076270
 0.120000   0.011665   0.063775
 0.125000   0.011914   0.069294
 0.130000   0.012358   0.064627
 0.135000   0.012560   0.031853
 0.140000   0.012676   0.065670
 0.145000   0.013217   0.075569
 0.150000   0.013432   0.072053
 0.155000   0.013937   0.090172
 0.160000   0.014334   0.082896
 0.165000   0.014766   0.104686
 0.170000   0.015381   0.124079
 0.175000   0.016007   0.144072
 0.180000   0.016821   0.158136
 0.185000   0.017588   0.163346
 0.190000   0.018455   0.180143
 0.195000   0.019390   0.264563
 0.200000   0.021101   0.293156
 0.205000   0.022321   0.256075
 0.210000   0.023661   0.271956
 0.215000   0.025041   0.310165
 0.220000   0.026763   0.396943
 0.225000   0.029010   0.322274
 0.230000   0.029986   0.218017
 0.235000   0.031190   0.226363
 0.240000   0.032249   0.191656
 0.245000   0.033107   0.153339
 0.250000   0.033783   0.192728
 0.255000   0.035034   -0.028099
 0.260000   0.033502   -0.178165
 0.265000   0.033253   -0.063489
 0.270000   0.032867   -0.107562
 0.275000   0.032177   -0.118324
 0.280000   0.031684   -0.113120
 0.285000   0.031046   -0.158312
 0.290000   0.030100   -0.088498
 0.295000   0.030161   0.064951
 0.300000   0.030750   0.174954
 0.305000   0.031910   0.335799
 0.310000   0.034108   0.389251
 0.315000   0.035803   0.698975
 0.320000   0.041098   0.906039
 0.325000   0.044863   0.780983
 0.330000   0.048908   0.767214
 0.335000   0.052535   0.701800
 0.340000   0.055926   0.717867
 0.345000   0.059714   0.732002
 0.350000   0.063246   0.620633
 0.355000   0.065920   0.541155
 0.360000   0.068657   0.531300
 0.365000   0.071233   0.509259
 0.370000   0.073750   0.517315
 0.375000   0.076407   0.339376
 0.380000   0.077143   0.245708
 0.385000   0.078864   0.344684
 0.390000   0.080590   0.314175
 0.395000   0.082005   0.297148
 0.400000   0.083562   0.314785
 0.405000   0.085153   0.624355
 0.410000   0.089805   1.116241
 0.415000   0.096316   1.465607
 0.420000   0.104461   1.938422
 0.425000   0.115700   2.380091
 0.430000   0.128262   2.546820
 0.435000   0.141168   2.721740
 0.440000   0.155480   2.905382
 0.445000   0.170222   2.893035
 0.450000   0.184410   2.865552
 0.455000   0.198877   2.401044
 0.460000   0.208421   1.606208
 0.465000   0.214939   0.959181
 0.470000   0.218012   0.248846
 0.475000   0.217428   -0.494134
 0.480000   0.213071   -1.342172
 0.485000   0.204006   -1.977375
 0.490000   0.193297   -2.174941
 0.495000   0.182257   -2.183539
 0.500000   0.171462   -2.080624
 0.505000   0.161451   -1.882953
 0.510000   0.152632   -1.646252
 0.515000   0.144988   -1.217490
 0.520000   0.140457   -0.818614
 0.525000   0.136802   -0.745091
 0.530000   0.133007   -0.582473
 0.535000   0.130977   -0.458618
 0.540000   0.128420   -0.536359
 0.545000   0.125614   -0.549929
 0.550000   0.122921   -0.511431
 0.555000   0.120499   -0.532625
 0.560000   0.117595   -0.456968
 0.565000   0.115930   -0.381658
 0.570000   0.113778   -0.457625
 0.575000   0.111353   -0.500113
 0.580000   0.108777   -0.501406
 0.585000   0.106339   -0.469273
 0.590000   0.104084   -0.482934
 0.595000   0.101510   -0.524507
 0.600000   0.098839   -0.520736
 0.605000   0.096303   -0.469298
 0.610000   0.094146   -0.415208
 0.615000   0.092151   -0.283489
 0.620000   0.091311   -0.312366
 0.625000   0.089027   -0.389387
 0.630000   0.087418   -0.292573
 0.635000   0.086101   -0.246973
 0.640000   0.084948   -0.230670
 0.645000   0.083794   -0.126286
 0.650000   0.083685   -0.171257
 0.655000   0.082082   -0.192340
 0.660000   0.081762   -0.000907
 0.665000   0.082073   0.147468
 0.670000   0.083236   0.384734
 0.675000   0.085920   0.848829
 0.680000   0.091725   0.922268
 0.685000   0.095143   0.501617
 0.690000   0.096741   0.281293
 0.695000   0.097956   0.138807
 0.700000   0.098129   -0.046563
 0.705000   0.097490   0.165236
 0.710000   0.099781   -0.219000
 0.715000   0.095300   -1.010865
 0.720000   0.089672   -1.015984
 0.725000   0.085140   -0.909272
 0.730000   0.080580   -0.962930
 0.735000   0.075511   -1.022388
 0.740000   0.070356   -1.173591
 0.745000   0.063775   -0.937663
 0.750000   0.060979   -0.313959
 0.755000   0.060635   0.295717
 0.760000   0.063936   0.775109
 0.765000   0.068387   0.813239
 0.770000   0.072069   0.981390
 0.775000   0.078200   1.701086
 0.780000   0.089080   1.999696
 0.785000   0.098197   1.976826
 0.790000   0.108848   2.026981
 0.795000   0.118467   1.897742
 0.800000   0.127825   2.121684
 0.805000   0.139684   2.503959
 0.810000   0.152865   2.298883
 0.815000   0.162673   1.913341
 0.820000   0.171998   1.670975
 0.825000   0.179383   1.307963
 0.830000   0.185078   0.891767
 0.835000   0.188300   0.143864
 0.840000   0.186517   -0.285447
 0.845000   0.185446   -0.173705
 0.850000   0.184780   -0.023494
 0.855000   0.185211   0.263830
 0.860000   0.187418   1.104834
 0.865000   0.196259   1.420492
 0.870000   0.201623   2.237721
 0.875000   0.218636   4.513146
 0.880000   0.246754   6.964510
 0.885000   0.288282   9.759610
 0.890000   0.344350   14.098360
 0.895000   0.429265   17.452731
 0.900000   0.518878   20.259581
 0.905000   0.631861   24.331873
 0.910000   0.762196   26.653555
 0.915000   0.898397   26.553031
 0.920000   1.027727   26.903464
 0.925000   1.167431   21.682598
 0.930000   1.244553   12.903065
 0.935000   1.296462   5.246735
 0.940000   1.297020   -5.529806
 0.945000   1.241164   -16.457842
 0.950000   1.132442   -21.910828
 0.955000   1.022055   -38.657030
 0.960000   0.745871   -58.545123
 0.965000   0.436604   -66.451768
 0.970000   0.081354   -79.725035
 0.975000   -0.360646   -102.659147
 0.980000   -0.945238   -125.648198
 0.985000   -1.617128   -126.397747
 0.990000   -2.209215   -80.182950
 0.995000   -2.418958   6.657591
 1.000000   -2.142639   103.869687
201 psinorm nz1(10^20/m^3) dnz1/dpsiN
 0.000000   0.020005   0.000002
 0.005000   0.020004   -0.000485
 0.010000   0.020000   -0.000974
 0.015000   0.019994   -0.001467
 0.020000   0.019986   -0.001963
 0.025000   0.019975   -0.002460
 0.030000   0.019961   -0.002958
 0.035000   0.019945   -0.003454
 0.040000   0.019927   -0.003947
 0.045000   0.019906   -0.004436
 0.050000   0.019882   -0.004919
 0.055000   0.019856   -0.005396
 0.060000   0.019828   -0.005864
 0.065000   0.019798   -0.006323
 0.070000   0.019765   -0.006771
 0.075000   0.019730   -0.007207
 0.080000   0.019693   -0.007632
 0.085000   0.019654   -0.008046
 0.090000   0.019613   -0.008450
 0.095000   0.019569   -0.008843
 0.100000   0.019524   -0.009228
 0.105000   0.019477   -0.009605
 0.110000   0.019428   -0.009972
 0.115000   0.019377   -0.010326
 0.120000   0.019325   -0.010669
 0.125000   0.019271   -0.010997
 0.130000   0.019215   -0.011311
 0.135000   0.019157   -0.011611
 0.140000   0.019099   -0.011893
 0.145000   0.019039   -0.012157
 0.150000   0.018977   -0.012403
 0.155000   0.018915   -0.012628
 0.160000   0.018851   -0.012831
 0.165000   0.018786   -0.013012
 0.170000   0.018721   -0.013168
 0.175000   0.018655   -0.013299
 0.180000   0.018588   -0.013404
 0.185000   0.018520   -0.013483
 0.190000   0.018453   -0.013532
 0.195000   0.018385   -0.013552
 0.200000   0.018317   -0.013548
 0.205000   0.018250   -0.013522
 0.210000   0.018182   -0.013479
 0.215000   0.018115   -0.013426
 0.220000   0.018048   -0.013370
 0.225000   0.017981   -0.013323
 0.230000   0.017915   -0.013280
 0.235000   0.017848   -0.013228
 0.240000   0.017782   -0.013167
 0.245000   0.017717   -0.013094
 0.250000   0.017651   -0.013007
 0.255000   0.017587   -0.012907
 0.260000   0.017522   -0.012777
 0.265000   0.017459   -0.012607
 0.270000   0.017396   -0.012403
 0.275000   0.017335   -0.012160
 0.280000   0.017275   -0.011877
 0.285000   0.017216   -0.011547
 0.290000   0.017159   -0.011169
 0.295000   0.017104   -0.010752
 0.300000   0.017052   -0.010304
 0.305000   0.017001   -0.009830
 0.310000   0.016953   -0.009335
 0.315000   0.016908   -0.008817
 0.320000   0.016865   -0.008296
 0.325000   0.016825   -0.007794
 0.330000   0.016787   -0.007306
 0.335000   0.016752   -0.006834
 0.340000   0.016719   -0.006379
 0.345000   0.016688   -0.005943
 0.350000   0.016660   -0.005523
 0.355000   0.016633   -0.005109
 0.360000   0.016608   -0.004690
 0.365000   0.016586   -0.004264
 0.370000   0.016566   -0.003829
 0.375000   0.016548   -0.003387
 0.380000   0.016532   -0.002938
 0.385000   0.016518   -0.002484
 0.390000   0.016507   -0.002029
 0.395000   0.016498   -0.001580
 0.400000   0.016491   -0.001140
 0.405000   0.016487   -0.000713
 0.410000   0.016484   -0.000304
 0.415000   0.016484   0.000083
 0.420000   0.016485   0.000445
 0.425000   0.016488   0.000782
 0.430000   0.016493   0.001094
 0.435000   0.016499   0.001383
 0.440000   0.016507   0.001652
 0.445000   0.016516   0.001901
 0.450000   0.016526   0.002132
 0.455000   0.016537   0.002344
 0.460000   0.016549   0.002535
 0.465000   0.016562   0.002704
 0.470000   0.016576   0.002846
 0.475000   0.016591   0.002950
 0.480000   0.016606   0.003013
 0.485000   0.016621   0.003031
 0.490000   0.016636   0.003001
 0.495000   0.016651   0.002921
 0.500000   0.016665   0.002790
 0.505000   0.016679   0.002608
 0.510000   0.016691   0.002381
 0.515000   0.016703   0.002111
 0.520000   0.016712   0.001804
 0.525000   0.016721   0.001463
 0.530000   0.016727   0.001092
 0.535000   0.016731   0.000696
 0.540000   0.016734   0.000280
 0.545000   0.016734   -0.000158
 0.550000   0.016732   -0.000617
 0.555000   0.016728   -0.001097
 0.560000   0.016721   -0.001602
 0.565000   0.016712   -0.002133
 0.570000   0.016700   -0.002690
 0.575000   0.016685   -0.003269
 0.580000   0.016667   -0.003868
 0.585000   0.016647   -0.004484
 0.590000   0.016623   -0.005113
 0.595000   0.016595   -0.005751
 0.600000   0.016565   -0.006398
 0.605000   0.016531   -0.007053
 0.610000   0.016494   -0.007714
 0.615000   0.016454   -0.008380
 0.620000   0.016411   -0.009054
 0.625000   0.016364   -0.009733
 0.630000   0.016313   -0.010413
 0.635000   0.016260   -0.011093
 0.640000   0.016202   -0.011771
 0.645000   0.016142   -0.012442
 0.650000   0.016078   -0.013107
 0.655000   0.016011   -0.013757
 0.660000   0.015940   -0.014379
 0.665000   0.015867   -0.014981
 0.670000   0.015791   -0.015584
 0.675000   0.015711   -0.016234
 0.680000   0.015628   -0.017044
 0.685000   0.015541   -0.018073
 0.690000   0.015448   -0.019263
 0.695000   0.015348   -0.020579
 0.700000   0.015242   -0.022004
 0.705000   0.015128   -0.023499
 0.710000   0.015007   -0.025102
 0.715000   0.014877   -0.026710
 0.720000   0.014740   -0.028116
 0.725000   0.014596   -0.029284
 0.730000   0.014447   -0.030197
 0.735000   0.014294   -0.030793
 0.740000   0.014139   -0.031031
 0.745000   0.013984   -0.030817
 0.750000   0.013831   -0.030118
 0.755000   0.013682   -0.029015
 0.760000   0.013541   -0.027586
 0.765000   0.013407   -0.025902
 0.770000   0.013282   -0.024000
 0.775000   0.013167   -0.021948
 0.780000   0.013062   -0.019932
 0.785000   0.012967   -0.018035
 0.790000   0.012882   -0.016246
 0.795000   0.012805   -0.014592
 0.800000   0.012736   -0.013079
 0.805000   0.012674   -0.011725
 0.810000   0.012619   -0.010559
 0.815000   0.012568   -0.009527
 0.820000   0.012523   -0.008558
 0.825000   0.012483   -0.007635
 0.830000   0.012447   -0.006750
 0.835000   0.012415   -0.005908
 0.840000   0.012388   -0.005114
 0.845000   0.012364   -0.004367
 0.850000   0.012344   -0.003664
 0.855000   0.012328   -0.003005
 0.860000   0.012314   -0.002393
 0.865000   0.012304   -0.001835
 0.870000   0.012296   -0.001332
 0.875000   0.012290   -0.000879
 0.880000   0.012287   -0.000481
 0.885000   0.012286   -0.000149
 0.890000   0.012286   0.000094
 0.895000   0.012286   0.000217
 0.900000   0.012288   0.000160
 0.905000   0.012288   -0.000184
 0.910000   0.012286   -0.000987
 0.915000   0.012278   -0.002537
 0.920000   0.012260   -0.005306
 0.925000   0.012225   -0.010266
 0.930000   0.012158   -0.018599
 0.935000   0.012039   -0.031681
 0.940000   0.011841   -0.051210
 0.945000   0.011527   -0.078476
 0.950000   0.011056   -0.113455
 0.955000   0.010392   -0.155200
 0.960000   0.009504   -0.197128
 0.965000   0.008421   -0.228791
 0.970000   0.007216   -0.242741
 0.975000   0.005994   -0.235680
 0.980000   0.004860   -0.210480
 0.985000   0.003889   -0.174843
 0.990000   0.003111   -0.137031
 0.995000   0.002519   -0.103350
 1.000000   0.002078   -0.073073
201 psinorm vtor1(km/s) dvtor1/dpsiN
 0.000000   127.841573   622.161918
 0.005000   130.255346   343.347454
 0.010000   131.275047   179.479433
 0.015000   132.050140   141.613936
 0.020000   132.691187   119.512525
 0.025000   133.245266   105.059211
 0.030000   133.741779   94.726131
 0.035000   134.192527   85.854971
 0.040000   134.600328   78.276068
 0.045000   134.975288   72.146213
 0.050000   135.321790   66.633437
 0.055000   135.641622   61.443700
 0.060000   135.936227   56.816951
 0.065000   136.209791   52.725213
 0.070000   136.463480   48.831506
 0.075000   136.698107   45.218498
 0.080000   136.915665   41.920195
 0.085000   137.117308   38.806239
 0.090000   137.303727   35.736571
 0.095000   137.474674   32.795832
 0.100000   137.631685   30.030504
 0.105000   137.774979   27.265927
 0.110000   137.904345   24.472406
 0.115000   138.019703   21.730017
 0.120000   138.121645   19.018236
 0.125000   138.209886   16.148863
 0.130000   138.283133   13.214329
 0.135000   138.342029   10.283252
 0.140000   138.385966   7.208172
 0.145000   138.414111   4.019217
 0.150000   138.426158   0.784941
 0.155000   138.421960   -2.514869
 0.160000   138.401009   -5.982398
 0.165000   138.362136   -9.551814
 0.170000   138.305491   -13.081729
 0.175000   138.231319   -16.608572
 0.180000   138.139405   -20.171539
 0.185000   138.029603   -23.704110
 0.190000   137.902364   -27.155679
 0.195000   137.758047   -30.507334
 0.200000   137.597291   -33.692363
 0.205000   137.421123   -36.666147
 0.210000   137.230630   -39.425344
 0.215000   137.026870   -41.980000
 0.220000   136.810830   -44.241559
 0.225000   136.584454   -46.098389
 0.230000   136.349846   -47.745164
 0.235000   136.107002   -49.289821
 0.240000   135.856947   -50.629597
 0.245000   135.600706   -51.782877
 0.250000   135.339119   -52.766460
 0.255000   135.073042   -53.486247
 0.260000   134.804256   -54.166484
 0.265000   134.531377   -55.014984
 0.270000   134.254106   -55.936058
 0.275000   133.972016   -56.951605
 0.280000   133.684590   -58.112420
 0.285000   133.390892   -59.538059
 0.290000   133.089210   -61.253826
 0.295000   132.778354   -63.099571
 0.300000   132.458214   -64.948059
 0.305000   132.128873   -66.742909
 0.310000   131.790785   -68.434834
 0.315000   131.444525   -70.036804
 0.320000   131.090417   -71.563428
 0.325000   130.728891   -73.005821
 0.330000   130.360359   -74.360249
 0.335000   129.985288   -75.618939
 0.340000   129.604169   -76.791286
 0.345000   129.217375   -77.853758
 0.350000   128.825632   -78.814153
 0.355000   128.429234   -79.705499
 0.360000   128.028577   -80.513655
 0.365000   127.624097   -81.234038
 0.370000   127.216236   -81.873356
 0.375000   126.805364   -82.365076
 0.380000   126.392586   -82.642436
 0.385000   125.978939   -82.730818
 0.390000   125.565277   -82.654917
 0.395000   125.152390   -82.433579
 0.400000   124.740942   -82.145728
 0.405000   124.330933   -82.092648
 0.410000   123.920015   -82.909688
 0.415000   123.501836   -84.870141
 0.420000   123.071314   -87.814679
 0.425000   122.623689   -91.680284
 0.430000   122.154511   -96.366071
 0.435000   121.660028   -102.157331
 0.440000   121.132938   -108.915984
 0.445000   120.570869   -115.721996
 0.450000   119.975718   -122.345280
 0.455000   119.347416   -128.903537
 0.460000   118.686682   -135.229357
 0.465000   117.995122   -141.424676
 0.470000   117.272436   -147.185557
 0.475000   116.523267   -151.603876
 0.480000   115.756397   -154.567077
 0.485000   114.977596   -156.340976
 0.490000   114.192987   -156.901929
 0.495000   113.408577   -156.327288
 0.500000   112.629714   -154.782524
 0.505000   111.860751   -152.537058
 0.510000   111.104344   -149.811563
 0.515000   110.362636   -146.694936
 0.520000   109.637394   -143.266096
 0.525000   108.929975   -139.538965
 0.530000   108.242005   -135.476393
 0.535000   107.575211   -131.389795
 0.540000   106.928107   -127.485879
 0.545000   106.300352   -123.692417
 0.550000   105.691182   -120.084250
 0.555000   105.099510   -116.695482
 0.560000   104.524228   -113.532747
 0.565000   103.964182   -110.819573
 0.570000   103.416032   -108.649143
 0.575000   102.877691   -106.891420
 0.580000   102.347118   -105.514349
 0.585000   101.822547   -104.440992
 0.590000   101.302708   -103.540760
 0.595000   100.787140   -102.716802
 0.600000   100.275540   -101.984431
 0.605000   99.767295   -101.392483
 0.610000   99.261615   -100.958071
 0.615000   98.757715   -100.694076
 0.620000   98.254674   -100.549795
 0.625000   97.752217   -100.607981
 0.630000   97.248594   -100.969136
 0.635000   96.742525   -101.588414
 0.640000   96.232710   -102.471213
 0.645000   95.717813   -103.631766
 0.650000   95.196393   -105.066374
 0.655000   94.667149   -106.888618
 0.660000   94.127506   -109.208322
 0.665000   93.575066   -111.968821
 0.670000   93.007818   -115.065549
 0.675000   92.424411   -118.309883
 0.680000   91.824719   -121.290410
 0.685000   91.211507   -123.608915
 0.690000   90.588630   -125.320575
 0.695000   89.958301   -126.666719
 0.700000   89.321963   -127.797934
 0.705000   88.680321   -128.855220
 0.710000   88.033411   -129.848239
 0.715000   87.381839   -130.987948
 0.720000   86.723531   -132.534886
 0.725000   86.056490   -134.423312
 0.730000   85.379298   -136.607415
 0.735000   84.690416   -139.125040
 0.740000   83.988048   -142.201559
 0.745000   83.268401   -146.406751
 0.750000   82.523980   -152.055139
 0.755000   81.747849   -159.094075
 0.760000   80.933040   -167.375815
 0.765000   80.074091   -176.511216
 0.770000   79.167927   -186.395656
 0.775000   78.210134   -196.486390
 0.780000   77.203063   -205.172308
 0.785000   76.158411   -211.932757
 0.790000   75.083736   -217.016503
 0.795000   73.988246   -220.154572
 0.800000   72.882190   -221.352166
 0.805000   71.774725   -220.907647
 0.810000   70.673114   -218.886033
 0.815000   69.585864   -215.487435
 0.820000   68.518239   -211.018708
 0.825000   67.475677   -205.458535
 0.830000   66.463654   -198.947048
 0.835000   65.486207   -191.804765
 0.840000   64.545606   -184.011791
 0.845000   63.646089   -176.286905
 0.850000   62.782737   -169.937184
 0.855000   61.946717   -165.746152
 0.860000   61.125276   -164.729873
 0.865000   60.299418   -169.066417
 0.870000   59.434612   -179.492662
 0.875000   58.504492   -197.511629
 0.880000   57.459495   -227.228127
 0.885000   56.232210   -272.284274
 0.890000   54.736653   -336.160899
 0.895000   52.870601   -423.478608
 0.900000   50.501866   -532.461925
 0.905000   47.545982   -657.497017
 0.910000   43.926896   -792.858936
 0.915000   39.617393   -926.640446
 0.920000   34.660492   -1043.276208
 0.925000   29.184631   -1124.914069
 0.930000   23.411351   -1152.090156
 0.935000   17.663729   -1114.127994
 0.940000   12.270071   -1013.008624
 0.945000   7.533643   -858.216498
 0.950000   3.687906   -666.917392
 0.955000   0.864469   -459.381552
 0.960000   -0.905909   -260.057669
 0.965000   -1.736108   -88.571919
 0.970000   -1.791628   46.977998
 0.975000   -1.266328   143.550482
 0.980000   -0.356124   202.891328
 0.985000   0.762586   228.584085
 0.990000   1.929717   228.268839
 0.995000   3.045274   211.538997
 1.000000   4.045107   188.394292
201 psinorm vpol1(km/s) dvpol1/dpsiN
 0.000000   0.000000   3.096875
 0.005000   0.016219   3.390625
 0.010000   0.033906   3.700000
 0.015000   0.053219   3.965625
 0.020000   0.073563   4.193750
 0.025000   0.095156   4.400000
 0.030000   0.117563   4.525000
 0.035000   0.140406   4.643750
 0.040000   0.164000   4.718750
 0.045000   0.187594   4.778125
 0.050000   0.211781   4.856250
 0.055000   0.236156   4.968750
 0.060000   0.261469   5.121875
 0.065000   0.287375   5.337500
 0.070000   0.314844   5.562500
 0.075000   0.343000   5.765625
 0.080000   0.372500   6.034375
 0.085000   0.403344   6.228125
 0.090000   0.434781   6.443750
 0.095000   0.467781   6.678125
 0.100000   0.501563   6.831250
 0.105000   0.536094   7.021875
 0.110000   0.571781   7.212500
 0.115000   0.608219   7.393750
 0.120000   0.645719   7.618750
 0.125000   0.684406   7.821875
 0.130000   0.723938   8.025000
 0.135000   0.764656   8.165625
 0.140000   0.805594   8.246875
 0.145000   0.847125   8.309375
 0.150000   0.888687   8.328125
 0.155000   0.930406   8.246875
 0.160000   0.971156   8.100000
 0.165000   1.011406   7.950000
 0.170000   1.050656   7.700000
 0.175000   1.088406   7.331250
 0.180000   1.123969   6.865625
 0.185000   1.157063   6.400000
 0.190000   1.187969   5.921875
 0.195000   1.216281   5.418750
 0.200000   1.242156   5.000000
 0.205000   1.266281   4.640625
 0.210000   1.288563   4.265625
 0.215000   1.308938   3.943750
 0.220000   1.328000   3.696875
 0.225000   1.345906   3.343750
 0.230000   1.361438   2.915625
 0.235000   1.375063   2.496875
 0.240000   1.386406   2.037500
 0.245000   1.395438   1.500000
 0.250000   1.401406   0.959375
 0.255000   1.405031   0.403125
 0.260000   1.405438   -0.171875
 0.265000   1.403312   -0.721875
 0.270000   1.398219   -1.284375
 0.275000   1.390469   -1.868750
 0.280000   1.379531   -2.475000
 0.285000   1.365719   -3.093750
 0.290000   1.348594   -3.796875
 0.295000   1.327750   -4.546875
 0.300000   1.303125   -5.368750
 0.305000   1.274063   -6.321875
 0.310000   1.239906   -7.346875
 0.315000   1.200594   -8.418750
 0.320000   1.155719   -9.496875
 0.325000   1.105625   -10.546875
 0.330000   1.050250   -11.525000
 0.335000   0.990375   -12.406250
 0.340000   0.926188   -13.184375
 0.345000   0.858531   -13.906250
 0.350000   0.787125   -14.556250
 0.355000   0.712969   -15.193750
 0.360000   0.635188   -15.928125
 0.365000   0.553687   -16.693750
 0.370000   0.468250   -17.568750
 0.375000   0.378000   -18.556250
 0.380000   0.282687   -19.656250
 0.385000   0.181438   -20.865625
 0.390000   0.074031   -21.956250
 0.395000   -0.038125   -22.915625
 0.400000   -0.155125   -23.765625
 0.405000   -0.275781   -24.550000
 0.410000   -0.400625   -25.637500
 0.415000   -0.532156   -27.218750
 0.420000   -0.672813   -29.318750
 0.425000   -0.825344   -31.853125
 0.430000   -0.991344   -34.781250
 0.435000   -1.173156   -38.134375
 0.440000   -1.372688   -41.931250
 0.445000   -1.592469   -45.659375
 0.450000   -1.829281   -48.850000
 0.455000   -2.080969   -51.456250
 0.460000   -2.343844   -53.165625
 0.465000   -2.612625   -53.750000
 0.470000   -2.881344   -52.834375
 0.475000   -3.140969   -50.500000
 0.480000   -3.386344   -47.196875
 0.485000   -3.612938   -43.221875
 0.490000   -3.818563   -38.834375
 0.495000   -4.001281   -34.090625
 0.500000   -4.159469   -29.393750
 0.505000   -4.295219   -25.453125
 0.510000   -4.414000   -22.425000
 0.515000   -4.519469   -20.128125
 0.520000   -4.615281   -18.481250
 0.525000   -4.704281   -17.425000
 0.530000   -4.789531   -16.768750
 0.535000   -4.871969   -16.181250
 0.540000   -4.951344   -15.615625
 0.545000   -5.028125   -15.059375
 0.550000   -5.101938   -14.409375
 0.555000   -5.172219   -13.771875
 0.560000   -5.239656   -13.100000
 0.565000   -5.303219   -12.228125
 0.570000   -5.361937   -11.278125
 0.575000   -5.416000   -10.278125
 0.580000   -5.464719   -9.153125
 0.585000   -5.507531   -7.981250
 0.590000   -5.544531   -6.756250
 0.595000   -5.575094   -5.534375
 0.600000   -5.599875   -4.353125
 0.605000   -5.618625   -3.203125
 0.610000   -5.631906   -2.156250
 0.615000   -5.640187   -1.150000
 0.620000   -5.643406   -0.225000
 0.625000   -5.642437   0.600000
 0.630000   -5.637406   1.365625
 0.635000   -5.628781   2.093750
 0.640000   -5.616469   2.778125
 0.645000   -5.601000   3.421875
 0.650000   -5.582250   4.068750
 0.655000   -5.560313   4.631250
 0.660000   -5.535938   5.200000
 0.665000   -5.508312   5.743750
 0.670000   -5.478500   6.253125
 0.675000   -5.445781   6.787500
 0.680000   -5.410625   7.312500
 0.685000   -5.372656   7.984375
 0.690000   -5.330781   8.693750
 0.695000   -5.285719   9.465625
 0.700000   -5.236125   10.346875
 0.705000   -5.182250   11.262500
 0.710000   -5.123500   12.096875
 0.715000   -5.061281   12.721875
 0.720000   -4.996281   13.203125
 0.725000   -4.929250   13.456250
 0.730000   -4.861719   13.437500
 0.735000   -4.794875   13.118750
 0.740000   -4.730531   12.559375
 0.745000   -4.669281   11.743750
 0.750000   -4.613094   10.703125
 0.755000   -4.562250   9.606250
 0.760000   -4.517031   8.434375
 0.765000   -4.477906   7.340625
 0.770000   -4.443625   6.437500
 0.775000   -4.413531   5.643750
 0.780000   -4.387188   4.873438
 0.785000   -4.364797   4.042188
 0.790000   -4.346766   3.040625
 0.795000   -4.334391   1.657812
 0.800000   -4.330188   -0.178125
 0.805000   -4.336172   -2.475000
 0.810000   -4.354938   -5.195313
 0.815000   -4.388125   -8.176562
 0.820000   -4.436703   -11.221875
 0.825000   -4.500344   -14.050000
 0.830000   -4.577203   -16.429688
 0.835000   -4.664641   -18.231250
 0.840000   -4.759516   -19.353125
 0.845000   -4.858172   -19.734375
 0.850000   -4.956859   -19.321875
 0.855000   -5.051391   -18.479688
 0.860000   -5.141656   -17.542188
 0.865000   -5.226813   -16.570312
 0.870000   -5.307359   -15.687500
 0.875000   -5.383687   -14.993750
 0.880000   -5.457297   -14.596875
 0.885000   -5.529656   -14.406250
 0.890000   -5.601359   -14.284375
 0.895000   -5.672500   -14.209375
 0.900000   -5.743453   -14.148438
 0.905000   -5.813984   -14.160937
 0.910000   -5.885063   -14.151562
 0.915000   -5.955500   -13.639063
 0.920000   -6.021453   -12.178125
 0.925000   -6.077281   -9.164062
 0.930000   -6.113094   -3.500000
 0.935000   -6.112281   6.689062
 0.940000   -6.046203   23.698438
 0.945000   -5.875297   48.310937
 0.950000   -5.563094   78.417187
 0.955000   -5.091125   107.984375
 0.960000   -4.483250   127.428125
 0.965000   -3.816844   129.265625
 0.970000   -3.190594   115.132812
 0.975000   -2.665516   106.876562
 0.980000   -2.121828   138.578125
 0.985000   -1.279734   222.721875
 0.990000   0.105391   325.728125
 0.995000   1.977547   376.257812
 1.000000   3.867969   379.910937
3 N Z A of ION SPECIES
 6.000000   6.000000   12.010700
 1.000000   1.000000   2.000000
 1.000000   1.000000   2.000000
