201 psinorm ne(10^20/m^3) dne/dpsiN
 0.000000   0.522803   -0.385237
 0.005000   0.520883   -0.382763
 0.010000   0.518975   -0.380296
 0.015000   0.517080   -0.377847
 0.020000   0.515197   -0.375414
 0.025000   0.513326   -0.372998
 0.030000   0.511467   -0.370598
 0.035000   0.509620   -0.368214
 0.040000   0.507785   -0.365847
 0.045000   0.505961   -0.363496
 0.050000   0.504150   -0.361160
 0.055000   0.502350   -0.358840
 0.060000   0.500561   -0.356536
 0.065000   0.498784   -0.354247
 0.070000   0.497019   -0.351974
 0.075000   0.495265   -0.349716
 0.080000   0.493522   -0.347473
 0.085000   0.491790   -0.345245
 0.090000   0.490069   -0.343031
 0.095000   0.488360   -0.340833
 0.100000   0.486661   -0.338649
 0.105000   0.484973   -0.336480
 0.110000   0.483296   -0.334325
 0.115000   0.481630   -0.332185
 0.120000   0.479974   -0.330058
 0.125000   0.478329   -0.327946
 0.130000   0.476695   -0.325848
 0.135000   0.475071   -0.323763
 0.140000   0.473457   -0.321692
 0.145000   0.471854   -0.319635
 0.150000   0.470261   -0.317591
 0.155000   0.468678   -0.315561
 0.160000   0.467105   -0.313544
 0.165000   0.465542   -0.311540
 0.170000   0.463990   -0.309550
 0.175000   0.462447   -0.307572
 0.180000   0.460914   -0.305607
 0.185000   0.459391   -0.303655
 0.190000   0.457877   -0.301715
 0.195000   0.456374   -0.299788
 0.200000   0.454880   -0.297874
 0.205000   0.453395   -0.295971
 0.210000   0.451920   -0.294082
 0.215000   0.450454   -0.292204
 0.220000   0.448998   -0.290338
 0.225000   0.447551   -0.288484
 0.230000   0.446113   -0.286643
 0.235000   0.444684   -0.284813
 0.240000   0.443265   -0.282994
 0.245000   0.441854   -0.281187
 0.250000   0.440453   -0.279392
 0.255000   0.439060   -0.277608
 0.260000   0.437677   -0.275836
 0.265000   0.436302   -0.274074
 0.270000   0.434936   -0.272324
 0.275000   0.433579   -0.270585
 0.280000   0.432230   -0.268857
 0.285000   0.430890   -0.267140
 0.290000   0.429559   -0.265433
 0.295000   0.428236   -0.263737
 0.300000   0.426922   -0.262052
 0.305000   0.425615   -0.260377
 0.310000   0.424318   -0.258713
 0.315000   0.423028   -0.257059
 0.320000   0.421747   -0.255416
 0.325000   0.420474   -0.253782
 0.330000   0.419209   -0.252159
 0.335000   0.417953   -0.250546
 0.340000   0.416704   -0.248943
 0.345000   0.415463   -0.247349
 0.350000   0.414230   -0.245766
 0.355000   0.413005   -0.244192
 0.360000   0.411788   -0.242628
 0.365000   0.410579   -0.241073
 0.370000   0.409378   -0.239528
 0.375000   0.408184   -0.237992
 0.380000   0.406998   -0.236466
 0.385000   0.405819   -0.234949
 0.390000   0.404648   -0.233441
 0.395000   0.403485   -0.231942
 0.400000   0.402329   -0.230452
 0.405000   0.401180   -0.228971
 0.410000   0.400039   -0.227500
 0.415000   0.398905   -0.226037
 0.420000   0.397779   -0.224582
 0.425000   0.396660   -0.223137
 0.430000   0.395547   -0.221700
 0.435000   0.394443   -0.220272
 0.440000   0.393345   -0.218852
 0.445000   0.392254   -0.217440
 0.450000   0.391170   -0.216037
 0.455000   0.390094   -0.214642
 0.460000   0.389024   -0.213256
 0.465000   0.387961   -0.211878
 0.470000   0.386905   -0.210507
 0.475000   0.385856   -0.209145
 0.480000   0.384814   -0.207791
 0.485000   0.383778   -0.206444
 0.490000   0.382749   -0.205106
 0.495000   0.381727   -0.203775
 0.500000   0.380711   -0.202452
 0.505000   0.379703   -0.201137
 0.510000   0.378700   -0.199829
 0.515000   0.377704   -0.198529
 0.520000   0.376715   -0.197236
 0.525000   0.375732   -0.195951
 0.530000   0.374755   -0.194673
 0.535000   0.373785   -0.193402
 0.540000   0.372821   -0.192139
 0.545000   0.371864   -0.190882
 0.550000   0.370912   -0.189633
 0.555000   0.369967   -0.188391
 0.560000   0.369029   -0.187156
 0.565000   0.368096   -0.185928
 0.570000   0.367169   -0.184707
 0.575000   0.366249   -0.183493
 0.580000   0.365334   -0.182285
 0.585000   0.364426   -0.181085
 0.590000   0.363524   -0.179891
 0.595000   0.362627   -0.178703
 0.600000   0.361736   -0.177522
 0.605000   0.360852   -0.176348
 0.610000   0.359973   -0.175180
 0.615000   0.359100   -0.174019
 0.620000   0.358233   -0.172864
 0.625000   0.357371   -0.171715
 0.630000   0.356516   -0.170573
 0.635000   0.355666   -0.169436
 0.640000   0.354821   -0.168306
 0.645000   0.353983   -0.167183
 0.650000   0.353149   -0.166065
 0.655000   0.352322   -0.164953
 0.660000   0.351500   -0.163847
 0.665000   0.350683   -0.162747
 0.670000   0.349872   -0.161653
 0.675000   0.349067   -0.160565
 0.680000   0.348267   -0.159483
 0.685000   0.347472   -0.158406
 0.690000   0.346683   -0.157335
 0.695000   0.345899   -0.156270
 0.700000   0.345120   -0.155210
 0.705000   0.344347   -0.154156
 0.710000   0.343579   -0.153107
 0.715000   0.342816   -0.152064
 0.720000   0.342058   -0.151027
 0.725000   0.341305   -0.149994
 0.730000   0.340558   -0.148967
 0.735000   0.339816   -0.147946
 0.740000   0.339078   -0.146929
 0.745000   0.338346   -0.145918
 0.750000   0.337619   -0.144912
 0.755000   0.336897   -0.143911
 0.760000   0.336180   -0.142915
 0.765000   0.335468   -0.141924
 0.770000   0.334761   -0.140938
 0.775000   0.334059   -0.139958
 0.780000   0.333361   -0.138982
 0.785000   0.332669   -0.138011
 0.790000   0.331981   -0.137044
 0.795000   0.331298   -0.136083
 0.800000   0.330620   -0.135126
 0.805000   0.329947   -0.134174
 0.810000   0.329279   -0.133227
 0.815000   0.328615   -0.132285
 0.820000   0.327956   -0.131347
 0.825000   0.327301   -0.130413
 0.830000   0.326652   -0.129484
 0.835000   0.326007   -0.128560
 0.840000   0.325366   -0.127640
 0.845000   0.324730   -0.126724
 0.850000   0.324099   -0.125813
 0.855000   0.323472   -0.124907
 0.860000   0.322850   -0.124004
 0.865000   0.322232   -0.123106
 0.870000   0.321619   -0.122213
 0.875000   0.321010   -0.121324
 0.880000   0.320405   -0.120442
 0.885000   0.319805   -0.119568
 0.890000   0.319210   -0.118709
 0.895000   0.318618   -0.117880
 0.900000   0.318031   -0.117117
 0.905000   0.317447   -0.116504
 0.910000   0.316866   -0.116242
 0.915000   0.316285   -0.116804
 0.920000   0.315698   -0.119303
 0.925000   0.315092   -0.126352
 0.930000   0.314434   -0.144057
 0.935000   0.313651   -0.186591
 0.940000   0.312568   -0.286366
 0.945000   0.310788   -0.515195
 0.950000   0.307417   -1.021011
 0.955000   0.300577   -2.059131
 0.960000   0.286825   -3.888898
 0.965000   0.261688   -6.280000
 0.970000   0.224025   -7.973039
 0.975000   0.181958   -7.633690
 0.980000   0.147688   -5.640292
 0.985000   0.125555   -3.514800
 0.990000   0.112540   -2.091502
 0.995000   0.104640   -1.325471
 1.000000   0.099286   -0.816318
201 psinorm te(KeV) dte/dpsiN
 0.000000   4.283266   -4.479915
 0.005000   4.260874   -4.476861
 0.010000   4.238497   -4.473707
 0.015000   4.216137   -4.470356
 0.020000   4.193794   -4.466809
 0.025000   4.171469   -4.463067
 0.030000   4.149163   -4.459130
 0.035000   4.126878   -4.455001
 0.040000   4.104613   -4.450682
 0.045000   4.082371   -4.446172
 0.050000   4.060151   -4.441473
 0.055000   4.037956   -4.436588
 0.060000   4.015786   -4.431517
 0.065000   3.993641   -4.426261
 0.070000   3.971523   -4.420823
 0.075000   3.949433   -4.415203
 0.080000   3.927371   -4.409403
 0.085000   3.905339   -4.403424
 0.090000   3.883337   -4.397268
 0.095000   3.861366   -4.390936
 0.100000   3.839427   -4.384430
 0.105000   3.817522   -4.377750
 0.110000   3.795650   -4.370899
 0.115000   3.773813   -4.363879
 0.120000   3.752011   -4.356689
 0.125000   3.730246   -4.349333
 0.130000   3.708518   -4.341811
 0.135000   3.686828   -4.334125
 0.140000   3.665176   -4.326277
 0.145000   3.643565   -4.318267
 0.150000   3.621994   -4.310098
 0.155000   3.600464   -4.301772
 0.160000   3.578976   -4.293288
 0.165000   3.557531   -4.284650
 0.170000   3.536130   -4.275859
 0.175000   3.514772   -4.266916
 0.180000   3.493460   -4.257823
 0.185000   3.472194   -4.248581
 0.190000   3.450975   -4.239192
 0.195000   3.429802   -4.229657
 0.200000   3.408678   -4.219979
 0.205000   3.387603   -4.210158
 0.210000   3.366576   -4.200196
 0.215000   3.345601   -4.190096
 0.220000   3.324676   -4.179857
 0.225000   3.303802   -4.169483
 0.230000   3.282981   -4.158975
 0.235000   3.262212   -4.148333
 0.240000   3.241497   -4.137561
 0.245000   3.220837   -4.126659
 0.250000   3.200231   -4.115629
 0.255000   3.179680   -4.104472
 0.260000   3.159186   -4.093191
 0.265000   3.138748   -4.081787
 0.270000   3.118368   -4.070261
 0.275000   3.098046   -4.058615
 0.280000   3.077782   -4.046852
 0.285000   3.057577   -4.034971
 0.290000   3.037432   -4.022976
 0.295000   3.017348   -4.010867
 0.300000   2.997324   -3.998646
 0.305000   2.977361   -3.986315
 0.310000   2.957460   -3.973875
 0.315000   2.937622   -3.961329
 0.320000   2.917847   -3.948677
 0.325000   2.898136   -3.935922
 0.330000   2.878488   -3.923064
 0.335000   2.858905   -3.910107
 0.340000   2.839387   -3.897050
 0.345000   2.819934   -3.883896
 0.350000   2.800548   -3.870646
 0.355000   2.781228   -3.857302
 0.360000   2.761975   -3.843866
 0.365000   2.742789   -3.830339
 0.370000   2.723672   -3.816723
 0.375000   2.704622   -3.803020
 0.380000   2.685641   -3.789230
 0.385000   2.666730   -3.775356
 0.390000   2.647888   -3.761399
 0.395000   2.629116   -3.747360
 0.400000   2.610414   -3.733243
 0.405000   2.591783   -3.719047
 0.410000   2.573224   -3.704774
 0.415000   2.554736   -3.690427
 0.420000   2.536319   -3.676006
 0.425000   2.517976   -3.661514
 0.430000   2.499704   -3.646951
 0.435000   2.481506   -3.632319
 0.440000   2.463381   -3.617621
 0.445000   2.445330   -3.602857
 0.450000   2.427353   -3.588028
 0.455000   2.409450   -3.573138
 0.460000   2.391621   -3.558186
 0.465000   2.373868   -3.543175
 0.470000   2.356189   -3.528106
 0.475000   2.338587   -3.512980
 0.480000   2.321060   -3.497800
 0.485000   2.303609   -3.482566
 0.490000   2.286234   -3.467280
 0.495000   2.268936   -3.451944
 0.500000   2.251715   -3.436559
 0.505000   2.234570   -3.421126
 0.510000   2.217503   -3.405648
 0.515000   2.200514   -3.390125
 0.520000   2.183602   -3.374558
 0.525000   2.166768   -3.358951
 0.530000   2.150013   -3.343303
 0.535000   2.133335   -3.327616
 0.540000   2.116736   -3.311892
 0.545000   2.100216   -3.296131
 0.550000   2.083775   -3.280337
 0.555000   2.067413   -3.264509
 0.560000   2.051130   -3.248650
 0.565000   2.034926   -3.232760
 0.570000   2.018802   -3.216841
 0.575000   2.002758   -3.200895
 0.580000   1.986793   -3.184923
 0.585000   1.970909   -3.168926
 0.590000   1.955104   -3.152905
 0.595000   1.939380   -3.136862
 0.600000   1.923736   -3.120798
 0.605000   1.908172   -3.104715
 0.610000   1.892688   -3.088613
 0.615000   1.877286   -3.072495
 0.620000   1.861963   -3.056361
 0.625000   1.846722   -3.040212
 0.630000   1.831561   -3.024051
 0.635000   1.816481   -3.007878
 0.640000   1.801483   -2.991694
 0.645000   1.786565   -2.975501
 0.650000   1.771728   -2.959300
 0.655000   1.756972   -2.943093
 0.660000   1.742297   -2.926879
 0.665000   1.727703   -2.910661
 0.670000   1.713190   -2.894441
 0.675000   1.698758   -2.878218
 0.680000   1.684408   -2.861994
 0.685000   1.670138   -2.845771
 0.690000   1.655950   -2.829549
 0.695000   1.641843   -2.813330
 0.700000   1.627817   -2.797114
 0.705000   1.613872   -2.780904
 0.710000   1.600008   -2.764700
 0.715000   1.586225   -2.748502
 0.720000   1.572523   -2.732314
 0.725000   1.558902   -2.716134
 0.730000   1.545361   -2.699965
 0.735000   1.531902   -2.683807
 0.740000   1.518523   -2.667662
 0.745000   1.505225   -2.651531
 0.750000   1.492008   -2.635414
 0.755000   1.478871   -2.619313
 0.760000   1.465815   -2.603228
 0.765000   1.452839   -2.587161
 0.770000   1.439943   -2.571113
 0.775000   1.427128   -2.555083
 0.780000   1.414392   -2.539074
 0.785000   1.401737   -2.523086
 0.790000   1.389162   -2.507118
 0.795000   1.376666   -2.491173
 0.800000   1.364250   -2.475249
 0.805000   1.351913   -2.459347
 0.810000   1.339656   -2.443465
 0.815000   1.327479   -2.427602
 0.820000   1.315380   -2.411756
 0.825000   1.303361   -2.395920
 0.830000   1.291421   -2.380090
 0.835000   1.279560   -2.364256
 0.840000   1.267779   -2.348405
 0.845000   1.256076   -2.332519
 0.850000   1.244453   -2.316575
 0.855000   1.232910   -2.300546
 0.860000   1.221448   -2.284399
 0.865000   1.210066   -2.268104
 0.870000   1.198767   -2.251642
 0.875000   1.187550   -2.235034
 0.880000   1.176417   -2.218391
 0.885000   1.165366   -2.202006
 0.890000   1.154396   -2.186536
 0.895000   1.143501   -2.173314
 0.900000   1.132663   -2.164923
 0.905000   1.121852   -2.166184
 0.910000   1.111002   -2.185878
 0.915000   1.099993   -2.239667
 0.920000   1.088605   -2.354996
 0.925000   1.076443   -2.579042
 0.930000   1.062814   -2.991009
 0.935000   1.046533   -3.719445
 0.940000   1.025620   -4.961830
 0.945000   0.996914   -6.992987
 0.950000   0.955690   -10.123941
 0.955000   0.895675   -14.535471
 0.960000   0.810335   -19.914062
 0.965000   0.696534   -25.019934
 0.970000   0.560136   -27.784031
 0.975000   0.418694   -26.558925
 0.980000   0.294547   -21.698491
 0.985000   0.201709   -15.419386
 0.990000   0.140353   -9.914698
 0.995000   0.102562   -6.059466
 1.000000   0.079758   -3.062100
201 psinorm ni(10^20/m^3) dni/dpsiN
 0.000000   0.318494   -0.462018
 0.005000   0.316396   -0.377072
 0.010000   0.314723   -0.305712
 0.015000   0.313339   -0.251417
 0.020000   0.312209   -0.205413
 0.025000   0.311285   -0.166579
 0.030000   0.310543   -0.133274
 0.035000   0.309952   -0.105012
 0.040000   0.309493   -0.080615
 0.045000   0.309146   -0.060245
 0.050000   0.308890   -0.042908
 0.055000   0.308717   -0.028334
 0.060000   0.308607   -0.016513
 0.065000   0.308552   -0.007033
 0.070000   0.308537   0.000424
 0.075000   0.308556   0.006196
 0.080000   0.308599   0.010245
 0.085000   0.308658   0.012846
 0.090000   0.308727   0.014101
 0.095000   0.308799   0.014301
 0.100000   0.308870   0.013581
 0.105000   0.308935   0.011916
 0.110000   0.308989   0.009479
 0.115000   0.309030   0.006460
 0.120000   0.309054   0.002704
 0.125000   0.309057   -0.001576
 0.130000   0.309038   -0.006077
 0.135000   0.308996   -0.010881
 0.140000   0.308929   -0.015876
 0.145000   0.308837   -0.021084
 0.150000   0.308719   -0.026595
 0.155000   0.308572   -0.032305
 0.160000   0.308396   -0.038105
 0.165000   0.308190   -0.043958
 0.170000   0.307956   -0.050110
 0.175000   0.307689   -0.056277
 0.180000   0.307393   -0.062192
 0.185000   0.307067   -0.068037
 0.190000   0.306713   -0.073737
 0.195000   0.306330   -0.079312
 0.200000   0.305920   -0.084759
 0.205000   0.305482   -0.090066
 0.210000   0.305019   -0.095220
 0.215000   0.304530   -0.100331
 0.220000   0.304016   -0.105714
 0.225000   0.303473   -0.110817
 0.230000   0.302908   -0.115278
 0.235000   0.302320   -0.119511
 0.240000   0.301712   -0.123559
 0.245000   0.301085   -0.127452
 0.250000   0.300438   -0.131607
 0.255000   0.299769   -0.135747
 0.260000   0.299080   -0.139323
 0.265000   0.298375   -0.142630
 0.270000   0.297654   -0.145830
 0.275000   0.296917   -0.149012
 0.280000   0.296164   -0.152502
 0.285000   0.295392   -0.155781
 0.290000   0.294606   -0.158533
 0.295000   0.293807   -0.161200
 0.300000   0.292994   -0.163818
 0.305000   0.292169   -0.166688
 0.310000   0.291327   -0.169356
 0.315000   0.290475   -0.171518
 0.320000   0.289612   -0.173570
 0.325000   0.288739   -0.175616
 0.330000   0.287856   -0.177715
 0.335000   0.286962   -0.179563
 0.340000   0.286060   -0.181134
 0.345000   0.285151   -0.182658
 0.350000   0.284234   -0.184330
 0.355000   0.283308   -0.185993
 0.360000   0.282374   -0.187419
 0.365000   0.281433   -0.188769
 0.370000   0.280486   -0.190152
 0.375000   0.279532   -0.191598
 0.380000   0.278570   -0.192893
 0.385000   0.277603   -0.193973
 0.390000   0.276630   -0.194948
 0.395000   0.275653   -0.195932
 0.400000   0.274671   -0.196768
 0.405000   0.273686   -0.197296
 0.410000   0.272698   -0.197644
 0.415000   0.271709   -0.197907
 0.420000   0.270719   -0.198033
 0.425000   0.269729   -0.197911
 0.430000   0.268740   -0.197608
 0.435000   0.267753   -0.197207
 0.440000   0.266768   -0.196758
 0.445000   0.265785   -0.196216
 0.450000   0.264806   -0.195579
 0.455000   0.263830   -0.194930
 0.460000   0.262857   -0.194302
 0.465000   0.261887   -0.193579
 0.470000   0.260921   -0.192687
 0.475000   0.259960   -0.191638
 0.480000   0.259004   -0.190484
 0.485000   0.258055   -0.189129
 0.490000   0.257113   -0.187475
 0.495000   0.256180   -0.185602
 0.500000   0.255257   -0.183556
 0.505000   0.254345   -0.181285
 0.510000   0.253444   -0.178726
 0.515000   0.252557   -0.175939
 0.520000   0.251685   -0.172987
 0.525000   0.250827   -0.169889
 0.530000   0.249986   -0.166588
 0.535000   0.249162   -0.163110
 0.540000   0.248355   -0.159515
 0.545000   0.247566   -0.155848
 0.550000   0.246796   -0.152047
 0.555000   0.246046   -0.148066
 0.560000   0.245316   -0.143964
 0.565000   0.244606   -0.139766
 0.570000   0.243918   -0.135442
 0.575000   0.243252   -0.130937
 0.580000   0.242609   -0.126282
 0.585000   0.241989   -0.121514
 0.590000   0.241393   -0.116676
 0.595000   0.240822   -0.111752
 0.600000   0.240276   -0.106745
 0.605000   0.239755   -0.101711
 0.610000   0.239259   -0.096683
 0.615000   0.238788   -0.091670
 0.620000   0.238342   -0.086667
 0.625000   0.237921   -0.081671
 0.630000   0.237525   -0.076682
 0.635000   0.237154   -0.071718
 0.640000   0.236808   -0.066775
 0.645000   0.236487   -0.061852
 0.650000   0.236190   -0.056949
 0.655000   0.235917   -0.052068
 0.660000   0.235669   -0.047221
 0.665000   0.235445   -0.042387
 0.670000   0.235245   -0.037437
 0.675000   0.235071   -0.032119
 0.680000   0.234924   -0.025735
 0.685000   0.234813   -0.017902
 0.690000   0.234745   -0.008970
 0.695000   0.234724   0.000876
 0.700000   0.234754   0.011557
 0.705000   0.234839   0.022869
 0.710000   0.234982   0.035079
 0.715000   0.235190   0.047604
 0.720000   0.235458   0.059130
 0.725000   0.235781   0.069407
 0.730000   0.236153   0.078309
 0.735000   0.236564   0.085409
 0.740000   0.237007   0.090379
 0.745000   0.237468   0.092575
 0.750000   0.237932   0.091661
 0.755000   0.238385   0.088055
 0.760000   0.238813   0.082142
 0.765000   0.239206   0.074265
 0.770000   0.239556   0.064551
 0.775000   0.239852   0.053471
 0.780000   0.240090   0.042448
 0.785000   0.240276   0.032141
 0.790000   0.240412   0.022448
 0.795000   0.240501   0.013571
 0.800000   0.240547   0.005565
 0.805000   0.240556   -0.001385
 0.810000   0.240534   -0.007066
 0.815000   0.240486   -0.011905
 0.820000   0.240415   -0.016430
 0.825000   0.240321   -0.020811
 0.830000   0.240206   -0.025132
 0.835000   0.240070   -0.029384
 0.840000   0.239913   -0.033486
 0.845000   0.239735   -0.037386
 0.850000   0.239539   -0.041081
 0.855000   0.239324   -0.044559
 0.860000   0.239093   -0.047831
 0.865000   0.238846   -0.050885
 0.870000   0.238584   -0.053563
 0.875000   0.238310   -0.055728
 0.880000   0.238027   -0.057363
 0.885000   0.237737   -0.058446
 0.890000   0.237443   -0.058925
 0.895000   0.237148   -0.058476
 0.900000   0.236858   -0.056956
 0.905000   0.236578   -0.054262
 0.910000   0.236315   -0.049815
 0.915000   0.236080   -0.042802
 0.920000   0.235887   -0.032135
 0.925000   0.235758   -0.015328
 0.930000   0.235734   0.006772
 0.935000   0.235826   0.026644
 0.940000   0.236000   0.022367
 0.945000   0.236050   -0.067946
 0.950000   0.235321   -0.386834
 0.955000   0.232182   -1.186972
 0.960000   0.223451   -2.757075
 0.965000   0.204611   -4.923484
 0.970000   0.174216   -6.476865
 0.975000   0.139842   -6.119214
 0.980000   0.113024   -4.231021
 0.985000   0.097532   -2.299163
 0.990000   0.090033   -1.107898
 0.995000   0.086453   -0.564301
 1.000000   0.084390   -0.261069
201 psinorm ti(KeV) dti/dpsiN
 0.000000   5.505649   0.003479
 0.005000   5.504880   -0.310931
 0.010000   5.502539   -0.630376
 0.015000   5.498576   -0.959392
 0.020000   5.492945   -1.296891
 0.025000   5.485607   -1.641581
 0.030000   5.476530   -1.991978
 0.035000   5.465688   -2.346458
 0.040000   5.453065   -2.702695
 0.045000   5.438661   -3.059174
 0.050000   5.422473   -3.414887
 0.055000   5.404512   -3.768135
 0.060000   5.384792   -4.117696
 0.065000   5.363335   -4.462801
 0.070000   5.340164   -4.802519
 0.075000   5.315310   -5.137189
 0.080000   5.288792   -5.466707
 0.085000   5.260642   -5.789436
 0.090000   5.230898   -6.104534
 0.095000   5.199597   -6.411464
 0.100000   5.166783   -6.709446
 0.105000   5.132503   -6.998326
 0.110000   5.096800   -7.278046
 0.115000   5.059722   -7.547709
 0.120000   5.021323   -7.806430
 0.125000   4.981658   -8.053218
 0.130000   4.940790   -8.286485
 0.135000   4.898793   -8.504785
 0.140000   4.855743   -8.707823
 0.145000   4.811715   -8.895362
 0.150000   4.766789   -9.066854
 0.155000   4.721046   -9.221976
 0.160000   4.674569   -9.359819
 0.165000   4.627448   -9.480160
 0.170000   4.579768   -9.584599
 0.175000   4.531602   -9.673720
 0.180000   4.483030   -9.747273
 0.185000   4.434129   -9.805790
 0.190000   4.384973   -9.849696
 0.195000   4.335632   -9.881135
 0.200000   4.286161   -9.903785
 0.205000   4.236595   -9.919049
 0.210000   4.186971   -9.927002
 0.215000   4.137325   -9.928167
 0.220000   4.087689   -9.923928
 0.225000   4.038085   -9.916879
 0.230000   3.988520   -9.903175
 0.235000   3.939054   -9.879111
 0.240000   3.889729   -9.845112
 0.245000   3.840602   -9.798812
 0.250000   3.791741   -9.738120
 0.255000   3.743221   -9.662072
 0.260000   3.695120   -9.568044
 0.265000   3.647541   -9.456621
 0.270000   3.600554   -9.331087
 0.275000   3.554230   -9.191886
 0.280000   3.508635   -9.039491
 0.285000   3.463835   -8.872634
 0.290000   3.419909   -8.693233
 0.295000   3.376903   -8.504933
 0.300000   3.334860   -8.309283
 0.305000   3.293810   -8.109072
 0.310000   3.253769   -7.907395
 0.315000   3.214736   -7.706799
 0.320000   3.176701   -7.511668
 0.325000   3.139619   -7.323264
 0.330000   3.103468   -7.139400
 0.335000   3.068225   -6.960038
 0.340000   3.033868   -6.785052
 0.345000   3.000375   -6.617231
 0.350000   2.967696   -6.454311
 0.355000   2.935832   -6.291910
 0.360000   2.904776   -6.130900
 0.365000   2.874523   -5.970875
 0.370000   2.845068   -5.810553
 0.375000   2.816417   -5.648269
 0.380000   2.788585   -5.476617
 0.385000   2.761651   -5.292222
 0.390000   2.735663   -5.099820
 0.395000   2.710653   -4.902027
 0.400000   2.686643   -4.700845
 0.405000   2.663644   -4.493836
 0.410000   2.641704   -4.284947
 0.415000   2.620795   -4.085280
 0.420000   2.600851   -3.897863
 0.425000   2.581816   -3.722628
 0.430000   2.563625   -3.560392
 0.435000   2.546212   -3.409286
 0.440000   2.529532   -3.270408
 0.445000   2.513508   -3.146997
 0.450000   2.498062   -3.037288
 0.455000   2.483135   -2.939325
 0.460000   2.468669   -2.852845
 0.465000   2.454607   -2.778082
 0.470000   2.440888   -2.715923
 0.475000   2.427448   -2.664636
 0.480000   2.414242   -2.620951
 0.485000   2.401238   -2.582643
 0.490000   2.388415   -2.547469
 0.495000   2.375763   -2.513742
 0.500000   2.363278   -2.479704
 0.505000   2.350966   -2.444841
 0.510000   2.338830   -2.410569
 0.515000   2.326861   -2.377764
 0.520000   2.315052   -2.346480
 0.525000   2.303396   -2.316150
 0.530000   2.291890   -2.285370
 0.535000   2.280542   -2.256205
 0.540000   2.269328   -2.230274
 0.545000   2.258239   -2.206325
 0.550000   2.247265   -2.184428
 0.555000   2.236395   -2.164332
 0.560000   2.225622   -2.144873
 0.565000   2.214946   -2.129010
 0.570000   2.204332   -2.118524
 0.575000   2.193761   -2.111460
 0.580000   2.183217   -2.107977
 0.585000   2.172681   -2.108208
 0.590000   2.162135   -2.112660
 0.595000   2.151555   -2.122228
 0.600000   2.140913   -2.136691
 0.605000   2.130188   -2.155352
 0.610000   2.119359   -2.178085
 0.615000   2.108407   -2.204654
 0.620000   2.097313   -2.237583
 0.625000   2.086031   -2.274219
 0.630000   2.074571   -2.310631
 0.635000   2.062925   -2.347984
 0.640000   2.051091   -2.385653
 0.645000   2.039068   -2.422844
 0.650000   2.026862   -2.461547
 0.655000   2.014453   -2.499582
 0.660000   2.001866   -2.534367
 0.665000   1.989109   -2.568126
 0.670000   1.976185   -2.600744
 0.675000   1.963102   -2.631441
 0.680000   1.949871   -2.661213
 0.685000   1.936490   -2.686302
 0.690000   1.923008   -2.702216
 0.695000   1.909467   -2.710305
 0.700000   1.895905   -2.711164
 0.705000   1.882356   -2.704738
 0.710000   1.868857   -2.690167
 0.715000   1.855454   -2.666794
 0.720000   1.842189   -2.636272
 0.725000   1.829091   -2.600157
 0.730000   1.816188   -2.558951
 0.735000   1.803502   -2.513449
 0.740000   1.791053   -2.462488
 0.745000   1.778877   -2.407324
 0.750000   1.766980   -2.353574
 0.755000   1.755341   -2.303393
 0.760000   1.743946   -2.256918
 0.765000   1.732772   -2.215453
 0.770000   1.721792   -2.179293
 0.775000   1.710979   -2.147995
 0.780000   1.700312   -2.120414
 0.785000   1.689775   -2.094906
 0.790000   1.679363   -2.070848
 0.795000   1.669067   -2.048568
 0.800000   1.658877   -2.028797
 0.805000   1.648779   -2.014700
 0.810000   1.638730   -2.009699
 0.815000   1.628682   -2.014353
 0.820000   1.618586   -2.028395
 0.825000   1.608398   -2.051532
 0.830000   1.598071   -2.084456
 0.835000   1.587553   -2.128867
 0.840000   1.576782   -2.176935
 0.845000   1.565784   -2.223977
 0.850000   1.554543   -2.274869
 0.855000   1.543035   -2.331836
 0.860000   1.531224   -2.398726
 0.865000   1.519048   -2.484486
 0.870000   1.506379   -2.584723
 0.875000   1.493201   -2.694663
 0.880000   1.479433   -2.821024
 0.885000   1.464990   -2.965541
 0.890000   1.449777   -3.130994
 0.895000   1.433680   -3.338841
 0.900000   1.416389   -3.590279
 0.905000   1.397778   -3.879784
 0.910000   1.377591   -4.224489
 0.915000   1.355533   -4.633693
 0.920000   1.331254   -5.118685
 0.925000   1.304346   -5.732750
 0.930000   1.273927   -6.452581
 0.935000   1.239820   -7.228308
 0.940000   1.201644   -8.077131
 0.945000   1.159049   -8.984083
 0.950000   1.111803   -9.919718
 0.955000   1.059852   -10.877138
 0.960000   1.003031   -11.757053
 0.965000   0.942281   -12.445569
 0.970000   0.878576   -12.918350
 0.975000   0.813098   -13.130588
 0.980000   0.747270   -13.044340
 0.985000   0.682654   -12.634985
 0.990000   0.620920   -11.902780
 0.995000   0.563626   -10.910221
 1.000000   0.511818   -9.813219
201 psinorm nb(10^20/m^3) dnb/dpsiN
 0.000000   0.096479   0.076780
 0.005000   0.096659   -0.004555
 0.010000   0.096433   -0.072301
 0.015000   0.095936   -0.122979
 0.020000   0.095204   -0.165367
 0.025000   0.094283   -0.200592
 0.030000   0.093198   -0.230301
 0.035000   0.091980   -0.254988
 0.040000   0.090648   -0.275838
 0.045000   0.089221   -0.292697
 0.050000   0.087721   -0.306558
 0.055000   0.086156   -0.317698
 0.060000   0.084544   -0.326127
 0.065000   0.082895   -0.332261
 0.070000   0.081221   -0.336419
 0.075000   0.079530   -0.338936
 0.080000   0.077832   -0.339768
 0.085000   0.076133   -0.339195
 0.090000   0.074440   -0.337321
 0.095000   0.072759   -0.334439
 0.100000   0.071095   -0.330683
 0.105000   0.069453   -0.326032
 0.110000   0.067835   -0.320663
 0.115000   0.066246   -0.314770
 0.120000   0.064687   -0.308202
 0.125000   0.063164   -0.301174
 0.130000   0.061676   -0.293993
 0.135000   0.060224   -0.286580
 0.140000   0.058810   -0.279046
 0.145000   0.057434   -0.271370
 0.150000   0.056096   -0.263464
 0.155000   0.054799   -0.255433
 0.160000   0.053542   -0.247385
 0.165000   0.052325   -0.239359
 0.170000   0.051148   -0.231101
 0.175000   0.050014   -0.222901
 0.180000   0.048919   -0.215027
 0.185000   0.047864   -0.207298
 0.190000   0.046846   -0.199792
 0.195000   0.045866   -0.192488
 0.200000   0.044921   -0.185385
 0.205000   0.044012   -0.178492
 0.210000   0.043137   -0.171817
 0.215000   0.042294   -0.165244
 0.220000   0.041484   -0.158449
 0.225000   0.040709   -0.151970
 0.230000   0.039964   -0.146182
 0.235000   0.039248   -0.140686
 0.240000   0.038558   -0.135441
 0.245000   0.037893   -0.130424
 0.250000   0.037253   -0.125223
 0.255000   0.036641   -0.120113
 0.260000   0.036052   -0.115667
 0.265000   0.035484   -0.111603
 0.270000   0.034936   -0.107746
 0.275000   0.034407   -0.104007
 0.280000   0.033896   -0.100058
 0.285000   0.033406   -0.096417
 0.290000   0.032932   -0.093392
 0.295000   0.032472   -0.090529
 0.300000   0.032027   -0.087777
 0.305000   0.031594   -0.084828
 0.310000   0.031178   -0.082120
 0.315000   0.030773   -0.079950
 0.320000   0.030379   -0.077907
 0.325000   0.029994   -0.075875
 0.330000   0.029620   -0.073802
 0.335000   0.029256   -0.071997
 0.340000   0.028900   -0.070496
 0.345000   0.028551   -0.069083
 0.350000   0.028209   -0.067575
 0.355000   0.027875   -0.066131
 0.360000   0.027548   -0.064977
 0.365000   0.027226   -0.063943
 0.370000   0.026909   -0.062908
 0.375000   0.026597   -0.061832
 0.380000   0.026290   -0.060897
 0.385000   0.025988   -0.060135
 0.390000   0.025689   -0.059419
 0.395000   0.025393   -0.058615
 0.400000   0.025103   -0.057857
 0.405000   0.024815   -0.057272
 0.410000   0.024530   -0.056710
 0.415000   0.024248   -0.056090
 0.420000   0.023969   -0.055461
 0.425000   0.023693   -0.054932
 0.430000   0.023420   -0.054442
 0.435000   0.023149   -0.053912
 0.440000   0.022881   -0.053335
 0.445000   0.022615   -0.052818
 0.450000   0.022352   -0.052362
 0.455000   0.022092   -0.051875
 0.460000   0.021834   -0.051320
 0.465000   0.021579   -0.050811
 0.470000   0.021326   -0.050391
 0.475000   0.021075   -0.049979
 0.480000   0.020826   -0.049490
 0.485000   0.020580   -0.049013
 0.490000   0.020336   -0.048635
 0.495000   0.020093   -0.048264
 0.500000   0.019853   -0.047842
 0.505000   0.019615   -0.047412
 0.510000   0.019379   -0.047048
 0.515000   0.019145   -0.046708
 0.520000   0.018912   -0.046338
 0.525000   0.018681   -0.045937
 0.530000   0.018452   -0.045576
 0.535000   0.018225   -0.045259
 0.540000   0.018000   -0.044941
 0.545000   0.017776   -0.044574
 0.550000   0.017554   -0.044226
 0.555000   0.017334   -0.043942
 0.560000   0.017115   -0.043665
 0.565000   0.016897   -0.043362
 0.570000   0.016681   -0.043057
 0.575000   0.016466   -0.042802
 0.580000   0.016253   -0.042573
 0.585000   0.016041   -0.042346
 0.590000   0.015830   -0.042104
 0.595000   0.015620   -0.041888
 0.600000   0.015411   -0.041721
 0.605000   0.015203   -0.041569
 0.610000   0.014995   -0.041416
 0.615000   0.014788   -0.041271
 0.620000   0.014582   -0.041160
 0.625000   0.014377   -0.041074
 0.630000   0.014172   -0.041002
 0.635000   0.013967   -0.040942
 0.640000   0.013762   -0.040900
 0.645000   0.013558   -0.040883
 0.650000   0.013353   -0.040881
 0.655000   0.013149   -0.040892
 0.660000   0.012944   -0.040922
 0.665000   0.012740   -0.040971
 0.670000   0.012535   -0.041028
 0.675000   0.012329   -0.041096
 0.680000   0.012124   -0.041174
 0.685000   0.011918   -0.041273
 0.690000   0.011711   -0.041392
 0.695000   0.011504   -0.041513
 0.700000   0.011296   -0.041635
 0.705000   0.011087   -0.041765
 0.710000   0.010878   -0.041899
 0.715000   0.010668   -0.042055
 0.720000   0.010458   -0.042212
 0.725000   0.010246   -0.042349
 0.730000   0.010034   -0.042482
 0.735000   0.009821   -0.042612
 0.740000   0.009608   -0.042735
 0.745000   0.009394   -0.042861
 0.750000   0.009179   -0.042971
 0.755000   0.008964   -0.043056
 0.760000   0.008749   -0.043125
 0.765000   0.008533   -0.043178
 0.770000   0.008317   -0.043211
 0.775000   0.008101   -0.043227
 0.780000   0.007885   -0.043224
 0.785000   0.007669   -0.043199
 0.790000   0.007453   -0.043155
 0.795000   0.007237   -0.043090
 0.800000   0.007022   -0.043005
 0.805000   0.006807   -0.042897
 0.810000   0.006593   -0.042767
 0.815000   0.006380   -0.042607
 0.820000   0.006167   -0.042427
 0.825000   0.005955   -0.042236
 0.830000   0.005745   -0.042022
 0.835000   0.005535   -0.041781
 0.840000   0.005327   -0.041513
 0.845000   0.005120   -0.041214
 0.850000   0.004915   -0.040883
 0.855000   0.004711   -0.040515
 0.860000   0.004509   -0.040089
 0.865000   0.004310   -0.039617
 0.870000   0.004113   -0.039132
 0.875000   0.003919   -0.038632
 0.880000   0.003727   -0.038115
 0.885000   0.003538   -0.037577
 0.890000   0.003351   -0.037020
 0.895000   0.003168   -0.036442
 0.900000   0.002987   -0.035846
 0.905000   0.002809   -0.035238
 0.910000   0.002634   -0.034626
 0.915000   0.002463   -0.034046
 0.920000   0.002294   -0.033604
 0.925000   0.002127   -0.033415
 0.930000   0.001960   -0.033538
 0.935000   0.001791   -0.033979
 0.940000   0.001620   -0.034709
 0.945000   0.001444   -0.035621
 0.950000   0.001264   -0.036436
 0.955000   0.001080   -0.036493
 0.960000   0.000899   -0.034927
 0.965000   0.000731   -0.031528
 0.970000   0.000584   -0.026897
 0.975000   0.000462   -0.021735
 0.980000   0.000366   -0.016826
 0.985000   0.000293   -0.013231
 0.990000   0.000234   -0.011354
 0.995000   0.000180   -0.012205
 1.000000   0.000112   -0.015009
201 psinorm pb(KPa) dpb/dpsiN
 0.000000   39.529611   11.749813
 0.005000   39.516059   -17.170436
 0.010000   39.357907   -42.556886
 0.015000   39.090491   -63.110991
 0.020000   38.726797   -80.130169
 0.025000   38.289189   -93.878909
 0.030000   37.788008   -105.172129
 0.035000   37.237468   -114.389667
 0.040000   36.644111   -122.138605
 0.045000   36.016082   -128.266378
 0.050000   35.361447   -133.161549
 0.055000   34.684466   -136.960636
 0.060000   33.991841   -139.705378
 0.065000   33.287412   -141.558487
 0.070000   32.576256   -142.645698
 0.075000   31.860955   -143.129222
 0.080000   31.144964   -142.982518
 0.085000   30.431130   -142.262620
 0.090000   29.722338   -141.037513
 0.095000   29.020755   -139.446493
 0.100000   28.327873   -137.532092
 0.105000   27.645434   -135.255413
 0.110000   26.975319   -132.720720
 0.115000   26.318227   -130.035838
 0.120000   25.674960   -127.118666
 0.125000   25.047040   -124.037117
 0.130000   24.434589   -120.919211
 0.135000   23.837848   -117.738718
 0.140000   23.257202   -114.545851
 0.145000   22.692390   -111.315962
 0.150000   22.144042   -107.991359
 0.155000   21.612476   -104.631182
 0.160000   21.097730   -101.279422
 0.165000   20.599682   -97.949416
 0.170000   20.118236   -94.541478
 0.175000   19.654267   -91.169661
 0.180000   19.206540   -87.951122
 0.185000   18.774756   -84.802578
 0.190000   18.358514   -81.736427
 0.195000   17.957392   -78.755218
 0.200000   17.570962   -75.861173
 0.205000   17.198780   -73.057847
 0.210000   16.840383   -70.348129
 0.215000   16.495299   -67.687078
 0.220000   16.163512   -64.949569
 0.225000   15.845803   -62.310641
 0.230000   15.540406   -59.938702
 0.235000   15.246416   -57.720253
 0.240000   14.963203   -55.612560
 0.245000   14.690290   -53.597572
 0.250000   14.427228   -51.517061
 0.255000   14.175120   -49.477933
 0.260000   13.932448   -47.696095
 0.265000   13.698159   -46.061895
 0.270000   13.471829   -44.512798
 0.275000   13.253031   -43.020378
 0.280000   13.041626   -41.453119
 0.285000   12.838499   -39.995428
 0.290000   12.641671   -38.767949
 0.295000   12.450820   -37.603102
 0.300000   12.265640   -36.481166
 0.305000   12.086008   -35.287230
 0.310000   11.912768   -34.187966
 0.315000   11.744129   -33.293932
 0.320000   11.579829   -32.450573
 0.325000   11.419623   -31.613685
 0.330000   11.263692   -30.773667
 0.335000   11.111886   -30.039163
 0.340000   10.963300   -29.411352
 0.345000   10.817773   -28.816447
 0.350000   10.675136   -28.188405
 0.355000   10.535889   -27.586777
 0.360000   10.399268   -27.095958
 0.365000   10.264929   -26.651836
 0.370000   10.132750   -26.209048
 0.375000   10.002839   -25.753817
 0.380000   9.875211   -25.352824
 0.385000   9.749310   -25.015054
 0.390000   9.625061   -24.691708
 0.395000   9.502393   -24.336043
 0.400000   9.381701   -24.003744
 0.405000   9.262356   -23.739131
 0.410000   9.144309   -23.483967
 0.415000   9.027516   -23.208526
 0.420000   8.912224   -22.930180
 0.425000   8.798214   -22.686420
 0.430000   8.685360   -22.456763
 0.435000   8.573647   -22.212198
 0.440000   8.463238   -21.950015
 0.445000   8.354147   -21.710320
 0.450000   8.246135   -21.494302
 0.455000   8.139204   -21.266624
 0.460000   8.033468   -21.016610
 0.465000   7.929037   -20.786659
 0.470000   7.825602   -20.590200
 0.475000   7.723135   -20.398603
 0.480000   7.621616   -20.183690
 0.485000   7.521299   -19.976593
 0.490000   7.421850   -19.805078
 0.495000   7.323248   -19.637708
 0.500000   7.225473   -19.456712
 0.505000   7.128681   -19.275439
 0.510000   7.032718   -19.116269
 0.515000   6.937518   -18.964593
 0.520000   6.843072   -18.804828
 0.525000   6.749470   -18.635227
 0.530000   6.656720   -18.477646
 0.535000   6.564693   -18.333906
 0.540000   6.473381   -18.189609
 0.545000   6.382797   -18.030612
 0.550000   6.293075   -17.876402
 0.555000   6.204033   -17.742231
 0.560000   6.115653   -17.611666
 0.565000   6.027916   -17.472915
 0.570000   5.940923   -17.330905
 0.575000   5.854607   -17.202793
 0.580000   5.768896   -17.083334
 0.585000   5.683774   -16.963837
 0.590000   5.599257   -16.839340
 0.595000   5.515381   -16.724685
 0.600000   5.432010   -16.625588
 0.605000   5.349125   -16.530138
 0.610000   5.266709   -16.432277
 0.615000   5.184802   -16.337181
 0.620000   5.103337   -16.255192
 0.625000   5.022250   -16.181060
 0.630000   4.941527   -16.109418
 0.635000   4.861156   -16.040242
 0.640000   4.781124   -15.977265
 0.645000   4.701383   -15.922078
 0.650000   4.621903   -15.871799
 0.655000   4.542665   -15.824973
 0.660000   4.463654   -15.784085
 0.665000   4.384824   -15.748346
 0.670000   4.306170   -15.714532
 0.675000   4.227679   -15.683677
 0.680000   4.149333   -15.656553
 0.685000   4.071114   -15.636133
 0.690000   3.992972   -15.620969
 0.695000   3.914904   -15.605079
 0.700000   3.836921   -15.589475
 0.705000   3.759009   -15.576327
 0.710000   3.681158   -15.564212
 0.715000   3.603367   -15.558621
 0.720000   3.525572   -15.553157
 0.725000   3.447835   -15.540819
 0.730000   3.370164   -15.527319
 0.735000   3.292562   -15.512198
 0.740000   3.215042   -15.494714
 0.745000   3.137615   -15.476900
 0.750000   3.060273   -15.453962
 0.755000   2.983076   -15.422250
 0.760000   2.906050   -15.384905
 0.765000   2.829226   -15.340954
 0.770000   2.752641   -15.289512
 0.775000   2.676331   -15.231792
 0.780000   2.600323   -15.168267
 0.785000   2.524649   -15.098696
 0.790000   2.449336   -15.023559
 0.795000   2.374413   -14.942423
 0.800000   2.299911   -14.854998
 0.805000   2.225863   -14.760907
 0.810000   2.152302   -14.659194
 0.815000   2.079271   -14.545398
 0.820000   2.006848   -14.424472
 0.825000   1.935026   -14.300520
 0.830000   1.863843   -14.168419
 0.835000   1.793342   -14.027491
 0.840000   1.723568   -13.877537
 0.845000   1.654567   -13.718011
 0.850000   1.586388   -13.547769
 0.855000   1.519089   -13.366196
 0.860000   1.452726   -13.164298
 0.865000   1.387446   -12.946505
 0.870000   1.323261   -12.725233
 0.875000   1.260194   -12.497733
 0.880000   1.198284   -12.262361
 0.885000   1.137570   -12.019003
 0.890000   1.078094   -11.767710
 0.895000   1.019893   -11.509121
 0.900000   0.963003   -11.244895
 0.905000   0.907444   -10.977846
 0.910000   0.853224   -10.711797
 0.915000   0.800326   -10.458020
 0.920000   0.748644   -10.244409
 0.925000   0.697882   -10.105020
 0.930000   0.647594   -10.063815
 0.935000   0.597244   -10.137498
 0.940000   0.546219   -10.337224
 0.945000   0.493872   -10.653715
 0.950000   0.439682   -11.024129
 0.955000   0.383630   -11.261604
 0.960000   0.327066   -11.084767
 0.965000   0.272783   -10.375459
 0.970000   0.223311   -9.310650
 0.975000   0.179676   -8.153239
 0.980000   0.141779   -7.041675
 0.985000   0.109260   -6.018523
 0.990000   0.081593   -4.984400
 0.995000   0.059416   -4.430406
 1.000000   0.037289   -4.420081
201 psinorm ptot(KPa) dptot/dpsiN
 0.000000   105.086897   -92.955452
 0.005000   104.565513   -115.597983
 0.010000   103.930917   -135.923881
 0.015000   103.206275   -152.960713
 0.020000   102.401310   -167.231651
 0.025000   101.533958   -178.899786
 0.030000   100.612312   -188.630749
 0.035000   99.647651   -196.755471
 0.040000   98.644757   -203.767023
 0.045000   97.609980   -209.519722
 0.050000   96.549560   -214.310627
 0.055000   95.466874   -218.243446
 0.060000   94.367126   -221.352233
 0.065000   93.253352   -223.758553
 0.070000   92.129540   -225.554743
 0.075000   90.997804   -226.874077
 0.080000   89.860799   -227.691150
 0.085000   88.720893   -228.028867
 0.090000   87.580511   -227.940048
 0.095000   86.441492   -227.534513
 0.100000   85.305166   -226.837557
 0.105000   84.173117   -225.809283
 0.110000   83.047073   -224.537200
 0.115000   81.927745   -223.107058
 0.120000   80.816002   -221.442439
 0.125000   79.713320   -219.587117
 0.130000   78.620131   -217.634845
 0.135000   77.536972   -215.557260
 0.140000   76.464558   -213.393122
 0.145000   75.403041   -211.117152
 0.150000   74.353387   -208.674824
 0.155000   73.316292   -206.114548
 0.160000   72.292241   -203.466718
 0.165000   71.281625   -200.740182
 0.170000   70.284840   -197.861488
 0.175000   69.303010   -194.926379
 0.180000   68.335576   -192.031437
 0.185000   67.382696   -189.109990
 0.190000   66.444476   -186.171668
 0.195000   65.520979   -183.232355
 0.200000   64.612152   -180.313807
 0.205000   63.717841   -177.426580
 0.210000   62.837887   -174.573897
 0.215000   61.972102   -171.721411
 0.220000   61.120672   -168.772065
 0.225000   60.284382   -165.878657
 0.230000   59.461886   -163.167288
 0.235000   58.652709   -160.533737
 0.240000   57.856549   -157.941414
 0.245000   57.073295   -155.362928
 0.250000   56.302919   -152.655541
 0.255000   55.546739   -149.905154
 0.260000   54.803868   -147.282450
 0.265000   54.073915   -144.700445
 0.270000   53.356863   -142.124442
 0.275000   52.652670   -139.534484
 0.280000   51.961518   -136.820550
 0.285000   51.284465   -134.132447
 0.290000   50.620194   -131.584437
 0.295000   49.968620   -129.053463
 0.300000   49.329659   -126.530494
 0.305000   48.703315   -123.930852
 0.310000   48.090351   -121.413344
 0.315000   47.489182   -119.086015
 0.320000   46.899491   -116.837419
 0.325000   46.320808   -114.634987
 0.330000   45.753141   -112.461147
 0.335000   45.196196   -110.409290
 0.340000   44.649048   -108.478907
 0.345000   44.111407   -106.621141
 0.350000   43.582836   -104.767921
 0.355000   43.063728   -102.950050
 0.360000   42.553336   -101.245467
 0.365000   42.051273   -99.596138
 0.370000   41.557375   -97.955811
 0.375000   41.071715   -96.304230
 0.380000   40.594332   -94.664031
 0.385000   40.125075   -93.026380
 0.390000   39.664068   -91.370917
 0.395000   39.211366   -89.668935
 0.400000   38.767379   -87.979295
 0.405000   38.331573   -86.328820
 0.410000   37.904091   -84.683861
 0.415000   37.484734   -83.070230
 0.420000   37.073389   -81.516672
 0.425000   36.669568   -80.055152
 0.430000   36.272837   -78.671090
 0.435000   35.882857   -77.329664
 0.440000   35.499540   -76.034231
 0.445000   35.122514   -74.836581
 0.450000   34.751175   -73.728998
 0.455000   34.385224   -72.669864
 0.460000   34.024476   -71.647920
 0.465000   33.668745   -70.701281
 0.470000   33.317463   -69.844012
 0.475000   32.970305   -69.040054
 0.480000   32.627063   -68.248395
 0.485000   32.287821   -67.486329
 0.490000   31.952199   -66.767850
 0.495000   31.620143   -66.057283
 0.500000   31.291627   -65.330957
 0.505000   30.966833   -64.598249
 0.510000   30.645644   -63.885363
 0.515000   30.327979   -63.183682
 0.520000   30.013807   -62.480208
 0.525000   29.703177   -61.771294
 0.530000   29.396094   -61.070611
 0.535000   29.092471   -60.389607
 0.540000   28.792198   -59.722905
 0.545000   28.495242   -59.052482
 0.550000   28.201673   -58.395815
 0.555000   27.911284   -57.765384
 0.560000   27.624020   -57.141870
 0.565000   27.339865   -56.526890
 0.570000   27.058751   -55.931626
 0.575000   26.780549   -55.362995
 0.580000   26.505121   -54.817360
 0.585000   26.232375   -54.287732
 0.590000   25.962243   -53.772465
 0.595000   25.694651   -53.289323
 0.600000   25.429350   -52.842939
 0.605000   25.166221   -52.420152
 0.610000   24.905149   -52.015349
 0.615000   24.646068   -51.632809
 0.620000   24.388821   -51.292853
 0.625000   24.133139   -50.979245
 0.630000   23.879028   -50.670556
 0.635000   23.626434   -50.372095
 0.640000   23.375307   -50.084936
 0.645000   23.125584   -49.807406
 0.650000   22.877233   -49.544847
 0.655000   22.630136   -49.287060
 0.660000   22.384362   -49.026428
 0.665000   22.139872   -48.770679
 0.670000   21.896656   -48.512908
 0.675000   21.654743   -48.244543
 0.680000   21.414210   -47.952658
 0.685000   21.175216   -47.615959
 0.690000   20.938051   -47.224979
 0.695000   20.702966   -46.784942
 0.700000   20.470201   -46.301965
 0.705000   20.239947   -45.783698
 0.710000   20.012364   -45.219114
 0.715000   19.787755   -44.625789
 0.720000   19.566106   -44.036412
 0.725000   19.347391   -43.455546
 0.730000   19.131551   -42.892797
 0.735000   18.918463   -42.359980
 0.740000   18.707951   -41.858066
 0.745000   18.499883   -41.407680
 0.750000   18.293874   -41.032968
 0.755000   18.089553   -40.727338
 0.760000   17.886601   -40.483954
 0.765000   17.684713   -40.297973
 0.770000   17.483621   -40.165840
 0.775000   17.283055   -40.075365
 0.780000   17.082868   -39.989590
 0.785000   16.883159   -39.886854
 0.790000   16.683999   -39.767846
 0.795000   16.485481   -39.629459
 0.800000   16.287704   -39.473649
 0.805000   16.090744   -39.309404
 0.810000   15.894610   -39.145620
 0.815000   15.699288   -38.990000
 0.820000   15.504710   -38.858085
 0.825000   15.310707   -38.756403
 0.830000   15.117146   -38.684413
 0.835000   14.923863   -38.647976
 0.840000   14.730667   -38.613209
 0.845000   14.537731   -38.559311
 0.850000   14.345073   -38.504807
 0.855000   14.152683   -38.457636
 0.860000   13.960497   -38.424479
 0.865000   13.768438   -38.445289
 0.870000   13.576044   -38.511092
 0.875000   13.383327   -38.597181
 0.880000   13.190072   -38.729292
 0.885000   12.996034   -38.915370
 0.890000   12.800919   -39.169118
 0.895000   12.604343   -39.578091
 0.900000   12.405138   -40.159857
 0.905000   12.202744   -40.919575
 0.910000   11.995942   -41.968003
 0.915000   11.783064   -43.428550
 0.920000   11.561657   -45.517503
 0.925000   11.327889   -48.730890
 0.930000   11.074348   -53.536053
 0.935000   10.792529   -60.785261
 0.940000   10.466495   -72.436488
 0.945000   10.068164   -91.762966
 0.950000   9.548865   -123.804296
 0.955000   8.830121   -173.967881
 0.960000   7.809187   -240.618175
 0.965000   6.423939   -300.757786
 0.970000   4.801609   -311.144878
 0.975000   3.312491   -254.123481
 0.980000   2.260374   -168.018306
 0.985000   1.632307   -99.311503
 0.990000   1.267259   -59.314735
 0.995000   1.039160   -39.087676
 1.000000   0.876382   -26.023510
201 psinorm omeg(kRad/s) domeg/dpsiN
 0.000000   66.532002   0.031278
 0.005000   66.531647   -0.173446
 0.010000   66.530268   -0.432058
 0.015000   66.527326   -0.812786
 0.020000   66.522140   -1.341206
 0.025000   66.513914   -2.037173
 0.030000   66.501768   -2.913484
 0.035000   66.484779   -3.972729
 0.040000   66.462041   -5.191899
 0.045000   66.432860   -6.542646
 0.050000   66.396614   -7.998452
 0.055000   66.352876   -9.517609
 0.060000   66.301438   -11.057351
 0.065000   66.242302   -12.580029
 0.070000   66.175638   -14.010765
 0.075000   66.102194   -15.369280
 0.080000   66.021945   -16.722493
 0.085000   65.934969   -18.058391
 0.090000   65.841361   -19.388300
 0.095000   65.741086   -20.737653
 0.100000   65.633985   -22.103721
 0.105000   65.520049   -23.505629
 0.110000   65.398928   -24.959221
 0.115000   65.270457   -26.435104
 0.120000   65.134577   -27.921577
 0.125000   64.991241   -29.414734
 0.130000   64.840430   -30.888458
 0.135000   64.682357   -32.338047
 0.140000   64.517049   -33.793799
 0.145000   64.344419   -35.258989
 0.150000   64.164460   -36.725551
 0.155000   63.977163   -38.192397
 0.160000   63.782536   -39.645235
 0.165000   63.580711   -41.080981
 0.170000   63.371726   -42.521645
 0.175000   63.155494   -43.972651
 0.180000   62.931999   -45.430396
 0.185000   62.701190   -46.899809
 0.190000   62.463001   -48.379657
 0.195000   62.217394   -49.834669
 0.200000   61.964654   -51.205665
 0.205000   61.705337   -52.456524
 0.210000   61.440089   -53.571226
 0.215000   61.169625   -54.538613
 0.220000   60.894703   -55.331551
 0.225000   60.616309   -55.904637
 0.230000   60.335657   -56.330747
 0.235000   60.053002   -56.664870
 0.240000   59.769008   -56.863831
 0.245000   59.484364   -56.921516
 0.250000   59.199793   -56.810036
 0.255000   58.916263   -56.463873
 0.260000   58.635154   -56.036007
 0.265000   58.355903   -55.649217
 0.270000   58.078662   -55.246895
 0.275000   57.803434   -54.858365
 0.280000   57.530078   -54.509483
 0.285000   57.258339   -54.223212
 0.290000   56.987846   -54.094331
 0.295000   56.717396   -54.146289
 0.300000   56.446383   -54.304802
 0.305000   56.174348   -54.534698
 0.310000   55.901036   -54.789556
 0.315000   55.626453   -55.051505
 0.320000   55.350521   -55.256852
 0.325000   55.073884   -55.363112
 0.330000   54.796890   -55.397210
 0.335000   54.519912   -55.354122
 0.340000   54.243349   -55.228887
 0.345000   53.967623   -55.010738
 0.350000   53.693242   -54.687662
 0.355000   53.420746   -54.266769
 0.360000   53.150574   -53.760489
 0.365000   52.883142   -53.172653
 0.370000   52.618847   -52.507403
 0.375000   52.358068   -51.735795
 0.380000   52.101489   -50.875520
 0.385000   51.849312   -49.977730
 0.390000   51.601712   -49.042229
 0.395000   51.358890   -48.072379
 0.400000   51.120988   -47.080277
 0.405000   50.888087   -46.052457
 0.410000   50.660464   -45.076062
 0.415000   50.437327   -44.331939
 0.420000   50.217144   -43.920084
 0.425000   49.998126   -43.879265
 0.430000   49.778352   -44.215153
 0.435000   49.555974   -45.029164
 0.440000   49.328060   -46.275173
 0.445000   49.093223   -47.627988
 0.450000   48.851780   -48.970437
 0.455000   48.603518   -50.322155
 0.460000   48.348559   -51.616395
 0.465000   48.087354   -52.907714
 0.470000   47.819481   -54.111482
 0.475000   47.546239   -54.877781
 0.480000   47.270704   -55.164996
 0.485000   46.994589   -55.102940
 0.490000   46.719674   -54.686621
 0.495000   46.447723   -53.937319
 0.500000   46.180301   -52.843636
 0.505000   45.919287   -51.448077
 0.510000   45.665820   -49.922583
 0.515000   45.420061   -48.391381
 0.520000   45.181906   -46.899457
 0.525000   44.951066   -45.467653
 0.530000   44.727230   -44.092380
 0.535000   44.510143   -42.837416
 0.540000   44.298856   -41.755703
 0.545000   44.092586   -40.837253
 0.550000   43.890483   -40.093618
 0.555000   43.691649   -39.526628
 0.560000   43.495217   -39.118489
 0.565000   43.300465   -38.931505
 0.570000   43.105902   -39.002619
 0.575000   42.910438   -39.294394
 0.580000   42.712958   -39.811929
 0.585000   42.512319   -40.560563
 0.590000   42.307352   -41.542678
 0.595000   42.096892   -42.722771
 0.600000   41.880125   -44.039624
 0.605000   41.656496   -45.457208
 0.610000   41.425553   -46.956480
 0.615000   41.186931   -48.520368
 0.620000   40.940349   -50.098021
 0.625000   40.685951   -51.696656
 0.630000   40.423382   -53.342546
 0.635000   40.152526   -55.005021
 0.640000   39.873332   -56.672871
 0.645000   39.585797   -58.338666
 0.650000   39.289945   -59.972039
 0.655000   38.986077   -61.639827
 0.660000   38.673547   -63.421374
 0.665000   38.351863   -65.301018
 0.670000   38.020537   -67.281287
 0.675000   37.679050   -69.363265
 0.680000   37.326904   -71.560267
 0.685000   36.963447   -73.695828
 0.690000   36.589946   -75.531766
 0.695000   36.208130   -77.048727
 0.700000   35.819459   -78.288649
 0.705000   35.425243   -79.285042
 0.710000   35.026608   -80.040841
 0.715000   34.624835   -80.569183
 0.720000   34.220917   -80.908937
 0.725000   33.815745   -81.062344
 0.730000   33.410293   -81.025154
 0.735000   33.005494   -80.805919
 0.740000   32.602234   -80.404834
 0.745000   32.201445   -79.857302
 0.750000   31.803661   -79.261967
 0.755000   31.408826   -78.734883
 0.760000   31.016312   -78.375413
 0.765000   30.625072   -78.240532
 0.770000   30.233907   -78.421266
 0.775000   29.840859   -78.829259
 0.780000   29.445614   -78.995191
 0.785000   29.050907   -78.706783
 0.790000   28.658546   -78.047971
 0.795000   28.270427   -77.019488
 0.800000   27.888351   -75.698842
 0.805000   27.513439   -74.243756
 0.810000   27.145914   -72.714059
 0.815000   26.786298   -71.188715
 0.820000   26.434027   -69.797362
 0.825000   26.088325   -68.586526
 0.830000   25.748161   -67.650370
 0.835000   25.411821   -67.116062
 0.840000   25.077001   -66.878353
 0.845000   24.743037   -66.976081
 0.850000   24.407240   -67.721249
 0.855000   24.065825   -69.344273
 0.860000   23.713797   -72.140132
 0.865000   23.344424   -76.645547
 0.870000   22.947342   -82.900415
 0.875000   22.515420   -90.798625
 0.880000   22.039356   -100.614726
 0.885000   21.509272   -112.432599
 0.890000   20.915030   -126.267301
 0.895000   20.246599   -142.522496
 0.900000   19.489805   -160.343698
 0.905000   18.643162   -178.624429
 0.910000   17.703560   -197.107149
 0.915000   16.672091   -214.871805
 0.920000   15.554842   -230.875026
 0.925000   14.363341   -244.220834
 0.930000   13.112634   -253.285899
 0.935000   11.830482   -256.775439
 0.940000   10.544880   -254.535567
 0.945000   9.285126   -246.550212
 0.950000   8.079377   -233.300696
 0.955000   6.952119   -215.088852
 0.960000   5.928489   -193.555124
 0.965000   5.016568   -170.978281
 0.970000   4.218706   -148.380753
 0.975000   3.532760   -126.627438
 0.980000   2.952432   -106.401980
 0.985000   2.468740   -87.752403
 0.990000   2.074908   -71.166020
 0.995000   1.757080   -57.209224
 1.000000   1.502815   -44.496639
201 psinorm omegp(kRad/s) domegp/dpsiN
 0.000000   -0.002828   142.471016
 0.005000   0.556311   81.184784
 0.010000   0.809020   46.549517
 0.015000   1.021807   40.721816
 0.020000   1.216238   37.740232
 0.025000   1.399209   35.288882
 0.030000   1.569127   32.812037
 0.035000   1.727329   30.842213
 0.040000   1.877549   29.186705
 0.045000   2.019196   27.760634
 0.050000   2.155155   26.706166
 0.055000   2.286258   26.065649
 0.060000   2.415812   25.849197
 0.065000   2.544750   25.758100
 0.070000   2.673393   25.699598
 0.075000   2.801746   25.600389
 0.080000   2.929397   25.401082
 0.085000   3.055757   24.945647
 0.090000   3.178853   24.225918
 0.095000   3.298016   23.403651
 0.100000   3.412890   22.609266
 0.105000   3.524109   21.922977
 0.110000   3.632119   21.393346
 0.115000   3.738042   21.106398
 0.120000   3.843183   21.041519
 0.125000   3.948457   21.145960
 0.130000   4.054643   21.316990
 0.135000   4.161627   21.467764
 0.140000   4.269321   21.473209
 0.145000   4.376359   21.174805
 0.150000   4.481069   20.582411
 0.155000   4.582183   19.527575
 0.160000   4.676344   18.222334
 0.165000   4.764407   16.763237
 0.170000   4.843977   14.997881
 0.175000   4.914385   13.015124
 0.180000   4.974128   10.905899
 0.185000   5.023444   8.929861
 0.190000   5.063427   7.018432
 0.195000   5.093629   5.300893
 0.200000   5.116435   3.737196
 0.205000   5.131001   2.284048
 0.210000   5.139276   1.192810
 0.215000   5.142929   0.205940
 0.220000   5.141335   -0.797992
 0.225000   5.134949   -1.815643
 0.230000   5.123179   -2.977206
 0.235000   5.105177   -4.099686
 0.240000   5.082182   -5.299609
 0.245000   5.052181   -6.640139
 0.250000   5.015781   -7.871034
 0.255000   4.973470   -9.180860
 0.260000   4.923972   -10.502735
 0.265000   4.868443   -11.727046
 0.270000   4.806702   -13.076828
 0.275000   4.737675   -14.495729
 0.280000   4.661744   -16.031593
 0.285000   4.577359   -17.844932
 0.290000   4.483295   -19.763903
 0.295000   4.379720   -21.909151
 0.300000   4.264204   -24.330449
 0.305000   4.136415   -26.764277
 0.310000   3.996561   -29.313646
 0.315000   3.843279   -32.010773
 0.320000   3.676453   -34.566210
 0.325000   3.497617   -36.890301
 0.330000   3.307550   -38.846160
 0.335000   3.109155   -40.236163
 0.340000   2.905188   -41.141722
 0.345000   2.697738   -41.634874
 0.350000   2.488840   -41.605373
 0.355000   2.281684   -41.445678
 0.360000   2.074383   -41.668939
 0.365000   1.864995   -42.148357
 0.370000   1.652899   -42.977908
 0.375000   1.435216   -44.299624
 0.380000   1.209903   -46.301958
 0.385000   0.972196   -48.761073
 0.390000   0.722292   -51.083509
 0.395000   0.461361   -53.090386
 0.400000   0.191388   -54.733789
 0.405000   -0.085977   -55.885055
 0.410000   -0.367462   -56.473144
 0.415000   -0.650708   -57.124934
 0.420000   -0.938711   -58.548160
 0.425000   -1.236190   -60.988947
 0.430000   -1.548601   -64.536507
 0.435000   -1.881555   -69.307064
 0.440000   -2.241672   -75.638356
 0.445000   -2.637938   -82.565460
 0.450000   -3.067326   -89.083060
 0.455000   -3.528769   -95.158961
 0.460000   -4.018916   -100.319532
 0.465000   -4.531964   -104.173010
 0.470000   -5.060646   -105.693728
 0.475000   -5.588902   -103.910255
 0.480000   -6.099748   -99.336164
 0.485000   -6.582263   -92.661232
 0.490000   -7.026361   -84.208664
 0.495000   -7.424350   -74.179647
 0.500000   -7.768157   -63.325040
 0.505000   -8.057600   -53.167917
 0.510000   -8.299836   -44.288334
 0.515000   -8.500484   -36.730222
 0.520000   -8.667139   -30.564260
 0.525000   -8.806126   -25.742235
 0.530000   -8.924561   -22.630141
 0.535000   -9.032428   -20.960440
 0.540000   -9.134165   -19.784799
 0.545000   -9.230276   -18.682078
 0.550000   -9.320986   -17.668736
 0.555000   -9.406963   -16.657058
 0.560000   -9.487557   -15.459973
 0.565000   -9.561563   -14.059920
 0.570000   -9.628156   -12.620345
 0.575000   -9.687766   -11.062524
 0.580000   -9.738781   -9.305116
 0.585000   -9.780817   -7.562405
 0.590000   -9.814405   -5.819408
 0.595000   -9.839011   -4.032786
 0.600000   -9.854733   -2.290653
 0.605000   -9.861918   -0.722033
 0.610000   -9.861953   0.728840
 0.615000   -9.854630   2.146957
 0.620000   -9.840484   3.380990
 0.625000   -9.820820   4.415042
 0.630000   -9.796333   5.397061
 0.635000   -9.766849   6.346214
 0.640000   -9.732871   7.149938
 0.645000   -9.695350   7.904937
 0.650000   -9.653822   8.660628
 0.655000   -9.608743   9.362625
 0.660000   -9.560196   9.993435
 0.665000   -9.508809   10.592685
 0.670000   -9.454269   11.180134
 0.675000   -9.397008   11.783687
 0.680000   -9.336432   12.500820
 0.685000   -9.272000   13.386709
 0.690000   -9.202565   14.458921
 0.695000   -9.127410   15.630074
 0.700000   -9.046264   16.979173
 0.705000   -8.957619   18.448961
 0.710000   -8.861774   19.763539
 0.715000   -8.759983   20.803084
 0.720000   -8.653744   21.526073
 0.725000   -8.544722   21.865645
 0.730000   -8.435087   21.710732
 0.735000   -8.327615   20.992972
 0.740000   -8.225157   19.790647
 0.745000   -8.129709   18.236563
 0.750000   -8.042792   16.409299
 0.755000   -7.965616   14.472760
 0.760000   -7.898064   12.491833
 0.765000   -7.840697   10.608339
 0.770000   -7.791981   9.007956
 0.775000   -7.750618   7.650336
 0.780000   -7.715477   6.492998
 0.785000   -7.685688   5.493039
 0.790000   -7.660547   4.555782
 0.795000   -7.640130   3.551918
 0.800000   -7.625028   2.382970
 0.805000   -7.616300   0.987585
 0.810000   -7.615152   -0.614996
 0.815000   -7.622450   -2.414397
 0.820000   -7.639296   -4.398473
 0.825000   -7.666435   -6.475637
 0.830000   -7.704052   -8.532364
 0.835000   -7.751759   -10.445558
 0.840000   -7.808508   -12.163617
 0.845000   -7.873395   -13.626009
 0.850000   -7.944768   -14.640589
 0.855000   -8.019801   -15.204501
 0.860000   -8.096813   -15.485626
 0.865000   -8.174657   -15.622171
 0.870000   -8.253035   -15.660538
 0.875000   -8.331262   -15.668258
 0.880000   -8.409717   -15.938505
 0.885000   -8.490647   -16.511573
 0.890000   -8.574833   -17.258586
 0.895000   -8.663233   -18.211707
 0.900000   -8.756950   -19.411515
 0.905000   -8.857348   -20.904250
 0.910000   -8.965993   -22.225956
 0.915000   -9.079608   -22.447050
 0.920000   -9.190463   -20.822581
 0.925000   -9.287834   -16.555974
 0.930000   -9.356023   -8.583198
 0.935000   -9.373666   4.680216
 0.940000   -9.309221   27.933219
 0.945000   -9.094334   60.685433
 0.950000   -8.702366   97.728130
 0.955000   -8.117052   131.329937
 0.960000   -7.389067   143.394144
 0.965000   -6.683111   104.804606
 0.970000   -6.341021   -3.494253
 0.975000   -6.718053   -133.978977
 0.980000   -7.680811   -143.633630
 0.985000   -8.154390   146.790659
 0.990000   -6.212904   761.296422
 0.995000   -0.541425   1384.891247
 1.000000   7.636008   1886.082248
201 psinorm omgvb(kRad/s) domgvb/dpsiN
 0.000000   66.529174   142.502294
 0.005000   67.087958   81.011338
 0.010000   67.339287   46.117460
 0.015000   67.549133   39.909031
 0.020000   67.738378   36.399026
 0.025000   67.913123   33.251708
 0.030000   68.070895   29.898553
 0.035000   68.212108   26.869485
 0.040000   68.339590   23.994806
 0.045000   68.452056   21.217988
 0.050000   68.551769   18.707713
 0.055000   68.639134   16.548040
 0.060000   68.717250   14.791846
 0.065000   68.787052   13.178071
 0.070000   68.849031   11.688833
 0.075000   68.903940   10.231109
 0.080000   68.951342   8.678588
 0.085000   68.990726   6.887256
 0.090000   69.020214   4.837618
 0.095000   69.039102   2.665998
 0.100000   69.046874   0.505545
 0.105000   69.044158   -1.582652
 0.110000   69.031048   -3.565875
 0.115000   69.008499   -5.328706
 0.120000   68.977761   -6.880058
 0.125000   68.939699   -8.268775
 0.130000   68.895073   -9.571468
 0.135000   68.843984   -10.870283
 0.140000   68.786370   -12.320590
 0.145000   68.720778   -14.084184
 0.150000   68.645528   -16.143139
 0.155000   68.559347   -18.664822
 0.160000   68.458880   -21.422902
 0.165000   68.345118   -24.317744
 0.170000   68.215702   -27.523764
 0.175000   68.069880   -30.957526
 0.180000   67.906127   -34.524496
 0.185000   67.724635   -37.969948
 0.190000   67.526428   -41.361226
 0.195000   67.311023   -44.533776
 0.200000   67.081090   -47.468469
 0.205000   66.836338   -50.172476
 0.210000   66.579365   -52.378415
 0.215000   66.312554   -54.332673
 0.220000   66.036038   -56.129543
 0.225000   65.751258   -57.720280
 0.230000   65.458836   -59.307953
 0.235000   65.158179   -60.764557
 0.240000   64.851190   -62.163440
 0.245000   64.536544   -63.561655
 0.250000   64.215574   -64.681071
 0.255000   63.889734   -65.644734
 0.260000   63.559126   -66.538743
 0.265000   63.224346   -67.376262
 0.270000   62.885364   -68.323723
 0.275000   62.541109   -69.354094
 0.280000   62.191823   -70.541076
 0.285000   61.835698   -72.068144
 0.290000   61.471141   -73.858234
 0.295000   61.097116   -76.055440
 0.300000   60.710587   -78.635251
 0.305000   60.310763   -81.298975
 0.310000   59.897597   -84.103202
 0.315000   59.469731   -87.062278
 0.320000   59.026974   -89.823062
 0.325000   58.571501   -92.253413
 0.330000   58.104440   -94.243370
 0.335000   57.629067   -95.590284
 0.340000   57.148537   -96.370610
 0.345000   56.665361   -96.645612
 0.350000   56.182081   -96.293036
 0.355000   55.702431   -95.712447
 0.360000   55.224957   -95.429428
 0.365000   54.748136   -95.321009
 0.370000   54.271747   -95.485311
 0.375000   53.793283   -96.035420
 0.380000   53.311392   -97.177478
 0.385000   52.821509   -98.738803
 0.390000   52.324004   -100.125739
 0.395000   51.820251   -101.162765
 0.400000   51.312377   -101.814066
 0.405000   50.802110   -101.937513
 0.410000   50.293002   -101.549206
 0.415000   49.786618   -101.456873
 0.420000   49.278433   -102.468244
 0.425000   48.761936   -104.868211
 0.430000   48.229751   -108.751660
 0.435000   47.674419   -114.336227
 0.440000   47.086388   -121.913529
 0.445000   46.455284   -130.193448
 0.450000   45.784454   -138.053497
 0.455000   45.074749   -145.481116
 0.460000   44.329643   -151.935927
 0.465000   43.555390   -157.080724
 0.470000   42.758836   -159.805210
 0.475000   41.957338   -158.788036
 0.480000   41.170955   -154.501160
 0.485000   40.412326   -147.764173
 0.490000   39.693314   -138.895284
 0.495000   39.023373   -128.116966
 0.500000   38.412144   -116.168676
 0.505000   37.861687   -104.615994
 0.510000   37.365984   -94.210918
 0.515000   36.919577   -85.121603
 0.520000   36.514768   -77.463717
 0.525000   36.144940   -71.209888
 0.530000   35.802669   -66.722521
 0.535000   35.477715   -63.797856
 0.540000   35.164690   -61.540501
 0.545000   34.862310   -59.519331
 0.550000   34.569497   -57.762354
 0.555000   34.284686   -56.183686
 0.560000   34.007660   -54.578462
 0.565000   33.738902   -52.991426
 0.570000   33.477746   -51.622964
 0.575000   33.222672   -50.356918
 0.580000   32.974177   -49.117045
 0.585000   32.731502   -48.122968
 0.590000   32.492947   -47.362085
 0.595000   32.257881   -46.755557
 0.600000   32.025392   -46.330277
 0.605000   31.794578   -46.179241
 0.610000   31.563599   -46.227640
 0.615000   31.332302   -46.373411
 0.620000   31.099865   -46.717031
 0.625000   30.865131   -47.281614
 0.630000   30.627049   -47.945486
 0.635000   30.385677   -48.658807
 0.640000   30.140461   -49.522933
 0.645000   29.890447   -50.433728
 0.650000   29.636124   -51.311411
 0.655000   29.377333   -52.277202
 0.660000   29.113352   -53.427938
 0.665000   28.843054   -54.708333
 0.670000   28.566268   -56.101154
 0.675000   28.282042   -57.579578
 0.680000   27.990472   -59.059447
 0.685000   27.691448   -60.309119
 0.690000   27.387381   -61.072845
 0.695000   27.080719   -61.418652
 0.700000   26.773195   -61.309477
 0.705000   26.467625   -60.836081
 0.710000   26.164834   -60.277302
 0.715000   25.864851   -59.766099
 0.720000   25.567173   -59.382864
 0.725000   25.271023   -59.196699
 0.730000   24.975206   -59.314423
 0.735000   24.677879   -59.812946
 0.740000   24.377076   -60.614187
 0.745000   24.071737   -61.620739
 0.750000   23.760869   -62.852668
 0.755000   23.443210   -64.262122
 0.760000   23.118248   -65.883581
 0.765000   22.784374   -67.632193
 0.770000   22.441926   -69.413310
 0.775000   22.090241   -71.178924
 0.780000   21.730137   -72.502193
 0.785000   21.365219   -73.213744
 0.790000   20.997999   -73.492189
 0.795000   20.630297   -73.467570
 0.800000   20.263324   -73.315872
 0.805000   19.897139   -73.256170
 0.810000   19.530762   -73.329055
 0.815000   19.163848   -73.603112
 0.820000   18.794731   -74.195835
 0.825000   18.421890   -75.062164
 0.830000   18.044109   -76.182734
 0.835000   17.660062   -77.561620
 0.840000   17.268493   -79.041970
 0.845000   16.869643   -80.602090
 0.850000   16.462472   -82.361837
 0.855000   16.046024   -84.548774
 0.860000   15.616984   -87.625758
 0.865000   15.169767   -92.267718
 0.870000   14.694307   -98.560953
 0.875000   14.184157   -106.466882
 0.880000   13.629638   -116.553231
 0.885000   13.018625   -128.944173
 0.890000   12.340197   -143.525887
 0.895000   11.583366   -160.734203
 0.900000   10.732854   -179.755213
 0.905000   9.785814   -199.528679
 0.910000   8.737568   -219.333104
 0.915000   7.592483   -237.318855
 0.920000   6.364379   -251.697607
 0.925000   5.075507   -260.776808
 0.930000   3.756611   -261.869097
 0.935000   2.456816   -252.095222
 0.940000   1.235659   -226.602348
 0.945000   0.190792   -185.864780
 0.950000   -0.622989   -135.572566
 0.955000   -1.164933   -83.758914
 0.960000   -1.460578   -50.160980
 0.965000   -1.666543   -66.173676
 0.970000   -2.122315   -151.875006
 0.975000   -3.185293   -260.606415
 0.980000   -4.728379   -250.035610
 0.985000   -5.685649   59.038256
 0.990000   -4.137996   690.130402
 0.995000   1.215655   1327.682024
 1.000000   9.138824   1841.585609
201 psinorm omgpp(kRad/s) domgpp/dpsiN
 0.000000   -0.053183   -26.354099
 0.005000   -0.214629   -38.224475
 0.010000   -0.435428   -44.781600
 0.015000   -0.662445   -45.944486
 0.020000   -0.894873   -46.919304
 0.025000   -1.131639   -47.661740
 0.030000   -1.371490   -48.184323
 0.035000   -1.613482   -48.482125
 0.040000   -1.856311   -48.528736
 0.045000   -2.098769   -48.339615
 0.050000   -2.339707   -47.878665
 0.055000   -2.577556   -47.171996
 0.060000   -2.811427   -46.502005
 0.065000   -3.042576   -45.848864
 0.070000   -3.269916   -45.051677
 0.075000   -3.493093   -44.171806
 0.080000   -3.711634   -43.156988
 0.085000   -3.924662   -41.999392
 0.090000   -4.131628   -40.872356
 0.095000   -4.333386   -39.711476
 0.100000   -4.528743   -38.393117
 0.105000   -4.717317   -36.996038
 0.110000   -4.898703   -35.517096
 0.115000   -5.072488   -33.951442
 0.120000   -5.238218   -32.278040
 0.125000   -5.395269   -30.432316
 0.130000   -5.542541   -28.421459
 0.135000   -5.679483   -26.311695
 0.140000   -5.805658   -24.123947
 0.145000   -5.920723   -21.747507
 0.150000   -6.023133   -19.441707
 0.155000   -6.115140   -17.256693
 0.160000   -6.195700   -14.970832
 0.165000   -6.264848   -12.701597
 0.170000   -6.322716   -10.464696
 0.175000   -6.369495   -8.108888
 0.180000   -6.403805   -5.989625
 0.185000   -6.429391   -4.157687
 0.190000   -6.445381   -2.327659
 0.195000   -6.452668   -0.698040
 0.200000   -6.452362   0.700760
 0.205000   -6.445660   1.680264
 0.210000   -6.435559   2.444577
 0.215000   -6.421214   3.344144
 0.220000   -6.402118   4.276656
 0.225000   -6.378448   5.208595
 0.230000   -6.350032   6.191504
 0.235000   -6.316533   6.818781
 0.240000   -6.281844   8.103950
 0.245000   -6.235493   10.526493
 0.250000   -6.176579   12.869136
 0.255000   -6.106802   15.005577
 0.260000   -6.026523   17.044349
 0.265000   -5.936358   18.954450
 0.270000   -5.836979   20.989972
 0.275000   -5.726459   23.035465
 0.280000   -5.606624   24.774189
 0.285000   -5.478717   26.308495
 0.290000   -5.343539   27.670313
 0.295000   -5.202014   29.027651
 0.300000   -5.053263   30.035943
 0.305000   -4.901654   30.117952
 0.310000   -4.752083   29.729531
 0.315000   -4.604359   29.272096
 0.320000   -4.459362   28.675415
 0.325000   -4.317605   27.935514
 0.330000   -4.180007   27.015032
 0.335000   -4.047455   26.273112
 0.340000   -3.917276   25.804984
 0.345000   -3.789405   25.384147
 0.350000   -3.663434   25.043589
 0.355000   -3.538969   24.633611
 0.360000   -3.417098   24.117066
 0.365000   -3.297798   24.194273
 0.370000   -3.175156   24.764152
 0.375000   -3.050157   25.337743
 0.380000   -2.921778   26.041127
 0.385000   -2.789745   26.787456
 0.390000   -2.653904   27.734507
 0.395000   -2.512400   28.127292
 0.400000   -2.372631   27.748825
 0.405000   -2.234912   27.164949
 0.410000   -2.100981   26.226462
 0.415000   -1.972647   24.981209
 0.420000   -1.851169   23.683733
 0.425000   -1.735810   21.466499
 0.430000   -1.636504   18.932225
 0.435000   -1.546488   17.143688
 0.440000   -1.465067   15.478232
 0.445000   -1.391706   13.905810
 0.450000   -1.326009   12.484996
 0.455000   -1.266856   10.846720
 0.460000   -1.217542   9.106198
 0.465000   -1.175794   7.577785
 0.470000   -1.141764   6.035783
 0.475000   -1.115436   4.515190
 0.480000   -1.096612   2.945210
 0.485000   -1.085984   1.912043
 0.490000   -1.077492   1.415578
 0.495000   -1.071828   0.830944
 0.500000   -1.069182   0.221131
 0.505000   -1.069617   -0.404718
 0.510000   -1.073230   -0.943511
 0.515000   -1.079052   -1.470315
 0.520000   -1.087933   -2.076372
 0.525000   -1.099815   -2.637119
 0.530000   -1.114304   -3.138122
 0.535000   -1.131197   -3.604297
 0.540000   -1.150347   -3.840662
 0.545000   -1.169603   -4.185064
 0.550000   -1.192197   -4.857829
 0.555000   -1.218182   -5.463508
 0.560000   -1.246833   -6.011268
 0.565000   -1.278294   -6.590308
 0.570000   -1.312736   -7.120662
 0.575000   -1.349501   -7.804457
 0.580000   -1.390780   -8.661741
 0.585000   -1.436118   -9.372470
 0.590000   -1.484505   -9.960320
 0.595000   -1.535721   -10.504401
 0.600000   -1.589549   -11.089750
 0.605000   -1.646619   -11.717856
 0.610000   -1.706727   -12.143486
 0.615000   -1.768054   -12.405970
 0.620000   -1.830787   -12.650541
 0.625000   -1.894559   -12.820533
 0.630000   -1.958993   -13.060516
 0.635000   -2.025164   -13.299151
 0.640000   -2.091984   -13.036268
 0.645000   -2.155527   -12.573992
 0.650000   -2.217724   -12.311066
 0.655000   -2.278638   -12.066154
 0.660000   -2.338385   -11.973048
 0.665000   -2.398368   -12.254382
 0.670000   -2.460929   -12.677011
 0.675000   -2.525138   -13.616610
 0.680000   -2.597095   -15.287458
 0.685000   -2.678013   -17.104090
 0.690000   -2.768136   -19.193111
 0.695000   -2.869944   -22.209852
 0.700000   -2.990235   -22.980547
 0.705000   -3.099749   -21.834704
 0.710000   -3.208582   -21.433122
 0.715000   -3.314081   -20.438599
 0.720000   -3.412968   -18.835988
 0.725000   -3.502441   -16.905948
 0.730000   -3.582027   -12.250408
 0.735000   -3.624945   -5.966176
 0.740000   -3.641689   -0.506079
 0.745000   -3.630005   5.281800
 0.750000   -3.588871   11.117741
 0.755000   -3.518828   18.189978
 0.760000   -3.406971   23.547094
 0.765000   -3.283357   26.056214
 0.770000   -3.146409   28.184802
 0.775000   -3.001509   29.251994
 0.780000   -2.853889   29.324320
 0.785000   -2.708266   29.619611
 0.790000   -2.557693   27.633055
 0.795000   -2.431935   23.654214
 0.800000   -2.321151   20.668333
 0.805000   -2.225252   17.666342
 0.810000   -2.144488   14.722259
 0.815000   -2.078029   11.852456
 0.820000   -2.025963   9.746205
 0.825000   -1.980567   8.614568
 0.830000   -1.939817   7.648430
 0.835000   -1.904083   6.673012
 0.840000   -1.873087   5.742622
 0.845000   -1.846657   4.453856
 0.850000   -1.828549   3.128030
 0.855000   -1.815376   1.867104
 0.860000   -1.809878   0.012346
 0.865000   -1.815253   -2.320490
 0.870000   -1.833083   -4.963535
 0.875000   -1.864888   -8.640569
 0.880000   -1.919488   -12.706613
 0.885000   -1.991955   -16.016762
 0.890000   -2.079656   -20.115560
 0.895000   -2.193110   -25.930068
 0.900000   -2.338957   -33.224095
 0.905000   -2.525351   -44.146125
 0.910000   -2.780418   -59.414946
 0.915000   -3.119501   -76.133511
 0.920000   -3.541753   -97.873085
 0.925000   -4.098231   -129.565907
 0.930000   -4.837412   -172.611417
 0.935000   -5.824346   -235.817295
 0.940000   -7.195585   -323.557134
 0.945000   -9.059917   -412.641398
 0.950000   -11.321999   -497.945904
 0.955000   -14.039376   -576.902993
 0.960000   -17.091029   -616.785704
 0.965000   -20.207233   -593.860621
 0.970000   -23.029635   -481.786712
 0.975000   -25.025100   -252.852249
 0.980000   -25.558157   29.554351
 0.985000   -24.729557   281.299046
 0.990000   -22.745167   471.759346
 0.995000   -20.011963   573.748395
 1.000000   -17.007683   627.963620
201 psinorm omgeb(kRad/s) domgeb/dpsiN
 0.000000   66.475991   116.148195
 0.005000   66.873328   42.786863
 0.010000   66.903859   1.335860
 0.015000   66.886687   -6.035455
 0.020000   66.843505   -10.520279
 0.025000   66.781484   -14.410032
 0.030000   66.699405   -18.285770
 0.035000   66.598627   -21.612641
 0.040000   66.483278   -24.533930
 0.045000   66.353287   -27.121627
 0.050000   66.212062   -29.170952
 0.055000   66.061578   -30.623956
 0.060000   65.905822   -31.710159
 0.065000   65.744476   -32.670793
 0.070000   65.579114   -33.362843
 0.075000   65.410848   -33.940697
 0.080000   65.239707   -34.478399
 0.085000   65.066064   -35.112136
 0.090000   64.888586   -36.034738
 0.095000   64.705716   -37.045479
 0.100000   64.518131   -37.887572
 0.105000   64.326841   -38.578689
 0.110000   64.132344   -39.082971
 0.115000   63.936011   -39.280148
 0.120000   63.739543   -39.158098
 0.125000   63.544430   -38.701091
 0.130000   63.352532   -37.992927
 0.135000   63.164501   -37.181978
 0.140000   62.980712   -36.444537
 0.145000   62.800055   -35.831692
 0.150000   62.622395   -35.584846
 0.155000   62.444207   -35.921515
 0.160000   62.263180   -36.393733
 0.165000   62.080270   -37.019341
 0.170000   61.892987   -37.988460
 0.175000   61.700385   -39.066415
 0.180000   61.502323   -40.514122
 0.185000   61.295244   -42.127635
 0.190000   61.081046   -43.688885
 0.195000   60.858355   -45.231816
 0.200000   60.628728   -46.767709
 0.205000   60.390678   -48.492211
 0.210000   60.143806   -49.933839
 0.215000   59.891339   -50.988529
 0.220000   59.633921   -51.852886
 0.225000   59.372811   -52.511685
 0.230000   59.108804   -53.116449
 0.235000   58.841646   -53.945776
 0.240000   58.569346   -54.059491
 0.245000   58.301051   -53.035163
 0.250000   58.038994   -51.811934
 0.255000   57.782932   -50.639156
 0.260000   57.532603   -49.494393
 0.265000   57.287988   -48.421812
 0.270000   57.048385   -47.333750
 0.275000   56.814650   -46.318630
 0.280000   56.585199   -45.766887
 0.285000   56.356981   -45.759649
 0.290000   56.127602   -46.187921
 0.295000   55.895102   -47.027789
 0.300000   55.657324   -48.599308
 0.305000   55.409109   -51.181023
 0.310000   55.145514   -54.373671
 0.315000   54.865372   -57.790181
 0.320000   54.567612   -61.147646
 0.325000   54.253896   -64.317899
 0.330000   53.924433   -67.228338
 0.335000   53.581613   -69.317173
 0.340000   53.231261   -70.565626
 0.345000   52.875956   -71.261465
 0.350000   52.518647   -71.249447
 0.355000   52.163462   -71.078835
 0.360000   51.807858   -71.312362
 0.365000   51.450338   -71.126736
 0.370000   51.096591   -70.721159
 0.375000   50.743127   -70.697677
 0.380000   50.389614   -71.136351
 0.385000   50.031763   -71.951347
 0.390000   49.670101   -72.391231
 0.395000   49.307851   -73.035473
 0.400000   48.939746   -74.065242
 0.405000   48.567198   -74.772563
 0.410000   48.192020   -75.322744
 0.415000   47.813971   -76.475665
 0.420000   47.427264   -78.784511
 0.425000   47.026126   -83.401713
 0.430000   46.593247   -89.819435
 0.435000   46.127932   -97.192539
 0.440000   45.621321   -106.435297
 0.445000   45.063579   -116.287638
 0.450000   44.458445   -125.568501
 0.455000   43.807894   -134.634396
 0.460000   43.112101   -142.829729
 0.465000   42.379596   -149.502939
 0.470000   41.617072   -153.769427
 0.475000   40.841902   -154.272846
 0.480000   40.074343   -151.555950
 0.485000   39.326343   -145.852130
 0.490000   38.615822   -137.479707
 0.495000   37.951545   -127.286023
 0.500000   37.342962   -115.947545
 0.505000   36.792070   -105.020713
 0.510000   36.292754   -95.154429
 0.515000   35.840526   -86.591917
 0.520000   35.426835   -79.540088
 0.525000   35.045125   -73.847007
 0.530000   34.688365   -69.860643
 0.535000   34.346518   -67.402153
 0.540000   34.014344   -65.381163
 0.545000   33.692707   -63.704394
 0.550000   33.377300   -62.620183
 0.555000   33.066505   -61.647194
 0.560000   32.760828   -60.589730
 0.565000   32.460608   -59.581734
 0.570000   32.165010   -58.743626
 0.575000   31.873171   -58.161375
 0.580000   31.583397   -57.778786
 0.585000   31.295384   -57.495438
 0.590000   31.008442   -57.322405
 0.595000   30.722159   -57.259958
 0.600000   30.435843   -57.420027
 0.605000   30.147959   -57.897097
 0.610000   29.856872   -58.371126
 0.615000   29.564248   -58.779381
 0.620000   29.269078   -59.367572
 0.625000   28.970572   -60.102148
 0.630000   28.668056   -61.006002
 0.635000   28.360512   -61.957958
 0.640000   28.048477   -62.559201
 0.645000   27.734920   -63.007721
 0.650000   27.418400   -63.622477
 0.655000   27.098695   -64.343356
 0.660000   26.774966   -65.400986
 0.665000   26.444686   -66.962715
 0.670000   26.105339   -68.778165
 0.675000   25.756904   -71.196188
 0.680000   25.393377   -74.346905
 0.685000   25.013435   -77.413209
 0.690000   24.619245   -80.265956
 0.695000   24.210775   -83.628504
 0.700000   23.782960   -84.290023
 0.705000   23.367875   -82.670785
 0.710000   22.956252   -81.710424
 0.715000   22.550771   -80.204698
 0.720000   22.154205   -78.218852
 0.725000   21.768582   -76.102647
 0.730000   21.393179   -71.564831
 0.735000   21.052934   -65.779122
 0.740000   20.735387   -61.120266
 0.745000   20.441731   -56.338939
 0.750000   20.171998   -51.734927
 0.755000   19.924382   -46.072145
 0.760000   19.711277   -42.336486
 0.765000   19.501017   -41.575979
 0.770000   19.295517   -41.228508
 0.775000   19.088732   -41.926930
 0.780000   18.876247   -43.177873
 0.785000   18.656953   -43.594133
 0.790000   18.440306   -45.859134
 0.795000   18.198362   -49.813356
 0.800000   17.942173   -52.647539
 0.805000   17.671887   -55.589829
 0.810000   17.386274   -58.606796
 0.815000   17.085819   -61.750656
 0.820000   16.768768   -64.449631
 0.825000   16.441322   -66.447596
 0.830000   16.104292   -68.534304
 0.835000   15.755979   -70.888607
 0.840000   15.395406   -73.299348
 0.845000   15.022986   -76.148235
 0.850000   14.633923   -79.233808
 0.855000   14.230648   -82.681670
 0.860000   13.807107   -87.613413
 0.865000   13.354514   -94.588207
 0.870000   12.861225   -103.524488
 0.875000   12.319269   -115.107451
 0.880000   11.710150   -129.259844
 0.885000   11.026670   -144.960934
 0.890000   10.260541   -163.641447
 0.895000   9.390256   -186.664271
 0.900000   8.393898   -212.979307
 0.905000   7.260463   -243.674805
 0.910000   5.957150   -278.748051
 0.915000   4.472982   -313.452366
 0.920000   2.822626   -349.570692
 0.925000   0.977275   -390.342715
 0.930000   -1.080801   -434.480514
 0.935000   -3.367530   -487.912517
 0.940000   -5.959926   -550.159482
 0.945000   -8.869125   -598.506178
 0.950000   -11.944988   -633.518470
 0.955000   -15.204309   -660.661908
 0.960000   -18.551607   -666.946684
 0.965000   -21.873776   -660.034296
 0.970000   -25.151950   -633.661718
 0.975000   -28.210393   -513.458663
 0.980000   -30.286536   -220.481259
 0.985000   -30.415206   340.337301
 0.990000   -26.883163   1161.889748
 0.995000   -18.796308   1901.430418
 1.000000   -7.868859   2469.549229
201 psinorm er(kV/m) der/dpsiN
 0.000000   0.651130   1277.159358
 0.005000   5.721068   750.815948
 0.010000   8.159289   429.872011
 0.015000   10.019788   345.335823
 0.020000   11.612648   297.575859
 0.025000   12.995547   262.720791
 0.030000   14.239855   238.268140
 0.035000   15.378228   219.151879
 0.040000   16.431374   202.634395
 0.045000   17.404572   188.244455
 0.050000   18.313819   175.810845
 0.055000   19.162681   166.205692
 0.060000   19.975876   158.662048
 0.065000   20.749301   149.313765
 0.070000   21.469013   140.865383
 0.075000   22.157955   136.257342
 0.080000   22.831587   128.568009
 0.085000   23.443635   123.068168
 0.090000   24.062269   118.856353
 0.095000   24.632199   111.318407
 0.100000   25.175453   108.557670
 0.105000   25.717775   102.123253
 0.110000   26.196685   99.336773
 0.115000   26.711143   94.241292
 0.120000   27.139098   91.353422
 0.125000   27.624677   87.750721
 0.130000   28.016605   84.610872
 0.135000   28.470786   82.439611
 0.140000   28.841001   78.744396
 0.145000   29.258230   77.695735
 0.150000   29.617959   73.173488
 0.155000   29.989965   72.709601
 0.160000   30.345055   67.332586
 0.165000   30.663291   66.979909
 0.170000   31.014854   61.523824
 0.175000   31.278529   59.641695
 0.180000   31.611271   57.724009
 0.185000   31.855769   51.986511
 0.190000   32.131136   53.435322
 0.195000   32.390122   46.124941
 0.200000   32.592385   45.709089
 0.205000   32.847213   42.069763
 0.210000   33.013083   37.011582
 0.215000   33.217329   39.885492
 0.220000   33.411938   32.345004
 0.225000   33.540779   31.557410
 0.230000   33.727512   31.733837
 0.235000   33.858117   25.406650
 0.240000   33.981578   28.119256
 0.245000   34.139310   23.858098
 0.250000   34.220159   21.414001
 0.255000   34.353450   26.737563
 0.260000   34.487535   20.229396
 0.265000   34.555744   19.665433
 0.270000   34.684189   23.769175
 0.275000   34.793436   17.859982
 0.280000   34.862789   18.243523
 0.285000   34.975871   19.740682
 0.290000   35.060196   14.091234
 0.295000   35.116783   14.245532
 0.300000   35.202651   13.648116
 0.305000   35.253264   7.390142
 0.310000   35.276553   6.155890
 0.315000   35.314823   3.908383
 0.320000   35.315637   -2.420607
 0.325000   35.290617   -3.891989
 0.330000   35.276717   -5.819402
 0.335000   35.232423   -11.083307
 0.340000   35.165884   -11.706007
 0.345000   35.115363   -11.840494
 0.350000   35.047479   -15.536049
 0.355000   34.960003   -15.671251
 0.360000   34.890766   -14.976418
 0.365000   34.810238   -18.399216
 0.370000   34.706774   -18.849900
 0.375000   34.621739   -17.434923
 0.380000   34.532425   -21.116294
 0.385000   34.410576   -22.869011
 0.390000   34.303735   -21.659404
 0.395000   34.193982   -24.634820
 0.400000   34.057386   -26.933600
 0.405000   33.924646   -26.669517
 0.410000   33.790691   -28.255353
 0.415000   33.642093   -30.913583
 0.420000   33.481555   -32.706564
 0.425000   33.315027   -36.162619
 0.430000   33.119929   -42.602333
 0.435000   32.889004   -48.645784
 0.440000   32.633471   -55.020938
 0.445000   32.338795   -63.877154
 0.450000   31.994700   -71.765649
 0.455000   31.621138   -78.245699
 0.460000   31.212243   -85.307349
 0.465000   30.768065   -91.659912
 0.470000   30.295644   -95.392852
 0.475000   29.814136   -96.200684
 0.480000   29.333637   -95.747568
 0.485000   28.856660   -92.500929
 0.490000   28.408628   -86.449181
 0.495000   27.992169   -80.078410
 0.500000   27.607844   -72.745219
 0.505000   27.264716   -64.839372
 0.510000   26.959450   -57.921091
 0.515000   26.685505   -52.628868
 0.520000   26.433161   -47.850203
 0.525000   26.207003   -43.470949
 0.530000   25.998452   -41.372694
 0.535000   25.793276   -40.201899
 0.540000   25.596433   -38.574559
 0.545000   25.407531   -37.612395
 0.550000   25.220309   -37.668276
 0.555000   25.030848   -37.223671
 0.560000   24.848072   -36.211409
 0.565000   24.668734   -36.224194
 0.570000   24.485830   -36.155398
 0.575000   24.307180   -35.522860
 0.580000   24.130601   -35.424236
 0.585000   23.952938   -36.045807
 0.590000   23.770143   -36.135145
 0.595000   23.591586   -35.767169
 0.600000   23.412472   -36.558463
 0.605000   23.226002   -37.509906
 0.610000   23.037373   -37.676406
 0.615000   22.849238   -37.956925
 0.620000   22.657803   -39.356345
 0.625000   22.455674   -40.172166
 0.630000   22.256082   -40.358992
 0.635000   22.052084   -41.615993
 0.640000   21.839922   -42.811632
 0.645000   21.623968   -43.041510
 0.650000   21.409507   -43.193195
 0.655000   21.192036   -44.697825
 0.660000   20.962528   -45.919289
 0.665000   20.732843   -46.573356
 0.670000   20.496795   -48.176380
 0.675000   20.251079   -51.042496
 0.680000   19.986370   -53.568513
 0.685000   19.715394   -55.379741
 0.690000   19.432573   -58.325723
 0.695000   19.132137   -61.701304
 0.700000   18.815559   -61.873246
 0.705000   18.513404   -60.214199
 0.710000   18.213417   -60.625294
 0.715000   17.907151   -59.823601
 0.720000   17.615181   -57.401939
 0.725000   17.333132   -55.843659
 0.730000   17.056745   -53.474561
 0.735000   16.798386   -48.838371
 0.740000   16.568361   -44.152731
 0.745000   16.356859   -40.994921
 0.750000   16.158412   -38.163476
 0.755000   15.975224   -33.202244
 0.760000   15.826390   -29.602805
 0.765000   15.679196   -29.902604
 0.770000   15.527363   -30.074296
 0.775000   15.378453   -29.961696
 0.780000   15.227747   -30.756223
 0.785000   15.070891   -32.094101
 0.790000   14.906806   -34.114362
 0.795000   14.729748   -36.579134
 0.800000   14.541014   -39.083711
 0.805000   14.338910   -42.236791
 0.810000   14.118646   -44.716234
 0.815000   13.891748   -46.792824
 0.820000   13.650718   -49.370463
 0.825000   13.398043   -51.583848
 0.830000   13.134880   -53.223220
 0.835000   12.865811   -54.880252
 0.840000   12.586077   -57.334200
 0.845000   12.292469   -60.125057
 0.850000   11.984826   -62.518055
 0.855000   11.667289   -65.234139
 0.860000   11.332485   -69.858701
 0.865000   10.968702   -75.963568
 0.870000   10.572849   -83.123161
 0.875000   10.137470   -92.676276
 0.880000   9.646087   -105.033859
 0.885000   9.087131   -118.313751
 0.890000   8.462949   -133.486416
 0.895000   7.752267   -152.696977
 0.900000   6.935979   -175.210063
 0.905000   6.000167   -200.905609
 0.910000   4.926923   -229.701681
 0.915000   3.703150   -258.737349
 0.920000   2.339550   -289.262787
 0.925000   0.810522   -323.183794
 0.930000   -0.892288   -359.662469
 0.935000   -2.786103   -404.960835
 0.940000   -4.941897   -457.979124
 0.945000   -7.365894   -497.811838
 0.950000   -9.920015   -526.059890
 0.955000   -12.626493   -567.885521
 0.960000   -15.598870   -598.402249
 0.965000   -18.610515   -582.632842
 0.970000   -21.425199   -544.730917
 0.975000   -24.057825   -470.961948
 0.980000   -26.134818   -242.121238
 0.985000   -26.479037   269.437551
 0.990000   -23.440443   1005.688522
 0.995000   -16.422152   1654.085174
 1.000000   -6.899591   2154.939180
201 psinorm ommvb() dommvb/dpsiN
 0.000000   38.089355   18759.915280
 0.005000   116.595452   12642.523759
 0.010000   164.514592   9467.908242
 0.015000   211.274535   8734.102472
 0.020000   251.855617   7399.974347
 0.025000   285.274278   6225.835552
 0.030000   314.113973   5366.525056
 0.035000   338.939529   4767.686565
 0.040000   361.790838   4224.943417
 0.045000   381.188963   3646.579100
 0.050000   398.256629   3325.447393
 0.055000   414.443437   2914.338811
 0.060000   427.400017   2519.806091
 0.065000   439.641498   2253.910396
 0.070000   449.939121   1949.963876
 0.075000   459.141137   1727.824937
 0.080000   467.217371   1473.196735
 0.085000   473.873104   1234.507838
 0.090000   479.562449   1048.084455
 0.095000   484.353948   812.114244
 0.100000   487.683592   572.782329
 0.105000   490.081772   401.547149
 0.110000   491.699063   287.317228
 0.115000   492.954944   180.050967
 0.120000   493.499573   30.743125
 0.125000   493.262375   -113.946832
 0.130000   492.360104   -241.629206
 0.135000   490.846083   -329.356389
 0.140000   489.066540   -414.886859
 0.145000   486.697215   -550.960046
 0.150000   483.556940   -686.432123
 0.155000   479.832893   -788.724336
 0.160000   475.669697   -872.891926
 0.165000   471.103974   -949.681571
 0.170000   466.172881   -1020.101863
 0.175000   460.902956   -1084.183790
 0.180000   455.331043   -1142.106306
 0.185000   449.481893   -1189.043956
 0.190000   443.440603   -1225.959720
 0.195000   437.222295   -1402.219127
 0.200000   429.418412   -1486.796908
 0.205000   422.354326   -1372.007835
 0.210000   415.698334   -1334.766901
 0.215000   409.006657   -1339.358917
 0.220000   402.304745   -1362.519614
 0.225000   395.381461   -1407.980169
 0.230000   388.224943   -1448.417942
 0.235000   380.897282   -1559.677481
 0.240000   372.628168   -1459.108797
 0.245000   366.306194   -1251.851369
 0.250000   360.109654   -1226.800687
 0.255000   354.038187   -1198.840303
 0.260000   348.121251   -1261.731073
 0.265000   341.420876   -1380.787669
 0.270000   334.313375   -1220.562192
 0.275000   329.215254   -1005.351662
 0.280000   324.259858   -981.289386
 0.285000   319.402360   -978.786837
 0.290000   314.471990   -1151.587217
 0.295000   307.886488   -1072.579034
 0.300000   303.746199   -808.970226
 0.305000   299.796786   -774.265431
 0.310000   296.003545   -779.223608
 0.315000   292.004550   -887.296584
 0.320000   287.130579   -785.707440
 0.325000   284.147475   -568.576348
 0.330000   281.444816   -519.033901
 0.335000   278.957136   -578.279386
 0.340000   275.662022   -613.899870
 0.345000   272.818138   -475.692358
 0.350000   270.905098   -368.572833
 0.355000   269.132409   -344.948311
 0.360000   267.455615   -425.001482
 0.365000   264.882395   -371.797455
 0.370000   263.737641   -217.239362
 0.375000   262.710001   -194.633913
 0.380000   261.791302   -234.950312
 0.385000   260.360498   -237.380418
 0.390000   259.417497   -144.689467
 0.395000   258.913603   -93.174587
 0.400000   258.485752   -102.705724
 0.405000   257.886546   -129.878823
 0.410000   257.186963   -83.732277
 0.415000   257.049223   -26.275108
 0.420000   256.924212   -30.691609
 0.425000   256.742307   -98.096234
 0.430000   255.943250   -94.059371
 0.435000   255.801713   -33.012616
 0.440000   255.613124   -43.105125
 0.445000   255.370662   -107.515444
 0.450000   254.537969   -130.401693
 0.455000   254.066645   -81.064863
 0.460000   253.727321   -66.570772
 0.465000   253.400937   -104.053791
 0.470000   252.686783   -118.059851
 0.475000   252.220339   -63.774378
 0.480000   252.049039   -29.323532
 0.485000   251.927104   -37.646864
 0.490000   251.672570   -50.416057
 0.495000   251.422943   -4.524683
 0.500000   251.627323   49.357667
 0.505000   251.916520   60.666449
 0.510000   252.233988   32.818958
 0.515000   252.244709   53.906672
 0.520000   252.773055   109.366448
 0.525000   253.338374   116.285822
 0.530000   253.935913   87.989915
 0.535000   254.218273   89.510156
 0.540000   254.831014   135.072306
 0.545000   255.568996   149.886439
 0.550000   256.329879   138.248572
 0.555000   256.951482   129.361197
 0.560000   257.623491   161.885355
 0.565000   258.570335   191.534335
 0.570000   259.538834   196.363879
 0.575000   260.533974   176.838930
 0.580000   261.307223   192.203046
 0.585000   262.456004   239.673587
 0.590000   263.703959   258.262032
 0.595000   265.038625   269.687703
 0.600000   266.400836   281.291025
 0.605000   267.851535   308.419050
 0.610000   269.485027   338.181636
 0.615000   271.233351   363.651771
 0.620000   273.121545   387.481843
 0.625000   275.108170   411.547886
 0.630000   277.237023   443.178004
 0.635000   279.539950   474.297480
 0.640000   281.979998   503.172462
 0.645000   284.571674   539.415349
 0.650000   287.374152   577.283299
 0.655000   290.344507   610.730213
 0.660000   293.481454   643.474336
 0.665000   296.779251   675.606261
 0.670000   300.237517   719.855288
 0.675000   303.977804   767.490305
 0.680000   307.912420   803.512646
 0.685000   312.012930   839.460717
 0.690000   316.307027   878.664820
 0.695000   320.799578   927.072456
 0.700000   325.577751   995.221703
 0.705000   330.751795   1041.989499
 0.710000   335.997646   1076.828228
 0.715000   341.520078   1132.658981
 0.720000   347.324236   1187.632722
 0.725000   353.396405   1255.850971
 0.730000   359.882746   1321.903471
 0.735000   366.615440   1365.405772
 0.740000   373.536804   1415.567460
 0.745000   380.771114   1478.704218
 0.750000   388.323846   1540.765970
 0.755000   396.178774   1604.828897
 0.760000   404.372135   1659.619863
 0.765000   412.774973   1698.523759
 0.770000   421.357372   1753.759836
 0.775000   430.312571   1828.910456
 0.780000   439.646477   1904.137939
 0.785000   449.353950   1980.817832
 0.790000   459.454655   2047.893246
 0.795000   469.832883   2111.135215
 0.800000   480.566007   2198.696618
 0.805000   491.819849   2297.677406
 0.810000   503.542781   2395.904856
 0.815000   515.778898   2501.700129
 0.820000   528.559783   2614.673086
 0.825000   541.925628   2733.889418
 0.830000   555.898677   2833.245319
 0.835000   570.258082   2908.411399
 0.840000   584.982791   3050.138080
 0.845000   600.759462   3220.445383
 0.850000   617.187245   3356.010082
 0.855000   634.319563   3496.942872
 0.860000   652.156673   3636.284642
 0.865000   670.682410   3786.863172
 0.870000   690.025305   3972.984147
 0.875000   710.412251   4193.861979
 0.880000   731.963925   4438.906576
 0.885000   754.801317   4708.332142
 0.890000   779.047246   4966.573024
 0.895000   804.467047   5232.517802
 0.900000   831.372424   5703.943208
 0.905000   861.506479   6331.512774
 0.910000   894.687552   7058.495982
 0.915000   932.091439   8333.238992
 0.920000   978.019942   10632.863155
 0.925000   1038.420071   14200.437893
 0.930000   1120.024321   19348.205336
 0.935000   1231.902124   26709.691258
 0.940000   1387.121234   37094.321563
 0.945000   1602.845340   51276.594281
 0.950000   1899.887176   68461.696278
 0.955000   2287.462302   81532.312231
 0.960000   2715.210299   81503.020126
 0.965000   3102.492504   73153.933818
 0.970000   3446.749637   70978.861212
 0.975000   3812.281116   71178.466106
 0.980000   4158.534298   62718.852944
 0.985000   4439.469645   46741.710872
 0.990000   4625.951407   39036.973849
 0.995000   4829.839384   570571.585274
 1.000000   10331.667259   1630159.565016
201 psinorm ommpp() dommpp/dpsiN
 0.000000   28.386636   -18643.767086
 0.005000   -49.722124   -12599.736896
 0.010000   -97.610733   -9466.572382
 0.015000   -144.387848   -8740.137927
 0.020000   -185.012112   -7410.494626
 0.025000   -218.492794   -6240.245584
 0.030000   -247.414568   -5384.810826
 0.035000   -272.340902   -4789.299206
 0.040000   -295.307560   -4249.477347
 0.045000   -314.835676   -3673.700727
 0.050000   -332.044567   -3354.618346
 0.055000   -348.381859   -2944.962766
 0.060000   -361.494195   -2551.516249
 0.065000   -373.897022   -2286.581189
 0.070000   -384.360007   -1983.326720
 0.075000   -393.730289   -1761.765634
 0.080000   -401.977663   -1507.675134
 0.085000   -408.807040   -1269.619974
 0.090000   -414.673863   -1084.119193
 0.095000   -419.648232   -849.159723
 0.100000   -423.165460   -610.669900
 0.105000   -425.754931   -440.125838
 0.110000   -427.566719   -326.400199
 0.115000   -429.018933   -219.331115
 0.120000   -429.760030   -69.901224
 0.125000   -429.717945   75.245741
 0.130000   -429.007572   203.636279
 0.135000   -427.681583   292.174411
 0.140000   -426.085828   378.442323
 0.145000   -423.897159   515.128354
 0.150000   -420.934545   650.847276
 0.155000   -417.388687   752.802821
 0.160000   -413.406516   836.498192
 0.165000   -409.023705   912.662231
 0.170000   -404.279894   982.113403
 0.175000   -399.202571   1045.117376
 0.180000   -393.828720   1101.592184
 0.185000   -388.186649   1146.916321
 0.190000   -382.359557   1182.270835
 0.195000   -376.363940   1356.987310
 0.200000   -368.789684   1440.029198
 0.205000   -361.963648   1323.515624
 0.210000   -355.554528   1284.833063
 0.215000   -349.115318   1288.370388
 0.220000   -342.670824   1310.666728
 0.225000   -336.008651   1355.468484
 0.230000   -329.116139   1395.301493
 0.235000   -322.055636   1505.731706
 0.240000   -314.058822   1405.049306
 0.245000   -308.005143   1198.816207
 0.250000   -302.070660   1174.988752
 0.255000   -296.255255   1148.201147
 0.260000   -290.588649   1212.236679
 0.265000   -284.132888   1332.365857
 0.270000   -277.264990   1173.228442
 0.275000   -272.400604   959.033033
 0.280000   -267.674660   935.522499
 0.285000   -263.045379   933.027188
 0.290000   -258.344388   1105.399296
 0.295000   -251.991386   1025.551246
 0.300000   -248.088875   760.370918
 0.305000   -244.387677   723.084408
 0.310000   -240.858031   724.849937
 0.315000   -237.139177   829.506402
 0.320000   -232.562967   724.559794
 0.325000   -229.893579   504.258449
 0.330000   -227.520383   451.805563
 0.335000   -225.375524   508.962213
 0.340000   -222.430761   543.334244
 0.345000   -219.942181   404.430893
 0.350000   -218.386452   297.323386
 0.355000   -216.968947   273.869476
 0.360000   -215.647757   353.689120
 0.365000   -213.432056   300.670718
 0.370000   -212.641050   146.518204
 0.375000   -211.966874   123.936235
 0.380000   -211.401687   163.813961
 0.385000   -210.328735   165.429071
 0.390000   -209.747397   72.298236
 0.395000   -209.605752   20.139115
 0.400000   -209.546006   28.640482
 0.405000   -209.319347   55.106260
 0.410000   -208.994943   8.409533
 0.415000   -209.235252   -50.200557
 0.420000   -209.496948   -48.092902
 0.425000   -209.716181   14.694521
 0.430000   -209.350003   4.239936
 0.435000   -209.673782   -64.179923
 0.440000   -209.991802   -63.330172
 0.445000   -210.307083   -8.772194
 0.450000   -210.079524   4.833192
 0.455000   -210.258752   -53.569533
 0.460000   -210.615220   -76.258957
 0.465000   -211.021341   -45.449148
 0.470000   -211.069711   -35.709576
 0.475000   -211.378437   -90.498468
 0.480000   -211.974696   -122.232418
 0.485000   -212.600761   -108.205265
 0.490000   -213.056749   -87.063649
 0.495000   -213.471398   -122.761339
 0.500000   -214.284362   -165.305212
 0.505000   -215.124450   -165.687161
 0.510000   -215.941234   -127.973387
 0.515000   -216.404184   -140.498589
 0.520000   -217.346219   -188.906536
 0.525000   -218.293249   -190.132830
 0.530000   -219.247548   -157.850557
 0.535000   -219.871754   -156.912309
 0.540000   -220.816671   -200.453469
 0.545000   -221.876289   -213.590833
 0.550000   -222.952579   -200.868755
 0.555000   -223.884977   -191.008392
 0.560000   -224.862663   -222.475085
 0.565000   -226.109728   -251.116069
 0.570000   -227.373824   -255.107505
 0.575000   -228.660803   -235.000305
 0.580000   -229.723827   -249.981832
 0.585000   -231.160621   -297.169025
 0.590000   -232.695517   -315.584437
 0.595000   -234.316465   -326.947661
 0.600000   -235.964994   -338.711052
 0.605000   -237.703576   -366.316147
 0.610000   -239.628155   -396.552762
 0.615000   -241.669103   -422.431153
 0.620000   -243.852467   -446.849415
 0.625000   -246.137598   -471.650034
 0.630000   -248.568967   -504.184006
 0.635000   -251.179438   -536.255438
 0.640000   -253.931521   -565.731663
 0.645000   -256.836754   -602.423070
 0.650000   -259.955752   -640.905776
 0.655000   -263.245812   -675.073569
 0.660000   -266.706488   -708.875323
 0.665000   -270.334565   -742.568976
 0.670000   -274.132178   -788.633453
 0.675000   -278.220900   -838.686493
 0.680000   -282.519043   -877.859551
 0.685000   -286.999495   -916.873927
 0.690000   -291.687782   -958.930776
 0.695000   -296.588803   -1010.700961
 0.700000   -301.794791   -1079.511727
 0.705000   -307.383920   -1124.660285
 0.710000   -313.041394   -1158.538653
 0.715000   -318.969307   -1212.863679
 0.720000   -325.170031   -1265.851574
 0.725000   -331.627823   -1331.953618
 0.730000   -338.489567   -1393.468303
 0.735000   -345.562506   -1431.184895
 0.740000   -352.801416   -1476.687725
 0.745000   -360.329383   -1535.043158
 0.750000   -368.151848   -1592.500897
 0.755000   -376.254392   -1650.901042
 0.760000   -384.660858   -1701.956349
 0.765000   -393.273955   -1740.099739
 0.770000   -402.061856   -1794.988344
 0.775000   -411.223839   -1870.837386
 0.780000   -420.770229   -1947.315813
 0.785000   -430.696997   -2024.411965
 0.790000   -441.014349   -2093.752380
 0.795000   -451.634521   -2160.948571
 0.800000   -462.623835   -2251.344156
 0.805000   -474.147962   -2353.267235
 0.810000   -486.156507   -2454.511653
 0.815000   -498.693079   -2563.450785
 0.820000   -511.791015   -2679.122717
 0.825000   -525.484306   -2800.337014
 0.830000   -539.794385   -2901.779623
 0.835000   -554.502102   -2979.300007
 0.840000   -569.587385   -3123.437428
 0.845000   -585.736476   -3296.593618
 0.850000   -602.553321   -3435.243890
 0.855000   -620.088915   -3579.624542
 0.860000   -638.349567   -3723.898055
 0.865000   -657.327896   -3881.451379
 0.870000   -677.164081   -4076.508635
 0.875000   -698.092982   -4308.969430
 0.880000   -720.253775   -4568.166420
 0.885000   -743.774646   -4853.293077
 0.890000   -768.786706   -5130.214471
 0.895000   -795.076791   -5419.182073
 0.900000   -822.978526   -5916.922515
 0.905000   -854.246016   -6575.187578
 0.910000   -888.730402   -7337.244033
 0.915000   -927.618457   -8646.691358
 0.920000   -975.197316   -10982.433847
 0.925000   -1037.442795   -14590.780608
 0.930000   -1121.105122   -19782.685850
 0.935000   -1235.269654   -27197.603775
 0.940000   -1393.081160   -37644.481045
 0.945000   -1611.714464   -51875.100459
 0.950000   -1911.832164   -69095.214748
 0.955000   -2302.666612   -82192.974139
 0.960000   -2733.761906   -82169.966810
 0.965000   -3124.366280   -73813.968114
 0.970000   -3471.901587   -71612.522929
 0.975000   -3840.491509   -71691.924769
 0.980000   -4188.820834   -62939.334204
 0.985000   -4469.884851   -46401.373571
 0.990000   -4652.834570   -37875.084100
 0.995000   -4848.635692   -568670.154855
 1.000000   -10339.536119   -1627690.015787
201 psinorm omevb() domevb/dpsiN
 0.000000   39.737737   129.758856
 0.005000   40.213489   60.541733
 0.010000   40.343155   21.195785
 0.015000   40.425446   13.889705
 0.020000   40.482052   9.468785
 0.025000   40.520134   5.641602
 0.030000   40.538468   1.827104
 0.035000   40.538405   -1.439857
 0.040000   40.524069   -4.302567
 0.045000   40.495380   -6.833013
 0.050000   40.455739   -8.826413
 0.055000   40.407116   -10.224817
 0.060000   40.353491   -11.257745
 0.065000   40.294538   -12.166427
 0.070000   40.231826   -12.807845
 0.075000   40.166460   -13.336386
 0.080000   40.098463   -13.826092
 0.085000   40.028199   -14.413146
 0.090000   39.954331   -15.290378
 0.095000   39.875295   -16.257059
 0.100000   39.791761   -17.056399
 0.105000   39.704731   -17.706068
 0.110000   39.614700   -18.170203
 0.115000   39.523029   -18.328532
 0.120000   39.431415   -18.168929
 0.125000   39.341340   -17.675661
 0.130000   39.254658   -16.932527
 0.135000   39.172014   -16.087893
 0.140000   39.093779   -15.318049
 0.145000   39.018834   -14.674079
 0.150000   38.947038   -14.397385
 0.155000   38.874860   -14.705475
 0.160000   38.799983   -15.150382
 0.165000   38.723356   -15.749941
 0.170000   38.642484   -16.694270
 0.175000   38.556414   -17.748690
 0.180000   38.464997   -19.174111
 0.185000   38.364672   -20.766584
 0.190000   38.257331   -22.308035
 0.195000   38.141592   -23.832402
 0.200000   38.019007   -25.350963
 0.205000   37.888082   -27.059359
 0.210000   37.748414   -28.486101
 0.215000   37.603221   -29.527122
 0.220000   37.453142   -30.379021
 0.225000   37.299431   -31.026566
 0.230000   37.142877   -31.621277
 0.235000   36.983218   -32.441744
 0.240000   36.818459   -32.547789
 0.245000   36.657741   -31.516973
 0.250000   36.503290   -30.288434
 0.255000   36.354856   -29.111517
 0.260000   36.212174   -27.963779
 0.265000   36.075218   -26.889382
 0.270000   35.943281   -25.800658
 0.275000   35.817212   -24.786021
 0.280000   35.695420   -24.235903
 0.285000   35.574853   -24.231422
 0.290000   35.453106   -24.663579
 0.295000   35.328217   -25.508453
 0.300000   35.198022   -27.086092
 0.305000   35.057356   -29.675033
 0.310000   34.901271   -32.876008
 0.315000   34.728596   -36.301939
 0.320000   34.538252   -39.669910
 0.325000   34.331897   -42.851749
 0.330000   34.109734   -45.774846
 0.335000   33.874148   -47.877404
 0.340000   33.630960   -49.140638
 0.345000   33.382742   -49.852309
 0.350000   33.132437   -49.857165
 0.355000   32.884170   -49.704463
 0.360000   32.635393   -49.956927
 0.365000   32.384601   -49.791259
 0.370000   32.137480   -49.406653
 0.375000   31.890535   -49.405147
 0.380000   31.643429   -49.866794
 0.385000   31.391867   -50.705752
 0.390000   31.136371   -51.170580
 0.395000   30.880161   -51.840739
 0.400000   30.617964   -52.897391
 0.405000   30.351187   -53.632553
 0.410000   30.081638   -54.211524
 0.415000   29.809072   -55.394176
 0.420000   29.527696   -57.733687
 0.425000   29.231735   -62.382478
 0.430000   28.903872   -68.832706
 0.435000   28.543408   -76.239224
 0.440000   28.141479   -85.516297
 0.445000   27.688245   -95.403844
 0.450000   27.187441   -104.720795
 0.455000   26.641037   -113.823654
 0.460000   26.049204   -122.056817
 0.465000   25.420469   -128.768714
 0.470000   24.761517   -133.074738
 0.475000   24.089721   -133.618534
 0.480000   23.425332   -130.942846
 0.485000   22.780293   -125.281058
 0.490000   22.172521   -116.951480
 0.495000   21.610778   -106.801448
 0.500000   21.104507   -95.507418
 0.505000   20.655704   -84.625823
 0.510000   20.258249   -74.805555
 0.515000   19.907648   -66.289830
 0.520000   19.595350   -59.285549
 0.525000   19.314793   -53.640769
 0.530000   19.058943   -49.703449
 0.535000   18.817758   -47.294739
 0.540000   18.585995   -45.324256
 0.545000   18.364516   -43.698710
 0.550000   18.149008   -42.666430
 0.555000   17.937852   -41.746072
 0.560000   17.731547   -40.741929
 0.565000   17.530432   -39.787936
 0.570000   17.333668   -39.004503
 0.575000   17.140387   -38.477591
 0.580000   16.948892   -38.150994
 0.585000   16.758877   -37.924285
 0.590000   16.569649   -37.808527
 0.595000   16.380792   -37.803982
 0.600000   16.191610   -38.022572
 0.605000   16.000566   -38.558772
 0.610000   15.806022   -39.092533
 0.615000   15.609641   -39.561110
 0.620000   15.410411   -40.210206
 0.625000   15.207539   -41.006260
 0.630000   15.000348   -41.972157
 0.635000   14.787817   -42.986712
 0.640000   14.570481   -43.651101
 0.645000   14.351306   -44.163303
 0.650000   14.128848   -44.842272
 0.655000   13.902884   -45.627882
 0.660000   13.672569   -46.750755
 0.665000   13.435376   -48.378228
 0.670000   13.188787   -50.259916
 0.675000   12.932777   -52.744661
 0.680000   12.661340   -55.962575
 0.685000   12.373151   -59.096543
 0.690000   12.070375   -62.017412
 0.695000   11.752977   -65.448530
 0.700000   11.415890   -66.179059
 0.705000   11.091186   -64.629262
 0.710000   10.769597   -63.738765
 0.715000   10.453799   -62.303315
 0.720000   10.146564   -60.388149
 0.725000   9.849917   -58.343019
 0.730000   9.563134   -53.876663
 0.735000   9.311151   -48.162789
 0.740000   9.081506   -43.576132
 0.745000   8.875389   -38.867357
 0.750000   8.692832   -34.336234
 0.755000   8.532027   -28.746665
 0.760000   8.405365   -25.084524
 0.765000   8.281182   -24.397813
 0.770000   8.161387   -24.124386
 0.775000   8.039938   -24.897057
 0.780000   7.912417   -26.222394
 0.785000   7.777714   -26.713110
 0.790000   7.645286   -29.052514
 0.795000   7.487189   -33.080921
 0.800000   7.314476   -35.988835
 0.805000   7.127300   -39.004070
 0.810000   6.924436   -42.092725
 0.815000   6.706373   -45.306354
 0.820000   6.471372   -48.072256
 0.825000   6.225651   -50.133046
 0.830000   5.970042   -52.276764
 0.835000   5.702883   -54.680016
 0.840000   5.423242   -57.128779
 0.845000   5.131595   -60.001311
 0.850000   4.823228   -63.092368
 0.855000   4.500672   -66.524182
 0.860000   4.157987   -71.417082
 0.865000   3.786501   -78.334643
 0.870000   3.374640   -87.212319
 0.875000   2.914378   -98.778126
 0.880000   2.386859   -113.047798
 0.885000   1.783900   -129.188081
 0.890000   1.094978   -148.991417
 0.895000   0.293985   -174.499010
 0.900000   -0.650012   -205.908732
 0.905000   -1.765102   -246.575144
 0.910000   -3.115763   -300.574527
 0.915000   -4.770847   -370.454915
 0.920000   -6.820313   -470.972955
 0.925000   -9.480577   -628.279885
 0.930000   -13.103111   -881.040875
 0.935000   -18.290985   -1303.067898
 0.940000   -26.133790   -2002.913683
 0.945000   -38.320122   -3111.112680
 0.950000   -57.244917   -4769.172071
 0.955000   -86.011843   -6859.899885
 0.960000   -125.843916   -8382.496989
 0.965000   -169.836813   -7126.168306
 0.970000   -197.105599   -1673.879892
 0.975000   -186.575612   5088.416789
 0.980000   -146.221431   8344.472952
 0.985000   -103.130882   7663.449136
 0.990000   -69.586940   5936.600595
 0.995000   -43.764876   4664.591579
 1.000000   -22.941024   3664.949354
201 psinorm omepp() domepp/dpsiN
 0.000000   26.738254   -13.610662
 0.005000   26.659840   -17.754870
 0.010000   26.560705   -19.859925
 0.015000   26.461241   -19.925160
 0.020000   26.361453   -19.989063
 0.025000   26.261350   -20.051634
 0.030000   26.160937   -20.112874
 0.035000   26.060221   -20.172783
 0.040000   25.959209   -20.231363
 0.045000   25.857908   -20.288615
 0.050000   25.756323   -20.344539
 0.055000   25.654462   -20.399138
 0.060000   25.552332   -20.452413
 0.065000   25.449938   -20.504366
 0.070000   25.347288   -20.554998
 0.075000   25.244388   -20.604311
 0.080000   25.141245   -20.652308
 0.085000   25.037865   -20.698990
 0.090000   24.934255   -20.744360
 0.095000   24.830421   -20.788420
 0.100000   24.726371   -20.831173
 0.105000   24.622110   -20.872622
 0.110000   24.517645   -20.912769
 0.115000   24.412982   -20.951617
 0.120000   24.308128   -20.989169
 0.125000   24.203090   -21.025429
 0.130000   24.097874   -21.060400
 0.135000   23.992486   -21.094085
 0.140000   23.886933   -21.126488
 0.145000   23.781221   -21.157612
 0.150000   23.675357   -21.187462
 0.155000   23.569347   -21.216040
 0.160000   23.463197   -21.243351
 0.165000   23.356913   -21.269400
 0.170000   23.250503   -21.294190
 0.175000   23.143971   -21.317725
 0.180000   23.037325   -21.340011
 0.185000   22.930571   -21.361051
 0.190000   22.823715   -21.380850
 0.195000   22.716763   -21.399414
 0.200000   22.609721   -21.416746
 0.205000   22.502595   -21.432852
 0.210000   22.395392   -21.447738
 0.215000   22.288118   -21.461407
 0.220000   22.180778   -21.473865
 0.225000   22.073379   -21.485119
 0.230000   21.965927   -21.495172
 0.235000   21.858428   -21.504031
 0.240000   21.750887   -21.511702
 0.245000   21.643311   -21.518190
 0.250000   21.535705   -21.523500
 0.255000   21.428076   -21.527640
 0.260000   21.320428   -21.530614
 0.265000   21.212769   -21.532430
 0.270000   21.105104   -21.533092
 0.275000   20.997438   -21.532608
 0.280000   20.889778   -21.530984
 0.285000   20.782129   -21.528226
 0.290000   20.674496   -21.524341
 0.295000   20.566885   -21.519336
 0.300000   20.459302   -21.513216
 0.305000   20.351753   -21.505990
 0.310000   20.244243   -21.497663
 0.315000   20.136776   -21.488243
 0.320000   20.029360   -21.477736
 0.325000   19.921999   -21.466150
 0.330000   19.814699   -21.453492
 0.335000   19.707464   -21.439769
 0.340000   19.600301   -21.424988
 0.345000   19.493214   -21.409156
 0.350000   19.386209   -21.392282
 0.355000   19.279291   -21.374373
 0.360000   19.172466   -21.355435
 0.365000   19.065737   -21.335477
 0.370000   18.959111   -21.314506
 0.375000   18.852592   -21.292530
 0.380000   18.746186   -21.269557
 0.385000   18.639896   -21.245595
 0.390000   18.533730   -21.220651
 0.395000   18.427690   -21.194734
 0.400000   18.321782   -21.167851
 0.405000   18.216011   -21.140010
 0.410000   18.110382   -21.111220
 0.415000   18.004899   -21.081489
 0.420000   17.899567   -21.050824
 0.425000   17.794391   -21.019235
 0.430000   17.689375   -20.986729
 0.435000   17.584524   -20.953315
 0.440000   17.479842   -20.919000
 0.445000   17.375334   -20.883794
 0.450000   17.271004   -20.847706
 0.455000   17.166857   -20.810742
 0.460000   17.062896   -20.772912
 0.465000   16.959128   -20.734225
 0.470000   16.855554   -20.694689
 0.475000   16.752181   -20.654312
 0.480000   16.649011   -20.613104
 0.485000   16.546050   -20.571072
 0.490000   16.443300   -20.528226
 0.495000   16.340767   -20.484575
 0.500000   16.238455   -20.440126
 0.505000   16.136366   -20.394890
 0.510000   16.034506   -20.348874
 0.515000   15.932877   -20.302087
 0.520000   15.831485   -20.254539
 0.525000   15.730332   -20.206238
 0.530000   15.629422   -20.157193
 0.535000   15.528760   -20.107414
 0.540000   15.428348   -20.056908
 0.545000   15.328191   -20.005684
 0.550000   15.228291   -19.953753
 0.555000   15.128653   -19.901122
 0.560000   15.029280   -19.847801
 0.565000   14.930175   -19.793798
 0.570000   14.831342   -19.739123
 0.575000   14.732784   -19.683785
 0.580000   14.634504   -19.627792
 0.585000   14.536506   -19.571153
 0.590000   14.438793   -19.513878
 0.595000   14.341367   -19.455976
 0.600000   14.244233   -19.397455
 0.605000   14.147393   -19.338325
 0.610000   14.050850   -19.278594
 0.615000   13.954607   -19.218271
 0.620000   13.858667   -19.157366
 0.625000   13.763033   -19.095888
 0.630000   13.667708   -19.033845
 0.635000   13.572695   -18.971246
 0.640000   13.477996   -18.908100
 0.645000   13.383614   -18.844417
 0.650000   13.289552   -18.780206
 0.655000   13.195812   -18.715474
 0.660000   13.102397   -18.650231
 0.665000   13.009310   -18.584487
 0.670000   12.916552   -18.518249
 0.675000   12.824127   -18.451527
 0.680000   12.732037   -18.384330
 0.685000   12.640284   -18.316666
 0.690000   12.548870   -18.248545
 0.695000   12.457798   -18.179974
 0.700000   12.367070   -18.110964
 0.705000   12.276689   -18.041523
 0.710000   12.186655   -17.971660
 0.715000   12.096972   -17.901383
 0.720000   12.007641   -17.830703
 0.725000   11.918665   -17.759628
 0.730000   11.830045   -17.688168
 0.735000   11.741783   -17.616333
 0.740000   11.653882   -17.544134
 0.745000   11.566342   -17.471583
 0.750000   11.479166   -17.398693
 0.755000   11.392355   -17.325479
 0.760000   11.305911   -17.251962
 0.765000   11.219835   -17.178166
 0.770000   11.134129   -17.104122
 0.775000   11.048794   -17.029874
 0.780000   10.963831   -16.955480
 0.785000   10.879239   -16.881023
 0.790000   10.795020   -16.806620
 0.795000   10.711173   -16.732435
 0.800000   10.627696   -16.658703
 0.805000   10.544586   -16.585759
 0.810000   10.461839   -16.514071
 0.815000   10.379445   -16.444303
 0.820000   10.297396   -16.377374
 0.825000   10.215672   -16.314551
 0.830000   10.134250   -16.257539
 0.835000   10.053096   -16.208591
 0.840000   9.972164   -16.170569
 0.845000   9.891391   -16.146924
 0.850000   9.810695   -16.141439
 0.855000   9.729976   -16.157489
 0.860000   9.649120   -16.196331
 0.865000   9.568013   -16.253565
 0.870000   9.486584   -16.312169
 0.875000   9.404891   -16.329325
 0.880000   9.323291   -16.212046
 0.885000   9.242771   -15.772853
 0.890000   9.165563   -14.650030
 0.895000   9.096271   -12.165262
 0.900000   9.043910   -7.070576
 0.905000   9.025565   2.900340
 0.910000   9.072913   21.826476
 0.915000   9.243830   57.002549
 0.920000   9.642939   121.402263
 0.925000   10.457852   237.937170
 0.930000   12.022311   446.560361
 0.935000   14.923456   815.155381
 0.940000   20.173864   1452.754201
 0.945000   29.450998   2512.606502
 0.950000   45.299929   4135.653601
 0.955000   70.807534   6199.237978
 0.960000   107.292309   7715.550305
 0.965000   147.963037   6466.134009
 0.970000   171.953649   1040.218175
 0.975000   158.365219   -5601.875452
 0.980000   115.934895   -8564.954211
 0.985000   72.715676   -7323.111834
 0.990000   42.703776   -4774.710847
 0.995000   24.968568   -2763.161160
 1.000000   15.072165   -1195.400125
201 psinorm kpol(km/s/T) dkpol/dpsiN
 0.000000   -0.002784   144.230357
 0.005000   0.568343   84.220624
 0.010000   0.839422   50.438732
 0.015000   1.072731   44.989156
 0.020000   1.289314   42.312048
 0.025000   1.495851   40.103907
 0.030000   1.690353   37.799572
 0.035000   1.873847   35.961684
 0.040000   2.049970   34.412939
 0.045000   2.217976   33.089039
 0.050000   2.380860   32.140465
 0.055000   2.539381   31.622703
 0.060000   2.697087   31.567361
 0.065000   2.855055   31.653104
 0.070000   3.013618   31.763155
 0.075000   3.172686   31.820596
 0.080000   3.331824   31.765607
 0.085000   3.490342   31.413980
 0.090000   3.645964   30.741317
 0.095000   3.797755   29.939718
 0.100000   3.945361   29.165010
 0.105000   4.089405   28.500023
 0.110000   4.230361   28.004487
 0.115000   4.369450   27.788589
 0.120000   4.508247   27.832608
 0.125000   4.647776   28.067582
 0.130000   4.788923   28.383563
 0.135000   4.931612   28.681404
 0.140000   5.075737   28.802482
 0.145000   5.219637   28.559265
 0.150000   5.361330   27.961786
 0.155000   5.499255   26.804068
 0.160000   5.629370   25.327038
 0.165000   5.752525   23.647617
 0.170000   5.865846   21.587994
 0.175000   5.968405   19.242957
 0.180000   6.058276   16.722913
 0.185000   6.135634   14.343242
 0.190000   6.201708   12.026831
 0.195000   6.255902   9.927856
 0.200000   6.300987   7.999640
 0.205000   6.335899   6.199229
 0.210000   6.362979   4.831585
 0.215000   6.384215   3.582930
 0.220000   6.398809   2.305143
 0.225000   6.407266   1.002250
 0.230000   6.408831   -0.487434
 0.235000   6.402392   -1.942020
 0.240000   6.389411   -3.502221
 0.245000   6.367370   -5.245423
 0.250000   6.336957   -6.866616
 0.255000   6.298703   -8.596381
 0.260000   6.250993   -10.349470
 0.265000   6.195209   -11.992158
 0.270000   6.131071   -13.803765
 0.275000   6.057171   -15.715475
 0.280000   5.973917   -17.788431
 0.285000   5.879287   -20.228078
 0.290000   5.771636   -22.821349
 0.295000   5.651073   -25.722064
 0.300000   5.514415   -28.993789
 0.305000   5.361135   -32.306374
 0.310000   5.191351   -35.788799
 0.315000   5.003247   -39.478794
 0.320000   4.796563   -43.009023
 0.325000   4.573157   -46.257254
 0.330000   4.333991   -49.037058
 0.335000   4.082787   -51.090791
 0.340000   3.823083   -52.516889
 0.345000   3.557618   -53.401813
 0.350000   3.289065   -53.599264
 0.355000   3.021625   -53.624334
 0.360000   2.752822   -54.153825
 0.365000   2.480087   -55.024953
 0.370000   2.202572   -56.366512
 0.375000   1.916422   -58.370970
 0.380000   1.618862   -61.297322
 0.385000   1.303448   -64.851094
 0.390000   0.970351   -68.239390
 0.395000   0.621055   -71.220118
 0.400000   0.258150   -73.725316
 0.405000   -0.116199   -75.576412
 0.410000   -0.497614   -76.672485
 0.415000   -0.882923   -77.858894
 0.420000   -1.276203   -80.099504
 0.425000   -1.683918   -83.738878
 0.430000   -2.113592   -88.907617
 0.435000   -2.572995   -95.777122
 0.440000   -3.071363   -104.825692
 0.445000   -3.621252   -114.739936
 0.450000   -4.218762   -124.142130
 0.455000   -4.862673   -132.986276
 0.460000   -5.548625   -140.614038
 0.465000   -6.268813   -146.466482
 0.470000   -7.013290   -149.110868
 0.475000   -7.759922   -147.179120
 0.480000   -8.485081   -141.343367
 0.485000   -9.173356   -132.538046
 0.490000   -9.810461   -121.200860
 0.495000   -10.385364   -107.590293
 0.500000   -10.886364   -92.738315
 0.505000   -11.312747   -78.785444
 0.510000   -11.674219   -66.557321
 0.515000   -11.978321   -56.118150
 0.520000   -12.235400   -47.586569
 0.525000   -12.454186   -40.915457
 0.530000   -12.644555   -36.631468
 0.535000   -12.820501   -34.367303
 0.540000   -12.988228   -32.794907
 0.545000   -13.148450   -31.322500
 0.550000   -13.301453   -29.964264
 0.555000   -13.448093   -28.598030
 0.560000   -13.587433   -26.964077
 0.565000   -13.717733   -25.030807
 0.570000   -13.837741   -23.023075
 0.575000   -13.947964   -20.835537
 0.580000   -14.046097   -18.355556
 0.585000   -14.131520   -15.877175
 0.590000   -14.204868   -13.382597
 0.595000   -14.265346   -10.817837
 0.600000   -14.313047   -8.305104
 0.605000   -14.348397   -6.025649
 0.610000   -14.373303   -3.906980
 0.615000   -14.387467   -1.831705
 0.620000   -14.391620   -0.012205
 0.625000   -14.387589   1.527981
 0.630000   -14.376341   2.995541
 0.635000   -14.357633   4.417016
 0.640000   -14.332170   5.639326
 0.645000   -14.301240   6.796317
 0.650000   -14.264207   7.952252
 0.655000   -14.221717   9.036444
 0.660000   -14.173843   10.025073
 0.665000   -14.121467   10.969617
 0.670000   -14.064147   11.895602
 0.675000   -14.002511   12.854263
 0.680000   -13.935604   13.990597
 0.685000   -13.862605   15.379667
 0.690000   -13.781807   17.051601
 0.695000   -13.692089   18.887663
 0.700000   -13.592931   20.999821
 0.705000   -13.482090   23.296845
 0.710000   -13.359962   25.372307
 0.715000   -13.228367   27.046702
 0.720000   -13.089495   28.247968
 0.725000   -12.945888   28.867598
 0.730000   -12.800819   28.743103
 0.735000   -12.658457   27.763908
 0.740000   -12.523180   26.036537
 0.745000   -12.398091   23.761170
 0.750000   -12.285568   21.061849
 0.755000   -12.187473   18.182635
 0.760000   -12.103742   15.215230
 0.765000   -12.035321   12.382889
 0.770000   -11.979913   9.977758
 0.775000   -11.935543   7.933523
 0.780000   -11.900578   6.183181
 0.785000   -11.873711   4.670043
 0.790000   -11.853878   3.249781
 0.795000   -11.841213   1.717079
 0.800000   -11.836707   -0.083606
 0.805000   -11.842049   -2.241249
 0.810000   -11.859119   -4.730093
 0.815000   -11.889350   -7.542147
 0.820000   -11.934541   -10.657921
 0.825000   -11.995930   -13.929773
 0.830000   -12.073838   -17.183839
 0.835000   -12.167768   -20.232584
 0.840000   -12.276164   -22.989106
 0.845000   -12.397659   -25.349668
 0.850000   -12.529661   -27.014854
 0.855000   -12.667808   -27.980582
 0.860000   -12.809467   -28.501843
 0.865000   -12.952826   -28.791385
 0.870000   -13.097381   -28.927397
 0.875000   -13.242100   -29.019680
 0.880000   -13.387577   -29.528127
 0.885000   -13.537381   -30.518365
 0.890000   -13.692761   -31.793037
 0.895000   -13.855312   -33.407331
 0.900000   -14.026834   -35.421119
 0.905000   -14.209523   -37.911318
 0.910000   -14.405948   -40.140140
 0.915000   -14.610924   -40.608387
 0.920000   -14.812031   -38.096916
 0.925000   -14.991893   -31.303084
 0.930000   -15.125062   -18.486992
 0.935000   -15.176763   2.957737
 0.940000   -15.095485   40.721531
 0.945000   -14.769548   94.096555
 0.950000   -14.154519   154.700202
 0.955000   -13.222546   209.966892
 0.960000   -12.054850   230.313022
 0.965000   -10.919416   167.900316
 0.970000   -10.375847   -8.954075
 0.975000   -11.008956   -222.920597
 0.980000   -12.605053   -239.265580
 0.985000   -13.401612   237.951858
 0.990000   -10.225535   1250.922283
 0.995000   -0.892389   2282.946955
 1.000000   12.603935   3115.582748
201 psinorm omghb() domghb/dpsiN
 0.000000   -0.000049   0.023741
 0.005000   0.000015   0.001932
 0.010000   -0.000030   0.024887
 0.015000   0.000264   0.070193
 0.020000   0.000672   0.089339
 0.025000   0.001157   0.101922
 0.030000   0.001691   0.121336
 0.035000   0.002370   0.139556
 0.040000   0.003087   0.150973
 0.045000   0.003880   0.159002
 0.050000   0.004677   0.152130
 0.055000   0.005401   0.145893
 0.060000   0.006136   0.141289
 0.065000   0.006814   0.133115
 0.070000   0.007467   0.137971
 0.075000   0.008194   0.148594
 0.080000   0.008953   0.149086
 0.085000   0.009685   0.154438
 0.090000   0.010497   0.168746
 0.095000   0.011372   0.171821
 0.100000   0.012215   0.181672
 0.105000   0.013189   0.174263
 0.110000   0.013958   0.150763
 0.115000   0.014697   0.125564
 0.120000   0.015214   0.110113
 0.125000   0.015798   0.077424
 0.130000   0.015988   0.040329
 0.135000   0.016201   0.041063
 0.140000   0.016398   0.066531
 0.145000   0.016866   0.090860
 0.150000   0.017307   0.107876
 0.155000   0.017945   0.130738
 0.160000   0.018614   0.163159
 0.165000   0.019577   0.221266
 0.170000   0.020827   0.240643
 0.175000   0.021983   0.260263
 0.180000   0.023430   0.281939
 0.185000   0.024803   0.290341
 0.190000   0.026333   0.331184
 0.195000   0.028114   0.350001
 0.200000   0.029833   0.351611
 0.205000   0.031631   0.311514
 0.210000   0.032948   0.275407
 0.215000   0.034385   0.303257
 0.220000   0.035981   0.318956
 0.225000   0.037574   0.249287
 0.230000   0.038474   0.179880
 0.235000   0.039373   0.146200
 0.240000   0.039936   0.097484
 0.245000   0.040348   0.035430
 0.250000   0.040290   -0.004316
 0.255000   0.040305   -0.070631
 0.260000   0.039584   -0.112501
 0.265000   0.039180   -0.059807
 0.270000   0.038986   -0.030091
 0.275000   0.038879   0.005085
 0.280000   0.039036   0.033259
 0.285000   0.039211   0.124980
 0.290000   0.040286   0.251129
 0.295000   0.041723   0.363316
 0.300000   0.043919   0.499581
 0.305000   0.046718   0.617354
 0.310000   0.050093   0.697800
 0.315000   0.053696   0.799121
 0.320000   0.058084   0.806674
 0.325000   0.061763   0.712223
 0.330000   0.065206   0.621936
 0.335000   0.067983   0.454185
 0.340000   0.069748   0.382237
 0.345000   0.071805   0.267414
 0.350000   0.072422   0.104282
 0.355000   0.072848   0.095537
 0.360000   0.073378   0.102491
 0.365000   0.073873   0.128421
 0.370000   0.074662   0.209544
 0.375000   0.075968   0.153179
 0.380000   0.076194   0.149070
 0.385000   0.077459   0.314185
 0.390000   0.079336   0.378684
 0.395000   0.081246   0.347026
 0.400000   0.082806   0.167834
 0.405000   0.082924   0.178785
 0.410000   0.084594   0.441646
 0.415000   0.087340   0.613717
 0.420000   0.090731   0.946272
 0.425000   0.096803   1.444585
 0.430000   0.105177   1.765284
 0.435000   0.114456   2.047256
 0.440000   0.125649   2.326802
 0.445000   0.137724   2.437874
 0.450000   0.150028   2.647497
 0.455000   0.164199   2.532252
 0.460000   0.175351   1.973248
 0.465000   0.183931   1.466092
 0.470000   0.190011   0.814614
 0.475000   0.192078   0.029108
 0.480000   0.190303   -0.838834
 0.485000   0.183689   -1.672171
 0.490000   0.173581   -2.194267
 0.495000   0.161747   -2.465252
 0.500000   0.148928   -2.577265
 0.505000   0.135974   -2.510469
 0.510000   0.123824   -2.434048
 0.515000   0.111633   -2.040572
 0.520000   0.103418   -1.469325
 0.525000   0.096940   -1.147619
 0.530000   0.091942   -0.743959
 0.535000   0.089501   -0.437386
 0.540000   0.087568   -0.352231
 0.545000   0.085978   -0.291902
 0.550000   0.084649   -0.260219
 0.555000   0.083376   -0.281939
 0.560000   0.081829   -0.181629
 0.565000   0.081560   -0.065116
 0.570000   0.081178   -0.104993
 0.575000   0.080510   -0.110587
 0.580000   0.080072   -0.061252
 0.585000   0.079897   0.008401
 0.590000   0.080156   0.070534
 0.595000   0.080603   0.093154
 0.600000   0.081088   0.122018
 0.605000   0.081823   0.160469
 0.610000   0.082693   0.196481
 0.615000   0.083788   0.312110
 0.620000   0.085814   0.298075
 0.625000   0.086768   0.226154
 0.630000   0.088075   0.257509
 0.635000   0.089344   0.261436
 0.640000   0.090690   0.269782
 0.645000   0.092041   0.352453
 0.650000   0.094214   0.290643
 0.655000   0.094948   0.230885
 0.660000   0.096523   0.364245
 0.665000   0.098590   0.484992
 0.670000   0.101373   0.675276
 0.675000   0.105343   1.211947
 0.680000   0.113492   1.292178
 0.685000   0.118265   0.780691
 0.690000   0.121299   0.582688
 0.695000   0.124092   0.446973
 0.700000   0.125769   0.210992
 0.705000   0.126202   0.317985
 0.710000   0.128949   -0.122395
 0.715000   0.124978   -0.948269
 0.720000   0.119466   -0.976191
 0.725000   0.115216   -0.956522
 0.730000   0.109901   -1.135725
 0.735000   0.103858   -1.337524
 0.740000   0.096526   -1.710876
 0.745000   0.086750   -1.693747
 0.750000   0.079588   -1.316549
 0.755000   0.073584   -1.040686
 0.760000   0.069181   -0.702953
 0.765000   0.066555   -0.607456
 0.770000   0.063107   -0.326036
 0.775000   0.063294   0.586314
 0.780000   0.068970   0.879694
 0.785000   0.072091   0.717934
 0.790000   0.076149   0.783884
 0.795000   0.079930   0.727127
 0.800000   0.083421   0.972848
 0.805000   0.089659   1.327657
 0.810000   0.096697   1.117079
 0.815000   0.100829   0.834006
 0.820000   0.105037   0.812810
 0.825000   0.108957   0.836409
 0.830000   0.113401   0.974265
 0.835000   0.118700   0.781405
 0.840000   0.121215   0.695087
 0.845000   0.125651   0.989185
 0.850000   0.131107   1.219932
 0.855000   0.137850   1.587763
 0.860000   0.146985   2.279087
 0.865000   0.160641   2.686269
 0.870000   0.173848   3.213472
 0.875000   0.192776   4.265317
 0.880000   0.216501   5.203500
 0.885000   0.244811   6.054779
 0.890000   0.277049   7.880751
 0.895000   0.323618   8.791619
 0.900000   0.364965   9.209281
 0.905000   0.415711   10.668988
 0.910000   0.471655   11.635782
 0.915000   0.532069   12.502485
 0.920000   0.596679   16.324248
 0.925000   0.695312   16.217585
 0.930000   0.758855   14.861247
 0.935000   0.843924   17.540148
 0.940000   0.934257   18.201681
 0.945000   1.025941   17.907891
 0.950000   1.113336   21.523459
 0.955000   1.241175   10.218231
 0.960000   1.215518   -6.105827
 0.965000   1.180117   -8.730982
 0.970000   1.128208   -20.020430
 0.975000   0.979913   -60.443129
 0.980000   0.523777   -152.294568
 0.985000   -0.543033   -277.276617
 0.990000   -2.248989   -326.685823
 0.995000   -3.809891   -192.445776
 1.000000   -4.173447   47.023385
201 psinorm nz1(10^20/m^3) dnz1/dpsiN
 0.000000   0.017972   0.000000
 0.005000   0.017971   -0.000189
 0.010000   0.017970   -0.000381
 0.015000   0.017967   -0.000575
 0.020000   0.017964   -0.000772
 0.025000   0.017960   -0.000971
 0.030000   0.017954   -0.001170
 0.035000   0.017948   -0.001369
 0.040000   0.017941   -0.001566
 0.045000   0.017932   -0.001759
 0.050000   0.017923   -0.001949
 0.055000   0.017913   -0.002135
 0.060000   0.017902   -0.002316
 0.065000   0.017890   -0.002492
 0.070000   0.017877   -0.002663
 0.075000   0.017863   -0.002829
 0.080000   0.017848   -0.002992
 0.085000   0.017833   -0.003149
 0.090000   0.017817   -0.003302
 0.095000   0.017800   -0.003449
 0.100000   0.017783   -0.003591
 0.105000   0.017764   -0.003727
 0.110000   0.017745   -0.003857
 0.115000   0.017726   -0.003979
 0.120000   0.017705   -0.004093
 0.125000   0.017685   -0.004199
 0.130000   0.017663   -0.004296
 0.135000   0.017642   -0.004384
 0.140000   0.017620   -0.004462
 0.145000   0.017597   -0.004530
 0.150000   0.017574   -0.004589
 0.155000   0.017551   -0.004637
 0.160000   0.017528   -0.004676
 0.165000   0.017504   -0.004704
 0.170000   0.017481   -0.004723
 0.175000   0.017457   -0.004732
 0.180000   0.017434   -0.004731
 0.185000   0.017410   -0.004720
 0.190000   0.017386   -0.004698
 0.195000   0.017363   -0.004665
 0.200000   0.017340   -0.004622
 0.205000   0.017317   -0.004569
 0.210000   0.017294   -0.004507
 0.215000   0.017272   -0.004438
 0.220000   0.017250   -0.004363
 0.225000   0.017228   -0.004283
 0.230000   0.017207   -0.004197
 0.235000   0.017186   -0.004103
 0.240000   0.017166   -0.003999
 0.245000   0.017146   -0.003885
 0.250000   0.017127   -0.003760
 0.255000   0.017108   -0.003625
 0.260000   0.017091   -0.003474
 0.265000   0.017074   -0.003307
 0.270000   0.017058   -0.003125
 0.275000   0.017042   -0.002928
 0.280000   0.017028   -0.002716
 0.285000   0.017015   -0.002490
 0.290000   0.017003   -0.002251
 0.295000   0.016993   -0.002001
 0.300000   0.016983   -0.001743
 0.305000   0.016975   -0.001477
 0.310000   0.016969   -0.001206
 0.315000   0.016963   -0.000932
 0.320000   0.016959   -0.000656
 0.325000   0.016957   -0.000382
 0.330000   0.016956   -0.000107
 0.335000   0.016956   0.000169
 0.340000   0.016957   0.000448
 0.345000   0.016960   0.000732
 0.350000   0.016965   0.001023
 0.355000   0.016970   0.001322
 0.360000   0.016978   0.001628
 0.365000   0.016987   0.001940
 0.370000   0.016997   0.002255
 0.375000   0.017009   0.002573
 0.380000   0.017023   0.002887
 0.385000   0.017038   0.003193
 0.390000   0.017055   0.003488
 0.395000   0.017073   0.003767
 0.400000   0.017093   0.004029
 0.405000   0.017113   0.004266
 0.410000   0.017135   0.004476
 0.415000   0.017158   0.004660
 0.420000   0.017182   0.004819
 0.425000   0.017206   0.004951
 0.430000   0.017231   0.005058
 0.435000   0.017257   0.005141
 0.440000   0.017283   0.005207
 0.445000   0.017309   0.005266
 0.450000   0.017335   0.005317
 0.455000   0.017362   0.005360
 0.460000   0.017389   0.005394
 0.465000   0.017416   0.005419
 0.470000   0.017443   0.005428
 0.475000   0.017470   0.005412
 0.480000   0.017497   0.005364
 0.485000   0.017524   0.005283
 0.490000   0.017550   0.005167
 0.495000   0.017576   0.005015
 0.500000   0.017600   0.004824
 0.505000   0.017624   0.004593
 0.510000   0.017646   0.004324
 0.515000   0.017667   0.004020
 0.520000   0.017686   0.003682
 0.525000   0.017704   0.003313
 0.530000   0.017719   0.002915
 0.535000   0.017733   0.002495
 0.540000   0.017744   0.002053
 0.545000   0.017754   0.001590
 0.550000   0.017760   0.001106
 0.555000   0.017765   0.000603
 0.560000   0.017766   0.000079
 0.565000   0.017765   -0.000467
 0.570000   0.017762   -0.001035
 0.575000   0.017755   -0.001626
 0.580000   0.017745   -0.002238
 0.585000   0.017733   -0.002871
 0.590000   0.017717   -0.003519
 0.595000   0.017698   -0.004177
 0.600000   0.017675   -0.004843
 0.605000   0.017649   -0.005511
 0.610000   0.017620   -0.006180
 0.615000   0.017587   -0.006846
 0.620000   0.017551   -0.007506
 0.625000   0.017512   -0.008162
 0.630000   0.017470   -0.008815
 0.635000   0.017424   -0.009463
 0.640000   0.017375   -0.010105
 0.645000   0.017323   -0.010741
 0.650000   0.017268   -0.011372
 0.655000   0.017209   -0.011999
 0.660000   0.017148   -0.012617
 0.665000   0.017083   -0.013232
 0.670000   0.017015   -0.013865
 0.675000   0.016944   -0.014558
 0.680000   0.016870   -0.015429
 0.685000   0.016790   -0.016538
 0.690000   0.016704   -0.017829
 0.695000   0.016612   -0.019272
 0.700000   0.016512   -0.020855
 0.705000   0.016403   -0.022543
 0.710000   0.016286   -0.024381
 0.715000   0.016160   -0.026269
 0.720000   0.016024   -0.027991
 0.725000   0.015880   -0.029509
 0.730000   0.015729   -0.030799
 0.735000   0.015572   -0.031791
 0.740000   0.015411   -0.032429
 0.745000   0.015247   -0.032605
 0.750000   0.015085   -0.032267
 0.755000   0.014925   -0.031485
 0.760000   0.014770   -0.030322
 0.765000   0.014621   -0.028835
 0.770000   0.014481   -0.027046
 0.775000   0.014351   -0.025034
 0.780000   0.014231   -0.023034
 0.785000   0.014121   -0.021159
 0.790000   0.014019   -0.019390
 0.795000   0.013927   -0.017761
 0.800000   0.013842   -0.016281
 0.805000   0.013764   -0.014982
 0.810000   0.013692   -0.013899
 0.815000   0.013625   -0.012962
 0.820000   0.013562   -0.012081
 0.825000   0.013504   -0.011228
 0.830000   0.013450   -0.010388
 0.835000   0.013400   -0.009566
 0.840000   0.013354   -0.008773
 0.845000   0.013313   -0.008021
 0.850000   0.013274   -0.007308
 0.855000   0.013239   -0.006639
 0.860000   0.013208   -0.006014
 0.865000   0.013179   -0.005434
 0.870000   0.013154   -0.004920
 0.875000   0.013130   -0.004494
 0.880000   0.013109   -0.004161
 0.885000   0.013088   -0.003924
 0.890000   0.013069   -0.003794
 0.895000   0.013051   -0.003827
 0.900000   0.013031   -0.004052
 0.905000   0.013010   -0.004501
 0.910000   0.012986   -0.005300
 0.915000   0.012957   -0.006659
 0.920000   0.012919   -0.008927
 0.925000   0.012868   -0.012935
 0.930000   0.012790   -0.019549
 0.935000   0.012672   -0.029876
 0.940000   0.012491   -0.045671
 0.945000   0.012216   -0.068605
 0.950000   0.011805   -0.099624
 0.955000   0.011219   -0.139278
 0.960000   0.010413   -0.182816
 0.965000   0.009391   -0.220831
 0.970000   0.008204   -0.244879
 0.975000   0.006942   -0.248790
 0.980000   0.005716   -0.232074
 0.985000   0.004622   -0.200401
 0.990000   0.003712   -0.162042
 0.995000   0.003001   -0.124828
 1.000000   0.002464   -0.090040
201 psinorm vtor1(km/s) dvtor1/dpsiN
 0.000000   116.854083   563.339845
 0.005000   119.039620   310.874783
 0.010000   119.962831   162.457793
 0.015000   120.664197   127.914981
 0.020000   121.241981   107.555526
 0.025000   121.739753   94.078714
 0.030000   122.182768   84.000438
 0.035000   122.579757   75.025630
 0.040000   122.933024   67.085647
 0.045000   123.250614   60.221836
 0.050000   123.535242   53.735121
 0.055000   123.787965   47.454205
 0.060000   124.009784   41.646351
 0.065000   124.204428   36.382156
 0.070000   124.373606   31.356788
 0.075000   124.517996   26.637764
 0.080000   124.639984   22.258083
 0.085000   124.740577   18.067538
 0.090000   124.820659   13.897573
 0.095000   124.879553   9.819267
 0.100000   124.918852   5.913434
 0.105000   124.938687   1.967932
 0.110000   124.938531   -2.063863
 0.115000   124.918048   -6.021363
 0.120000   124.878317   -9.897989
 0.125000   124.819069   -13.835275
 0.130000   124.739965   -17.662830
 0.135000   124.642440   -21.348657
 0.140000   124.526478   -25.061775
 0.145000   124.391822   -28.778302
 0.150000   124.238695   -32.433546
 0.155000   124.067487   -36.040833
 0.160000   123.878287   -39.658513
 0.165000   123.670902   -43.232895
 0.170000   123.445958   -46.745515
 0.175000   123.203447   -50.267547
 0.180000   122.943282   -53.817106
 0.185000   122.665276   -57.367302
 0.190000   122.369609   -60.902861
 0.195000   122.056247   -64.404206
 0.200000   121.725567   -67.740492
 0.205000   121.378842   -70.809808
 0.210000   121.017469   -73.598795
 0.215000   120.642854   -76.111367
 0.220000   120.256355   -78.265921
 0.225000   119.860195   -79.953831
 0.230000   119.456817   -81.353999
 0.235000   119.046655   -82.570075
 0.240000   118.631116   -83.493666
 0.245000   118.211718   -84.116271
 0.250000   117.789954   -84.409944
 0.255000   117.367619   -84.223044
 0.260000   116.947723   -83.840834
 0.265000   116.529211   -83.535570
 0.270000   116.112368   -83.202195
 0.275000   115.697189   -82.878363
 0.280000   115.283584   -82.607289
 0.285000   114.871116   -82.461659
 0.290000   114.458967   -82.624077
 0.295000   114.044875   -83.129283
 0.300000   113.627674   -83.844714
 0.305000   113.206428   -84.716261
 0.310000   112.780512   -85.628678
 0.315000   112.350141   -86.532503
 0.320000   111.915187   -87.325024
 0.325000   111.476891   -87.915746
 0.330000   111.036029   -88.353634
 0.335000   110.593354   -88.631291
 0.340000   110.149716   -88.738094
 0.345000   109.705973   -88.644660
 0.350000   109.263270   -88.324690
 0.355000   108.822727   -87.812158
 0.360000   108.385148   -87.120910
 0.365000   107.951517   -86.242014
 0.370000   107.522728   -85.192943
 0.375000   107.099588   -83.934311
 0.380000   106.683385   -82.486791
 0.385000   106.274720   -80.937037
 0.390000   105.874015   -79.302952
 0.395000   105.481691   -77.600671
 0.400000   105.098008   -75.841207
 0.405000   104.723279   -73.987512
 0.410000   104.358133   -72.236266
 0.415000   104.000916   -70.963989
 0.420000   103.648493   -70.363446
 0.425000   103.297281   -70.518055
 0.430000   102.943312   -71.458781
 0.435000   102.582694   -73.390846
 0.440000   102.209404   -76.211414
 0.445000   101.820579   -79.260992
 0.450000   101.416794   -82.302757
 0.455000   100.997552   -85.363708
 0.460000   100.563157   -88.303931
 0.465000   100.114513   -91.255049
 0.470000   99.650606   -94.028482
 0.475000   99.174228   -95.882646
 0.480000   98.691780   -96.746757
 0.485000   98.206760   -96.883689
 0.490000   97.722943   -96.268680
 0.495000   97.244073   -94.953767
 0.500000   96.773405   -92.916659
 0.505000   96.314907   -90.233094
 0.510000   95.871075   -87.265647
 0.515000   95.442250   -84.280009
 0.520000   95.028274   -81.364229
 0.525000   94.628608   -78.564912
 0.530000   94.242625   -75.876310
 0.535000   93.869845   -73.431332
 0.540000   93.508312   -71.344843
 0.545000   93.156397   -69.596113
 0.550000   92.812351   -68.207932
 0.555000   92.474317   -67.191918
 0.560000   92.140432   -66.509025
 0.565000   91.809227   -66.286071
 0.570000   91.477571   -66.614398
 0.575000   91.143083   -67.412122
 0.580000   90.803450   -68.685021
 0.585000   90.456233   -70.454905
 0.590000   90.098901   -72.726573
 0.595000   89.728967   -75.423068
 0.600000   89.344670   -78.417934
 0.605000   88.944788   -81.633911
 0.610000   88.528331   -85.031958
 0.615000   88.094468   -88.576652
 0.620000   87.642564   -92.155334
 0.625000   87.172915   -95.790543
 0.630000   86.684659   -99.535829
 0.635000   86.177556   -103.320385
 0.640000   85.651455   -107.128116
 0.645000   85.106275   -110.939866
 0.650000   84.542056   -114.688758
 0.655000   83.959388   -118.521138
 0.660000   83.356845   -122.606584
 0.665000   82.733322   -126.913639
 0.670000   82.087709   -131.447029
 0.675000   81.418852   -136.208820
 0.680000   80.725620   -141.233171
 0.685000   80.006520   -146.134198
 0.690000   79.264278   -150.395379
 0.695000   78.502566   -153.976266
 0.700000   77.724516   -156.961942
 0.705000   76.932947   -159.424811
 0.710000   76.130268   -161.368881
 0.715000   75.319258   -162.821797
 0.720000   74.502050   -163.867302
 0.725000   73.680585   -164.505280
 0.730000   72.856997   -164.729545
 0.735000   72.033289   -164.556111
 0.740000   71.211436   -163.981492
 0.745000   70.393475   -163.084955
 0.750000   69.580586   -162.080212
 0.755000   68.772672   -161.221784
 0.760000   67.968368   -160.726696
 0.765000   67.165405   -160.721528
 0.770000   66.361153   -161.409843
 0.775000   65.551307   -162.596499
 0.780000   64.735188   -163.251967
 0.785000   63.918787   -162.908691
 0.790000   63.106101   -161.746748
 0.795000   62.301320   -159.766090
 0.800000   61.508440   -157.133809
 0.805000   60.729982   -154.198902
 0.810000   59.966451   -151.090528
 0.815000   59.219076   -147.981866
 0.820000   58.486633   -145.162751
 0.825000   57.767449   -142.734968
 0.830000   57.059283   -140.909514
 0.835000   56.358354   -139.969705
 0.840000   55.659586   -139.685837
 0.845000   54.961495   -140.146000
 0.850000   54.258126   -142.044790
 0.855000   53.541048   -145.901872
 0.860000   52.799107   -152.379143
 0.865000   52.017256   -162.681443
 0.870000   51.172293   -176.908887
 0.875000   50.248167   -194.837922
 0.880000   49.223914   -217.093023
 0.885000   48.077237   -243.873519
 0.890000   46.785178   -275.228329
 0.895000   45.324954   -312.075066
 0.900000   43.664428   -352.513698
 0.905000   41.799817   -394.074672
 0.910000   39.723681   -436.183087
 0.915000   37.437986   -476.773525
 0.920000   34.955946   -513.494215
 0.925000   32.303044   -544.317128
 0.930000   29.512774   -565.567339
 0.935000   26.647370   -574.298889
 0.940000   23.769786   -570.128055
 0.945000   20.946090   -552.982331
 0.950000   18.239962   -523.911238
 0.955000   15.706977   -483.557905
 0.960000   13.404383   -435.597872
 0.965000   11.350999   -385.162865
 0.970000   9.552755   -334.560774
 0.975000   8.005391   -285.752649
 0.980000   6.695228   -240.297648
 0.985000   5.602414   -198.315925
 0.990000   4.712069   -160.925649
 0.995000   3.993158   -129.430330
 1.000000   3.417766   -100.726660
201 psinorm vpol1(km/s) dvpol1/dpsiN
 0.000000   -0.000016   5.149219
 0.005000   0.027039   5.672656
 0.010000   0.056711   6.177344
 0.015000   0.088813   6.629687
 0.020000   0.123008   7.029687
 0.025000   0.159109   7.351563
 0.030000   0.196523   7.571875
 0.035000   0.234828   7.741406
 0.040000   0.273938   7.877344
 0.045000   0.313602   8.007031
 0.050000   0.354008   8.146094
 0.055000   0.395062   8.314844
 0.060000   0.437156   8.541406
 0.065000   0.480477   8.786719
 0.070000   0.525023   9.021875
 0.075000   0.570695   9.237500
 0.080000   0.617398   9.427344
 0.085000   0.664969   9.560937
 0.090000   0.713008   9.599219
 0.095000   0.760961   9.598437
 0.100000   0.808992   9.597656
 0.105000   0.856938   9.595312
 0.110000   0.904945   9.614844
 0.115000   0.953086   9.685938
 0.120000   1.001805   9.813281
 0.125000   1.051219   9.971875
 0.130000   1.101523   10.148437
 0.135000   1.152703   10.328125
 0.140000   1.204805   10.454688
 0.145000   1.257250   10.496094
 0.150000   1.309766   10.437500
 0.155000   1.361625   10.241406
 0.160000   1.412180   9.935937
 0.165000   1.460984   9.557812
 0.170000   1.507758   9.084375
 0.175000   1.551828   8.497656
 0.180000   1.592734   7.861719
 0.185000   1.630445   7.218750
 0.190000   1.664922   6.590625
 0.195000   1.696352   5.995312
 0.200000   1.724875   5.417969
 0.205000   1.750531   4.896094
 0.210000   1.773836   4.450781
 0.215000   1.795039   4.046094
 0.220000   1.814297   3.625000
 0.225000   1.831289   3.173437
 0.230000   1.846031   2.699219
 0.235000   1.858281   2.186719
 0.240000   1.867898   1.640625
 0.245000   1.874688   1.068750
 0.250000   1.878586   0.484375
 0.255000   1.879531   -0.118750
 0.260000   1.877398   -0.731250
 0.265000   1.872219   -1.342188
 0.270000   1.863977   -1.978906
 0.275000   1.852430   -2.671875
 0.280000   1.837258   -3.433594
 0.285000   1.818094   -4.276563
 0.290000   1.794492   -5.209375
 0.295000   1.766000   -6.253125
 0.300000   1.731961   -7.380469
 0.305000   1.692195   -8.571875
 0.310000   1.646242   -9.830469
 0.315000   1.593891   -11.123437
 0.320000   1.535008   -12.414062
 0.325000   1.469750   -13.625781
 0.330000   1.398750   -14.657812
 0.335000   1.323172   -15.490625
 0.340000   1.243844   -16.124219
 0.345000   1.161930   -16.552344
 0.350000   1.078320   -16.773438
 0.355000   0.994195   -16.938281
 0.360000   0.908938   -17.245312
 0.365000   0.821742   -17.673437
 0.370000   0.732203   -18.261719
 0.375000   0.639125   -19.059375
 0.380000   0.541609   -20.171094
 0.385000   0.437414   -21.502344
 0.390000   0.326586   -22.778125
 0.395000   0.209633   -23.920312
 0.400000   0.087383   -24.907031
 0.405000   -0.039437   -25.671875
 0.410000   -0.169336   -26.180469
 0.415000   -0.301242   -26.714063
 0.420000   -0.436477   -27.606250
 0.425000   -0.577305   -28.986719
 0.430000   -0.726344   -30.889062
 0.435000   -0.886195   -33.380469
 0.440000   -1.060148   -36.646875
 0.445000   -1.252664   -40.224219
 0.450000   -1.462391   -43.625000
 0.455000   -1.688914   -46.854687
 0.460000   -1.930937   -49.688281
 0.465000   -2.185797   -51.878125
 0.470000   -2.449719   -52.950781
 0.475000   -2.715305   -52.455469
 0.480000   -2.974273   -50.552344
 0.485000   -3.220828   -47.571875
 0.490000   -3.449992   -43.711719
 0.495000   -3.657945   -39.032031
 0.500000   -3.840313   -33.846094
 0.505000   -3.996406   -28.964063
 0.510000   -4.129953   -24.711719
 0.515000   -4.243523   -21.028125
 0.520000   -4.340234   -17.992187
 0.525000   -4.423445   -15.650000
 0.530000   -4.496734   -14.142187
 0.535000   -4.564867   -13.307812
 0.540000   -4.629812   -12.733594
 0.545000   -4.692203   -12.232031
 0.550000   -4.752133   -11.725000
 0.555000   -4.809453   -11.201562
 0.560000   -4.864148   -10.624219
 0.565000   -4.915695   -9.934375
 0.570000   -4.963492   -9.177344
 0.575000   -5.007469   -8.367188
 0.580000   -5.047164   -7.487500
 0.585000   -5.082344   -6.571094
 0.590000   -5.112875   -5.632812
 0.595000   -5.138672   -4.701563
 0.600000   -5.159891   -3.793750
 0.605000   -5.176609   -2.931250
 0.610000   -5.189203   -2.131250
 0.615000   -5.197922   -1.382031
 0.620000   -5.203023   -0.703125
 0.625000   -5.204953   -0.107031
 0.630000   -5.204094   0.442969
 0.635000   -5.200523   0.960156
 0.640000   -5.194492   1.435938
 0.645000   -5.186164   1.890625
 0.650000   -5.175586   2.315625
 0.655000   -5.163008   2.721094
 0.660000   -5.148375   3.110156
 0.665000   -5.131906   3.475781
 0.670000   -5.113617   3.817187
 0.675000   -5.093734   4.183594
 0.680000   -5.071781   4.621875
 0.685000   -5.047516   5.139844
 0.690000   -5.020383   5.754687
 0.695000   -4.989969   6.443750
 0.700000   -4.955945   7.234375
 0.705000   -4.917625   8.079688
 0.710000   -4.875148   8.847656
 0.715000   -4.829148   9.476562
 0.720000   -4.780383   9.930469
 0.725000   -4.729844   10.165625
 0.730000   -4.678727   10.132812
 0.735000   -4.628516   9.789844
 0.740000   -4.580828   9.168750
 0.745000   -4.536828   8.343750
 0.750000   -4.497391   7.367188
 0.755000   -4.463156   6.324219
 0.760000   -4.434148   5.242969
 0.765000   -4.410727   4.210156
 0.770000   -4.392047   3.338281
 0.775000   -4.377344   2.596875
 0.780000   -4.366078   1.957031
 0.785000   -4.357773   1.407031
 0.790000   -4.352008   0.896094
 0.795000   -4.348813   0.339844
 0.800000   -4.348609   -0.321094
 0.805000   -4.352023   -1.105469
 0.810000   -4.359664   -2.007031
 0.815000   -4.372094   -3.036719
 0.820000   -4.390031   -4.184375
 0.825000   -4.413938   -5.373438
 0.830000   -4.443766   -6.553125
 0.835000   -4.479469   -7.675000
 0.840000   -4.520516   -8.692969
 0.845000   -4.566398   -9.535937
 0.850000   -4.615875   -10.123437
 0.855000   -4.667633   -10.482813
 0.860000   -4.720703   -10.669531
 0.865000   -4.774328   -10.735937
 0.870000   -4.828062   -10.753906
 0.875000   -4.881867   -10.789844
 0.880000   -4.935961   -10.956250
 0.885000   -4.991430   -11.261719
 0.890000   -5.048578   -11.693750
 0.895000   -5.108367   -12.288281
 0.900000   -5.171461   -12.985156
 0.905000   -5.238219   -13.817188
 0.910000   -5.309633   -14.595312
 0.915000   -5.384172   -14.762500
 0.920000   -5.457258   -13.863281
 0.925000   -5.522805   -11.402344
 0.930000   -5.571281   -6.693750
 0.935000   -5.589742   1.205469
 0.940000   -5.559227   13.783594
 0.945000   -5.451906   31.950781
 0.950000   -5.239719   54.337500
 0.955000   -4.908531   75.214063
 0.960000   -4.487578   82.312891
 0.965000   -4.085402   58.576172
 0.970000   -3.901816   -7.531250
 0.975000   -4.160715   -88.583594
 0.980000   -4.787652   -94.019531
 0.985000   -5.100910   88.771094
 0.990000   -3.899941   475.987109
 0.995000   -0.341039   872.642969
 1.000000   4.826488   1194.367969
3 N Z A of ION SPECIES
 6.000000   6.000000   12.010700
 1.000000   1.000000   2.000000
 1.000000   1.000000   2.000000
