201 psinorm ne(10^20/m^3) dne/dpsiN
 0.000000   0.485667   -0.319317
 0.005000   0.484074   -0.317691
 0.010000   0.482490   -0.316070
 0.015000   0.480913   -0.314457
 0.020000   0.479345   -0.312853
 0.025000   0.477785   -0.311259
 0.030000   0.476232   -0.309673
 0.035000   0.474688   -0.308097
 0.040000   0.473151   -0.306529
 0.045000   0.471623   -0.304970
 0.050000   0.470102   -0.303419
 0.055000   0.468589   -0.301878
 0.060000   0.467083   -0.300344
 0.065000   0.465585   -0.298820
 0.070000   0.464095   -0.297304
 0.075000   0.462612   -0.295796
 0.080000   0.461137   -0.294297
 0.085000   0.459669   -0.292806
 0.090000   0.458209   -0.291323
 0.095000   0.456756   -0.289848
 0.100000   0.455310   -0.288382
 0.105000   0.453872   -0.286924
 0.110000   0.452441   -0.285473
 0.115000   0.451017   -0.284031
 0.120000   0.449601   -0.282597
 0.125000   0.448191   -0.281171
 0.130000   0.446789   -0.279752
 0.135000   0.445394   -0.278341
 0.140000   0.444006   -0.276938
 0.145000   0.442624   -0.275543
 0.150000   0.441250   -0.274156
 0.155000   0.439883   -0.272776
 0.160000   0.438522   -0.271403
 0.165000   0.437169   -0.270038
 0.170000   0.435822   -0.268681
 0.175000   0.434482   -0.267331
 0.180000   0.433149   -0.265988
 0.185000   0.431822   -0.264653
 0.190000   0.430502   -0.263325
 0.195000   0.429189   -0.262004
 0.200000   0.427882   -0.260690
 0.205000   0.426582   -0.259383
 0.210000   0.425288   -0.258084
 0.215000   0.424001   -0.256792
 0.220000   0.422720   -0.255506
 0.225000   0.421446   -0.254228
 0.230000   0.420178   -0.252956
 0.235000   0.418917   -0.251691
 0.240000   0.417661   -0.250434
 0.245000   0.416412   -0.249182
 0.250000   0.415169   -0.247938
 0.255000   0.413933   -0.246700
 0.260000   0.412702   -0.245469
 0.265000   0.411478   -0.244245
 0.270000   0.410260   -0.243027
 0.275000   0.409048   -0.241816
 0.280000   0.407842   -0.240611
 0.285000   0.406642   -0.239413
 0.290000   0.405448   -0.238221
 0.295000   0.404260   -0.237035
 0.300000   0.403077   -0.235856
 0.305000   0.401901   -0.234683
 0.310000   0.400731   -0.233516
 0.315000   0.399566   -0.232356
 0.320000   0.398407   -0.231201
 0.325000   0.397254   -0.230053
 0.330000   0.396106   -0.228911
 0.335000   0.394965   -0.227775
 0.340000   0.393829   -0.226645
 0.345000   0.392698   -0.225521
 0.350000   0.391573   -0.224403
 0.355000   0.390454   -0.223290
 0.360000   0.389341   -0.222184
 0.365000   0.388232   -0.221084
 0.370000   0.387130   -0.219989
 0.375000   0.386033   -0.218900
 0.380000   0.384941   -0.217816
 0.385000   0.383854   -0.216739
 0.390000   0.382773   -0.215667
 0.395000   0.381698   -0.214601
 0.400000   0.380627   -0.213540
 0.405000   0.379562   -0.212485
 0.410000   0.378502   -0.211435
 0.415000   0.377448   -0.210391
 0.420000   0.376399   -0.209352
 0.425000   0.375354   -0.208318
 0.430000   0.374315   -0.207290
 0.435000   0.373282   -0.206268
 0.440000   0.372253   -0.205250
 0.445000   0.371229   -0.204238
 0.450000   0.370210   -0.203231
 0.455000   0.369197   -0.202230
 0.460000   0.368188   -0.201233
 0.465000   0.367184   -0.200242
 0.470000   0.366186   -0.199256
 0.475000   0.365192   -0.198274
 0.480000   0.364203   -0.197298
 0.485000   0.363219   -0.196327
 0.490000   0.362240   -0.195361
 0.495000   0.361265   -0.194400
 0.500000   0.360296   -0.193444
 0.505000   0.359331   -0.192492
 0.510000   0.358371   -0.191546
 0.515000   0.357415   -0.190604
 0.520000   0.356465   -0.189667
 0.525000   0.355519   -0.188735
 0.530000   0.354577   -0.187808
 0.535000   0.353641   -0.186885
 0.540000   0.352708   -0.185967
 0.545000   0.351781   -0.185054
 0.550000   0.350858   -0.184146
 0.555000   0.349939   -0.183242
 0.560000   0.349025   -0.182342
 0.565000   0.348116   -0.181447
 0.570000   0.347211   -0.180557
 0.575000   0.346310   -0.179671
 0.580000   0.345414   -0.178789
 0.585000   0.344523   -0.177912
 0.590000   0.343635   -0.177040
 0.595000   0.342752   -0.176171
 0.600000   0.341873   -0.175307
 0.605000   0.340999   -0.174448
 0.610000   0.340129   -0.173593
 0.615000   0.339263   -0.172742
 0.620000   0.338402   -0.171895
 0.625000   0.337544   -0.171052
 0.630000   0.336691   -0.170214
 0.635000   0.335842   -0.169380
 0.640000   0.334997   -0.168550
 0.645000   0.334157   -0.167724
 0.650000   0.333320   -0.166902
 0.655000   0.332488   -0.166084
 0.660000   0.331659   -0.165270
 0.665000   0.330835   -0.164461
 0.670000   0.330015   -0.163655
 0.675000   0.329198   -0.162853
 0.680000   0.328386   -0.162055
 0.685000   0.327578   -0.161261
 0.690000   0.326773   -0.160471
 0.695000   0.325973   -0.159685
 0.700000   0.325177   -0.158903
 0.705000   0.324384   -0.158125
 0.710000   0.323595   -0.157350
 0.715000   0.322810   -0.156579
 0.720000   0.322030   -0.155812
 0.725000   0.321252   -0.155048
 0.730000   0.320479   -0.154289
 0.735000   0.319709   -0.153533
 0.740000   0.318944   -0.152780
 0.745000   0.318182   -0.152032
 0.750000   0.317423   -0.151286
 0.755000   0.316669   -0.150545
 0.760000   0.315918   -0.149807
 0.765000   0.315171   -0.149073
 0.770000   0.314427   -0.148342
 0.775000   0.313687   -0.147614
 0.780000   0.312951   -0.146891
 0.785000   0.312218   -0.146170
 0.790000   0.311489   -0.145453
 0.795000   0.310764   -0.144740
 0.800000   0.310042   -0.144030
 0.805000   0.309324   -0.143323
 0.810000   0.308609   -0.142620
 0.815000   0.307897   -0.141920
 0.820000   0.307190   -0.141223
 0.825000   0.306485   -0.140529
 0.830000   0.305784   -0.139839
 0.835000   0.305087   -0.139152
 0.840000   0.304393   -0.138469
 0.845000   0.303702   -0.137788
 0.850000   0.303015   -0.137111
 0.855000   0.302331   -0.136437
 0.860000   0.301650   -0.135766
 0.865000   0.300973   -0.135099
 0.870000   0.300299   -0.134434
 0.875000   0.299629   -0.133773
 0.880000   0.298962   -0.133116
 0.885000   0.298298   -0.132466
 0.890000   0.297637   -0.131827
 0.895000   0.296980   -0.131213
 0.900000   0.296325   -0.130660
 0.905000   0.295673   -0.130253
 0.910000   0.295022   -0.130208
 0.915000   0.294371   -0.131045
 0.920000   0.293712   -0.134026
 0.925000   0.293031   -0.142180
 0.930000   0.292290   -0.162712
 0.935000   0.291404   -0.212545
 0.940000   0.290165   -0.330520
 0.945000   0.288098   -0.601706
 0.950000   0.284148   -1.193710
 0.955000   0.276161   -2.360019
 0.960000   0.260548   -4.236191
 0.965000   0.233799   -6.288552
 0.970000   0.197662   -7.209879
 0.975000   0.161701   -6.305079
 0.980000   0.134611   -4.445682
 0.985000   0.117244   -2.824040
 0.990000   0.106371   -1.820649
 0.995000   0.099037   -1.286169
 1.000000   0.093509   -0.925066
201 psinorm te(KeV) dte/dpsiN
 0.000000   3.913633   -3.473399
 0.005000   3.896248   -3.480350
 0.010000   3.878829   -3.487186
 0.015000   3.861376   -3.493790
 0.020000   3.843891   -3.500162
 0.025000   3.826375   -3.506305
 0.030000   3.808828   -3.512217
 0.035000   3.791253   -3.517900
 0.040000   3.773649   -3.523354
 0.045000   3.756019   -3.528579
 0.050000   3.738363   -3.533577
 0.055000   3.720683   -3.538348
 0.060000   3.702980   -3.542892
 0.065000   3.685254   -3.547210
 0.070000   3.667508   -3.551304
 0.075000   3.649741   -3.555173
 0.080000   3.631956   -3.558819
 0.085000   3.614153   -3.562241
 0.090000   3.596334   -3.565442
 0.095000   3.578499   -3.568422
 0.100000   3.560649   -3.571181
 0.105000   3.542787   -3.573721
 0.110000   3.524912   -3.576042
 0.115000   3.507027   -3.578145
 0.120000   3.489131   -3.580032
 0.125000   3.471226   -3.581703
 0.130000   3.453314   -3.583159
 0.135000   3.435395   -3.584401
 0.140000   3.417470   -3.585431
 0.145000   3.399540   -3.586248
 0.150000   3.381607   -3.586855
 0.155000   3.363672   -3.587252
 0.160000   3.345735   -3.587440
 0.165000   3.327797   -3.587420
 0.170000   3.309861   -3.587195
 0.175000   3.291925   -3.586763
 0.180000   3.273993   -3.586128
 0.185000   3.256064   -3.585290
 0.190000   3.238140   -3.584250
 0.195000   3.220222   -3.583009
 0.200000   3.202310   -3.581568
 0.205000   3.184406   -3.579930
 0.210000   3.166511   -3.578095
 0.215000   3.148625   -3.576064
 0.220000   3.130750   -3.573838
 0.225000   3.112887   -3.571420
 0.230000   3.095036   -3.568810
 0.235000   3.077199   -3.566009
 0.240000   3.059376   -3.563019
 0.245000   3.041568   -3.559842
 0.250000   3.023777   -3.556478
 0.255000   3.006004   -3.552929
 0.260000   2.988248   -3.549196
 0.265000   2.970512   -3.545281
 0.270000   2.952795   -3.541186
 0.275000   2.935100   -3.536911
 0.280000   2.917426   -3.532458
 0.285000   2.899775   -3.527828
 0.290000   2.882148   -3.523024
 0.295000   2.864545   -3.518046
 0.300000   2.846967   -3.512896
 0.305000   2.829416   -3.507576
 0.310000   2.811892   -3.502087
 0.315000   2.794395   -3.496430
 0.320000   2.776927   -3.490607
 0.325000   2.759489   -3.484620
 0.330000   2.742081   -3.478470
 0.335000   2.724704   -3.472158
 0.340000   2.707360   -3.465687
 0.345000   2.690047   -3.459058
 0.350000   2.672769   -3.452272
 0.355000   2.655525   -3.445331
 0.360000   2.638316   -3.438236
 0.365000   2.621142   -3.430990
 0.370000   2.604006   -3.423594
 0.375000   2.586906   -3.416049
 0.380000   2.569845   -3.408357
 0.385000   2.552823   -3.400520
 0.390000   2.535840   -3.392539
 0.395000   2.518897   -3.384417
 0.400000   2.501996   -3.376153
 0.405000   2.485136   -3.367752
 0.410000   2.468318   -3.359213
 0.415000   2.451544   -3.350538
 0.420000   2.434813   -3.341730
 0.425000   2.418127   -3.332790
 0.430000   2.401485   -3.323720
 0.435000   2.384889   -3.314521
 0.440000   2.368340   -3.305195
 0.445000   2.351837   -3.295743
 0.450000   2.335382   -3.286168
 0.455000   2.318976   -3.276471
 0.460000   2.302618   -3.266654
 0.465000   2.286309   -3.256719
 0.470000   2.270051   -3.246666
 0.475000   2.253842   -3.236498
 0.480000   2.237686   -3.226217
 0.485000   2.221580   -3.215824
 0.490000   2.205527   -3.205321
 0.495000   2.189527   -3.194710
 0.500000   2.173580   -3.183992
 0.505000   2.157687   -3.173169
 0.510000   2.141849   -3.162242
 0.515000   2.126065   -3.151215
 0.520000   2.110336   -3.140087
 0.525000   2.094664   -3.128861
 0.530000   2.079048   -3.117539
 0.535000   2.063489   -3.106122
 0.540000   2.047987   -3.094612
 0.545000   2.032542   -3.083011
 0.550000   2.017156   -3.071320
 0.555000   2.001829   -3.059541
 0.560000   1.986561   -3.047675
 0.565000   1.971352   -3.035726
 0.570000   1.956204   -3.023693
 0.575000   1.941116   -3.011578
 0.580000   1.926088   -2.999385
 0.585000   1.911122   -2.987113
 0.590000   1.896217   -2.974765
 0.595000   1.881374   -2.962343
 0.600000   1.866593   -2.949847
 0.605000   1.851876   -2.937280
 0.610000   1.837221   -2.924644
 0.615000   1.822629   -2.911939
 0.620000   1.808101   -2.899168
 0.625000   1.793637   -2.886333
 0.630000   1.779238   -2.873434
 0.635000   1.764903   -2.860474
 0.640000   1.750633   -2.847454
 0.645000   1.736429   -2.834376
 0.650000   1.722289   -2.821241
 0.655000   1.708216   -2.808050
 0.660000   1.694209   -2.794807
 0.665000   1.680268   -2.781511
 0.670000   1.666394   -2.768165
 0.675000   1.652586   -2.754771
 0.680000   1.638846   -2.741329
 0.685000   1.625173   -2.727841
 0.690000   1.611568   -2.714310
 0.695000   1.598030   -2.700736
 0.700000   1.584560   -2.687120
 0.705000   1.571159   -2.673466
 0.710000   1.557826   -2.659773
 0.715000   1.544561   -2.646043
 0.720000   1.531365   -2.632279
 0.725000   1.518238   -2.618481
 0.730000   1.505180   -2.604651
 0.735000   1.492192   -2.590790
 0.740000   1.479273   -2.576900
 0.745000   1.466423   -2.562983
 0.750000   1.453643   -2.549039
 0.755000   1.440932   -2.535070
 0.760000   1.428292   -2.521077
 0.765000   1.415722   -2.507062
 0.770000   1.403221   -2.493025
 0.775000   1.390791   -2.478968
 0.780000   1.378432   -2.464892
 0.785000   1.366142   -2.450797
 0.790000   1.353924   -2.436683
 0.795000   1.341776   -2.422551
 0.800000   1.329698   -2.408398
 0.805000   1.317692   -2.394223
 0.810000   1.305756   -2.380021
 0.815000   1.293891   -2.365786
 0.820000   1.282098   -2.351508
 0.825000   1.270376   -2.337172
 0.830000   1.258726   -2.322754
 0.835000   1.247149   -2.308222
 0.840000   1.235644   -2.293528
 0.845000   1.224214   -2.278604
 0.850000   1.212858   -2.263354
 0.855000   1.201580   -2.247644
 0.860000   1.190382   -2.231291
 0.865000   1.179267   -2.214052
 0.870000   1.168241   -2.195609
 0.875000   1.157311   -2.175565
 0.880000   1.146486   -2.153459
 0.885000   1.135776   -2.128816
 0.890000   1.125197   -2.101281
 0.895000   1.114764   -2.070911
 0.900000   1.104488   -2.038754
 0.905000   1.094376   -2.007970
 0.910000   1.084409   -1.985898
 0.915000   1.074517   -1.987769
 0.920000   1.064531   -2.043209
 0.925000   1.054085   -2.207171
 0.930000   1.042459   -2.577290
 0.935000   1.028312   -3.318408
 0.940000   1.009275   -4.688765
 0.945000   0.981424   -7.042933
 0.950000   0.938846   -10.745117
 0.955000   0.873973   -15.882565
 0.960000   0.780020   -21.750613
 0.965000   0.656467   -26.507304
 0.970000   0.514947   -27.877485
 0.975000   0.377692   -24.968579
 0.980000   0.265261   -19.247544
 0.985000   0.185217   -13.213627
 0.990000   0.133125   -8.478239
 0.995000   0.100434   -5.331631
 1.000000   0.079809   -2.918675
201 psinorm ni(10^20/m^3) dni/dpsiN
 0.000000   0.287842   -0.412664
 0.005000   0.285969   -0.336642
 0.010000   0.284476   -0.266119
 0.015000   0.283308   -0.205519
 0.020000   0.282420   -0.153609
 0.025000   0.281772   -0.109688
 0.030000   0.281324   -0.073145
 0.035000   0.281040   -0.042636
 0.040000   0.280897   -0.016577
 0.045000   0.280874   0.005757
 0.050000   0.280955   0.024090
 0.055000   0.281115   0.038940
 0.060000   0.281344   0.050728
 0.065000   0.281623   0.059762
 0.070000   0.281942   0.066566
 0.075000   0.282288   0.071100
 0.080000   0.282653   0.073960
 0.085000   0.283028   0.075331
 0.090000   0.283406   0.075419
 0.095000   0.283782   0.074186
 0.100000   0.284148   0.071764
 0.105000   0.284500   0.068686
 0.110000   0.284835   0.064985
 0.115000   0.285149   0.060472
 0.120000   0.285440   0.055318
 0.125000   0.285703   0.049667
 0.130000   0.285936   0.043585
 0.135000   0.286139   0.037157
 0.140000   0.286308   0.030290
 0.145000   0.286441   0.023189
 0.150000   0.286540   0.016115
 0.155000   0.286603   0.008999
 0.160000   0.286630   0.001837
 0.165000   0.286621   -0.005335
 0.170000   0.286576   -0.012454
 0.175000   0.286496   -0.019490
 0.180000   0.286381   -0.026408
 0.185000   0.286232   -0.033193
 0.190000   0.286050   -0.039849
 0.195000   0.285834   -0.046352
 0.200000   0.285586   -0.052676
 0.205000   0.285307   -0.058821
 0.210000   0.284998   -0.065185
 0.215000   0.284655   -0.071482
 0.220000   0.284283   -0.077153
 0.225000   0.283884   -0.082432
 0.230000   0.283459   -0.087467
 0.235000   0.283009   -0.092303
 0.240000   0.282536   -0.096940
 0.245000   0.282040   -0.101733
 0.250000   0.281518   -0.106493
 0.255000   0.280975   -0.110647
 0.260000   0.280412   -0.114413
 0.265000   0.279831   -0.118021
 0.270000   0.279232   -0.121476
 0.275000   0.278616   -0.125219
 0.280000   0.277979   -0.128865
 0.285000   0.277327   -0.131898
 0.290000   0.276660   -0.134721
 0.295000   0.275980   -0.137436
 0.300000   0.275286   -0.140276
 0.305000   0.274577   -0.143120
 0.310000   0.273855   -0.145568
 0.315000   0.273121   -0.147747
 0.320000   0.272377   -0.149820
 0.325000   0.271623   -0.151986
 0.330000   0.270858   -0.154067
 0.335000   0.270083   -0.155781
 0.340000   0.269300   -0.157320
 0.345000   0.268509   -0.158787
 0.350000   0.267712   -0.160356
 0.355000   0.266906   -0.161807
 0.360000   0.266094   -0.162986
 0.365000   0.265276   -0.164124
 0.370000   0.264453   -0.165311
 0.375000   0.263623   -0.166504
 0.380000   0.262788   -0.167539
 0.385000   0.261947   -0.168448
 0.390000   0.261103   -0.169312
 0.395000   0.260254   -0.170179
 0.400000   0.259401   -0.170919
 0.405000   0.258545   -0.171453
 0.410000   0.257687   -0.171866
 0.415000   0.256827   -0.172226
 0.420000   0.255964   -0.172463
 0.425000   0.255102   -0.172484
 0.430000   0.254240   -0.172361
 0.435000   0.253378   -0.172150
 0.440000   0.252518   -0.171857
 0.445000   0.251660   -0.171434
 0.450000   0.250804   -0.170899
 0.455000   0.249951   -0.170308
 0.460000   0.249101   -0.169689
 0.465000   0.248254   -0.168973
 0.470000   0.247411   -0.168136
 0.475000   0.246572   -0.167205
 0.480000   0.245739   -0.166205
 0.485000   0.244910   -0.165046
 0.490000   0.244088   -0.163652
 0.495000   0.243274   -0.162087
 0.500000   0.242468   -0.160401
 0.505000   0.241670   -0.158551
 0.510000   0.240882   -0.156474
 0.515000   0.240105   -0.154227
 0.520000   0.239340   -0.151873
 0.525000   0.238586   -0.149423
 0.530000   0.237846   -0.146819
 0.535000   0.237118   -0.144083
 0.540000   0.236405   -0.141275
 0.545000   0.235705   -0.138445
 0.550000   0.235020   -0.135534
 0.555000   0.234350   -0.132500
 0.560000   0.233695   -0.129405
 0.565000   0.233056   -0.126279
 0.570000   0.232433   -0.123081
 0.575000   0.231825   -0.119755
 0.580000   0.231235   -0.116334
 0.585000   0.230662   -0.112856
 0.590000   0.230106   -0.109355
 0.595000   0.229568   -0.105789
 0.600000   0.229049   -0.102146
 0.605000   0.228547   -0.098472
 0.610000   0.228064   -0.094783
 0.615000   0.227599   -0.091059
 0.620000   0.227153   -0.087229
 0.625000   0.226727   -0.083292
 0.630000   0.226320   -0.079280
 0.635000   0.225934   -0.075210
 0.640000   0.225568   -0.071072
 0.645000   0.225223   -0.066866
 0.650000   0.224900   -0.062585
 0.655000   0.224597   -0.058305
 0.660000   0.224316   -0.054125
 0.665000   0.224056   -0.050009
 0.670000   0.223816   -0.045881
 0.675000   0.223597   -0.041608
 0.680000   0.223400   -0.036786
 0.685000   0.223230   -0.031228
 0.690000   0.223088   -0.025186
 0.695000   0.222978   -0.018774
 0.700000   0.222900   -0.012054
 0.705000   0.222857   -0.005169
 0.710000   0.222849   0.001974
 0.715000   0.222877   0.008957
 0.720000   0.222938   0.015067
 0.725000   0.223028   0.020264
 0.730000   0.223141   0.024555
 0.735000   0.223273   0.027794
 0.740000   0.223419   0.029848
 0.745000   0.223572   0.030452
 0.750000   0.223723   0.029548
 0.755000   0.223867   0.027348
 0.760000   0.223997   0.023981
 0.765000   0.224107   0.019588
 0.770000   0.224193   0.014183
 0.775000   0.224249   0.008005
 0.780000   0.224273   0.001862
 0.785000   0.224267   -0.003894
 0.790000   0.224234   -0.009347
 0.795000   0.224174   -0.014388
 0.800000   0.224090   -0.018968
 0.805000   0.223984   -0.022954
 0.810000   0.223860   -0.026243
 0.815000   0.223722   -0.029116
 0.820000   0.223569   -0.031897
 0.825000   0.223403   -0.034706
 0.830000   0.223222   -0.037588
 0.835000   0.223027   -0.040533
 0.840000   0.222817   -0.043516
 0.845000   0.222592   -0.046515
 0.850000   0.222352   -0.049484
 0.855000   0.222097   -0.052357
 0.860000   0.221828   -0.055076
 0.865000   0.221546   -0.057485
 0.870000   0.221253   -0.059482
 0.875000   0.220951   -0.061116
 0.880000   0.220642   -0.062417
 0.885000   0.220327   -0.063374
 0.890000   0.220008   -0.063917
 0.895000   0.219688   -0.063645
 0.900000   0.219372   -0.062480
 0.905000   0.219063   -0.060416
 0.910000   0.218768   -0.056932
 0.915000   0.218494   -0.051493
 0.920000   0.218253   -0.043633
 0.925000   0.218057   -0.032279
 0.930000   0.217930   -0.020568
 0.935000   0.217852   -0.019932
 0.940000   0.217731   -0.059733
 0.945000   0.217254   -0.214997
 0.950000   0.215581   -0.645487
 0.955000   0.210800   -1.596928
 0.960000   0.199611   -3.224507
 0.965000   0.178555   -5.042461
 0.970000   0.149187   -5.794198
 0.975000   0.120613   -4.830845
 0.980000   0.100878   -3.040731
 0.985000   0.090205   -1.591484
 0.990000   0.084963   -0.815899
 0.995000   0.082046   -0.512719
 1.000000   0.079836   -0.371253
201 psinorm ti(KeV) dti/dpsiN
 0.000000   5.717857   0.004226
 0.005000   5.716989   -0.351614
 0.010000   5.714341   -0.713577
 0.015000   5.709853   -1.087220
 0.020000   5.703469   -1.471285
 0.025000   5.695140   -1.864274
 0.030000   5.684826   -2.264506
 0.035000   5.672495   -2.670212
 0.040000   5.658124   -3.078989
 0.045000   5.641705   -3.489311
 0.050000   5.623231   -3.900167
 0.055000   5.602703   -4.309732
 0.060000   5.580134   -4.716320
 0.065000   5.555540   -5.118070
 0.070000   5.528953   -5.511312
 0.075000   5.500427   -5.894573
 0.080000   5.470007   -6.268497
 0.085000   5.437742   -6.631854
 0.090000   5.403689   -6.983640
 0.095000   5.367906   -7.323208
 0.100000   5.330456   -7.648565
 0.105000   5.291420   -7.959618
 0.110000   5.250860   -8.257421
 0.115000   5.208846   -8.540912
 0.120000   5.165451   -8.809953
 0.125000   5.120746   -9.065647
 0.130000   5.074795   -9.309674
 0.135000   5.027650   -9.542630
 0.140000   4.979368   -9.761770
 0.145000   4.930032   -9.964111
 0.150000   4.879727   -10.148685
 0.155000   4.828545   -10.314931
 0.160000   4.776578   -10.462000
 0.165000   4.723925   -10.588891
 0.170000   4.670689   -10.695770
 0.175000   4.616967   -10.782879
 0.180000   4.562860   -10.850048
 0.185000   4.508467   -10.897602
 0.190000   4.453884   -10.925178
 0.195000   4.399215   -10.932880
 0.200000   4.344555   -10.924401
 0.205000   4.289971   -10.902740
 0.210000   4.235528   -10.869065
 0.215000   4.181280   -10.825585
 0.220000   4.127272   -10.774451
 0.225000   4.073536   -10.718773
 0.230000   4.020084   -10.658605
 0.235000   3.966950   -10.592266
 0.240000   3.914162   -10.519992
 0.245000   3.861750   -10.441581
 0.250000   3.809746   -10.357355
 0.255000   3.758176   -10.268778
 0.260000   3.707058   -10.168301
 0.265000   3.656493   -10.051009
 0.270000   3.606548   -9.920338
 0.275000   3.557290   -9.776054
 0.280000   3.508788   -9.618186
 0.285000   3.461108   -9.446653
 0.290000   3.414321   -9.259766
 0.295000   3.368511   -9.058063
 0.300000   3.323740   -8.843291
 0.305000   3.280078   -8.615164
 0.310000   3.237589   -8.374090
 0.315000   3.196337   -8.118412
 0.320000   3.156405   -7.860644
 0.325000   3.117730   -7.612247
 0.330000   3.080282   -7.370441
 0.335000   3.044026   -7.135881
 0.340000   3.008923   -6.909126
 0.345000   2.974935   -6.691576
 0.350000   2.942008   -6.484338
 0.355000   2.910091   -6.285855
 0.360000   2.879149   -6.094358
 0.365000   2.849148   -5.909234
 0.370000   2.820057   -5.729793
 0.375000   2.791850   -5.558478
 0.380000   2.764472   -5.390669
 0.385000   2.737943   -5.217815
 0.390000   2.712294   -5.039081
 0.395000   2.687552   -4.854786
 0.400000   2.663746   -4.665481
 0.405000   2.640897   -4.470428
 0.410000   2.619042   -4.270967
 0.415000   2.598188   -4.073329
 0.420000   2.578308   -3.881700
 0.425000   2.559371   -3.697357
 0.430000   2.541335   -3.521488
 0.435000   2.524156   -3.352613
 0.440000   2.507809   -3.191846
 0.445000   2.492237   -3.043650
 0.450000   2.477372   -2.907899
 0.455000   2.463158   -2.783144
 0.460000   2.449541   -2.669507
 0.465000   2.436463   -2.566350
 0.470000   2.423877   -2.474487
 0.475000   2.411718   -2.395687
 0.480000   2.399920   -2.328952
 0.485000   2.388429   -2.272649
 0.490000   2.377194   -2.225854
 0.495000   2.366170   -2.187149
 0.500000   2.355322   -2.154082
 0.505000   2.344630   -2.125133
 0.510000   2.334071   -2.101021
 0.515000   2.323619   -2.082442
 0.520000   2.313247   -2.069412
 0.525000   2.302925   -2.061778
 0.530000   2.292629   -2.059294
 0.535000   2.282332   -2.061776
 0.540000   2.272011   -2.068999
 0.545000   2.261642   -2.080649
 0.550000   2.251205   -2.096436
 0.555000   2.240678   -2.116047
 0.560000   2.230044   -2.139154
 0.565000   2.219286   -2.165464
 0.570000   2.208389   -2.194647
 0.575000   2.197340   -2.226313
 0.580000   2.186126   -2.260094
 0.585000   2.174739   -2.295604
 0.590000   2.163170   -2.332485
 0.595000   2.151414   -2.370504
 0.600000   2.139465   -2.409540
 0.605000   2.127319   -2.449417
 0.610000   2.114971   -2.489849
 0.615000   2.102420   -2.530499
 0.620000   2.089666   -2.571542
 0.625000   2.076705   -2.612190
 0.630000   2.063544   -2.651399
 0.635000   2.050191   -2.689078
 0.640000   2.036653   -2.724818
 0.645000   2.022943   -2.758197
 0.650000   2.009071   -2.789556
 0.655000   1.995047   -2.818835
 0.660000   1.980883   -2.845900
 0.665000   1.966588   -2.871231
 0.670000   1.952171   -2.894666
 0.675000   1.937641   -2.915790
 0.680000   1.923013   -2.935017
 0.685000   1.908291   -2.949200
 0.690000   1.893521   -2.954167
 0.695000   1.878750   -2.949894
 0.700000   1.864022   -2.936919
 0.705000   1.849380   -2.915902
 0.710000   1.834863   -2.887297
 0.715000   1.820507   -2.852480
 0.720000   1.806338   -2.813456
 0.725000   1.792373   -2.770789
 0.730000   1.778630   -2.724693
 0.735000   1.765126   -2.675731
 0.740000   1.751873   -2.623921
 0.745000   1.738887   -2.570261
 0.750000   1.726170   -2.517152
 0.755000   1.713715   -2.466066
 0.760000   1.701510   -2.417930
 0.765000   1.689536   -2.373631
 0.770000   1.677773   -2.334217
 0.775000   1.666194   -2.299014
 0.780000   1.654783   -2.263867
 0.785000   1.643555   -2.226942
 0.790000   1.632514   -2.189239
 0.795000   1.621663   -2.151119
 0.800000   1.611003   -2.113606
 0.805000   1.600527   -2.078879
 0.810000   1.590214   -2.048377
 0.815000   1.580043   -2.023047
 0.820000   1.569983   -2.003961
 0.825000   1.560003   -1.991401
 0.830000   1.550069   -1.986148
 0.835000   1.540142   -1.989313
 0.840000   1.530176   -1.998797
 0.845000   1.520154   -2.015242
 0.850000   1.510024   -2.042867
 0.855000   1.499725   -2.083559
 0.860000   1.489188   -2.139295
 0.865000   1.478332   -2.214414
 0.870000   1.467044   -2.306437
 0.875000   1.455268   -2.413961
 0.880000   1.442904   -2.542024
 0.885000   1.429848   -2.692241
 0.890000   1.415982   -2.866737
 0.895000   1.401180   -3.081088
 0.900000   1.385171   -3.341329
 0.905000   1.367767   -3.648137
 0.910000   1.348690   -4.014659
 0.915000   1.327620   -4.449965
 0.920000   1.304190   -4.964373
 0.925000   1.277977   -5.606465
 0.930000   1.248126   -6.355440
 0.935000   1.214422   -7.162441
 0.940000   1.176501   -8.035653
 0.945000   1.134066   -8.952338
 0.950000   1.086978   -9.874294
 0.955000   1.035323   -10.793784
 0.960000   0.979040   -11.609521
 0.965000   0.919228   -12.211485
 0.970000   0.856925   -12.595590
 0.975000   0.793272   -12.736717
 0.980000   0.729558   -12.613010
 0.985000   0.667142   -12.234919
 0.990000   0.607209   -11.595097
 0.995000   0.551191   -10.717153
 1.000000   0.500037   -9.744212
201 psinorm nb(10^20/m^3) dnb/dpsiN
 0.000000   0.095935   0.093347
 0.005000   0.096218   0.019865
 0.010000   0.096134   -0.048114
 0.015000   0.095737   -0.106163
 0.020000   0.095072   -0.155519
 0.025000   0.094182   -0.196884
 0.030000   0.093103   -0.230873
 0.035000   0.091873   -0.258836
 0.040000   0.090515   -0.282360
 0.045000   0.089049   -0.302173
 0.050000   0.087493   -0.318004
 0.055000   0.085869   -0.330373
 0.060000   0.084189   -0.339705
 0.065000   0.082472   -0.346312
 0.070000   0.080726   -0.350721
 0.075000   0.078965   -0.352889
 0.080000   0.077197   -0.353412
 0.085000   0.075431   -0.352478
 0.090000   0.073673   -0.350296
 0.095000   0.071928   -0.346830
 0.100000   0.070204   -0.342212
 0.105000   0.068506   -0.336971
 0.110000   0.066835   -0.331140
 0.115000   0.065194   -0.324530
 0.120000   0.063589   -0.317320
 0.125000   0.062021   -0.309655
 0.130000   0.060493   -0.301611
 0.135000   0.059005   -0.293272
 0.140000   0.057560   -0.284547
 0.145000   0.056160   -0.275641
 0.150000   0.054804   -0.266817
 0.155000   0.053492   -0.258010
 0.160000   0.052223   -0.249214
 0.165000   0.050999   -0.240470
 0.170000   0.049819   -0.231831
 0.175000   0.048681   -0.223329
 0.180000   0.047586   -0.214998
 0.185000   0.046531   -0.206856
 0.190000   0.045517   -0.198900
 0.195000   0.044542   -0.191160
 0.200000   0.043605   -0.183657
 0.205000   0.042706   -0.176391
 0.210000   0.041841   -0.168963
 0.215000   0.041016   -0.161657
 0.220000   0.040225   -0.155030
 0.225000   0.039466   -0.148836
 0.230000   0.038736   -0.142920
 0.235000   0.038036   -0.137237
 0.240000   0.037364   -0.131794
 0.245000   0.036718   -0.126239
 0.250000   0.036102   -0.120764
 0.255000   0.035511   -0.115939
 0.260000   0.034942   -0.111563
 0.265000   0.034395   -0.107419
 0.270000   0.033868   -0.103495
 0.275000   0.033360   -0.099353
 0.280000   0.032875   -0.095376
 0.285000   0.032406   -0.092081
 0.290000   0.031954   -0.089070
 0.295000   0.031516   -0.086237
 0.300000   0.031091   -0.083341
 0.305000   0.030682   -0.080496
 0.310000   0.030286   -0.078093
 0.315000   0.029901   -0.076003
 0.320000   0.029526   -0.074049
 0.325000   0.029161   -0.072019
 0.330000   0.028806   -0.070085
 0.335000   0.028460   -0.068521
 0.340000   0.028121   -0.067133
 0.345000   0.027789   -0.065821
 0.350000   0.027463   -0.064416
 0.355000   0.027145   -0.063146
 0.360000   0.026831   -0.062168
 0.365000   0.026523   -0.061256
 0.370000   0.026219   -0.060316
 0.375000   0.025920   -0.059392
 0.380000   0.025625   -0.058631
 0.385000   0.025333   -0.057981
 0.390000   0.025045   -0.057350
 0.395000   0.024760   -0.056674
 0.400000   0.024478   -0.056068
 0.405000   0.024199   -0.055587
 0.410000   0.023922   -0.055130
 0.415000   0.023648   -0.054616
 0.420000   0.023376   -0.054111
 0.425000   0.023107   -0.053698
 0.430000   0.022839   -0.053305
 0.435000   0.022574   -0.052871
 0.440000   0.022311   -0.052410
 0.445000   0.022050   -0.052004
 0.450000   0.021791   -0.051640
 0.455000   0.021533   -0.051258
 0.460000   0.021278   -0.050830
 0.465000   0.021025   -0.050430
 0.470000   0.020774   -0.050083
 0.475000   0.020524   -0.049735
 0.480000   0.020276   -0.049322
 0.485000   0.020031   -0.048919
 0.490000   0.019787   -0.048589
 0.495000   0.019545   -0.048261
 0.500000   0.019305   -0.047876
 0.505000   0.019066   -0.047479
 0.510000   0.018830   -0.047140
 0.515000   0.018595   -0.046813
 0.520000   0.018362   -0.046450
 0.525000   0.018130   -0.046050
 0.530000   0.017901   -0.045687
 0.535000   0.017674   -0.045360
 0.540000   0.017448   -0.045025
 0.545000   0.017223   -0.044636
 0.550000   0.017001   -0.044262
 0.555000   0.016781   -0.043950
 0.560000   0.016562   -0.043642
 0.565000   0.016344   -0.043295
 0.570000   0.016129   -0.042941
 0.575000   0.015915   -0.042641
 0.580000   0.015702   -0.042364
 0.585000   0.015491   -0.042083
 0.590000   0.015282   -0.041776
 0.595000   0.015073   -0.041494
 0.600000   0.014867   -0.041261
 0.605000   0.014661   -0.041037
 0.610000   0.014456   -0.040807
 0.615000   0.014253   -0.040586
 0.620000   0.014050   -0.040406
 0.625000   0.013849   -0.040255
 0.630000   0.013648   -0.040116
 0.635000   0.013448   -0.039978
 0.640000   0.013248   -0.039860
 0.645000   0.013049   -0.039776
 0.650000   0.012850   -0.039709
 0.655000   0.012652   -0.039654
 0.660000   0.012454   -0.039609
 0.665000   0.012256   -0.039581
 0.670000   0.012058   -0.039570
 0.675000   0.011860   -0.039570
 0.680000   0.011662   -0.039581
 0.685000   0.011464   -0.039609
 0.690000   0.011266   -0.039653
 0.695000   0.011068   -0.039705
 0.700000   0.010869   -0.039767
 0.705000   0.010670   -0.039838
 0.710000   0.010471   -0.039923
 0.715000   0.010271   -0.040025
 0.720000   0.010070   -0.040128
 0.725000   0.009870   -0.040228
 0.730000   0.009668   -0.040331
 0.735000   0.009466   -0.040434
 0.740000   0.009264   -0.040547
 0.745000   0.009061   -0.040661
 0.750000   0.008857   -0.040760
 0.755000   0.008653   -0.040847
 0.760000   0.008449   -0.040925
 0.765000   0.008244   -0.040991
 0.770000   0.008039   -0.041045
 0.775000   0.007833   -0.041085
 0.780000   0.007628   -0.041107
 0.785000   0.007422   -0.041111
 0.790000   0.007217   -0.041099
 0.795000   0.007011   -0.041068
 0.800000   0.006806   -0.041017
 0.805000   0.006601   -0.040944
 0.810000   0.006397   -0.040851
 0.815000   0.006193   -0.040744
 0.820000   0.005989   -0.040620
 0.825000   0.005787   -0.040475
 0.830000   0.005585   -0.040308
 0.835000   0.005383   -0.040115
 0.840000   0.005183   -0.039893
 0.845000   0.004985   -0.039624
 0.850000   0.004787   -0.039313
 0.855000   0.004591   -0.038977
 0.860000   0.004397   -0.038610
 0.865000   0.004205   -0.038217
 0.870000   0.004015   -0.037814
 0.875000   0.003827   -0.037409
 0.880000   0.003641   -0.036999
 0.885000   0.003457   -0.036585
 0.890000   0.003275   -0.036167
 0.895000   0.003095   -0.035750
 0.900000   0.002918   -0.035328
 0.905000   0.002742   -0.034911
 0.910000   0.002569   -0.034524
 0.915000   0.002397   -0.034215
 0.920000   0.002227   -0.034064
 0.925000   0.002056   -0.034120
 0.930000   0.001885   -0.034396
 0.935000   0.001712   -0.034866
 0.940000   0.001537   -0.035448
 0.945000   0.001358   -0.035961
 0.950000   0.001177   -0.036050
 0.955000   0.000997   -0.035043
 0.960000   0.000827   -0.032454
 0.965000   0.000673   -0.028554
 0.970000   0.000541   -0.023984
 0.975000   0.000433   -0.019234
 0.980000   0.000349   -0.014891
 0.985000   0.000284   -0.011973
 0.990000   0.000229   -0.010685
 0.995000   0.000177   -0.011052
 1.000000   0.000118   -0.012456
201 psinorm pb(KPa) dpb/dpsiN
 0.000000   39.227755   14.941839
 0.005000   39.234460   -12.259826
 0.010000   39.105156   -38.133124
 0.015000   38.853129   -60.769055
 0.020000   38.497466   -79.703557
 0.025000   38.056093   -95.290877
 0.030000   37.544557   -107.776160
 0.035000   36.978331   -117.822707
 0.040000   36.366330   -126.174258
 0.045000   35.716589   -133.072349
 0.050000   35.035607   -138.479589
 0.055000   34.331793   -142.554336
 0.060000   33.610063   -145.401681
 0.065000   32.877776   -147.190973
 0.070000   32.138153   -148.157364
 0.075000   31.396202   -148.286158
 0.080000   30.655292   -147.802257
 0.085000   29.918180   -146.811906
 0.090000   29.187173   -145.381143
 0.095000   28.464368   -143.478936
 0.100000   27.752383   -141.172235
 0.105000   27.052646   -138.703396
 0.110000   26.365350   -136.049393
 0.115000   25.692152   -133.083584
 0.120000   25.034514   -129.893945
 0.125000   24.393213   -126.556913
 0.130000   23.768945   -123.099322
 0.135000   23.162219   -119.551621
 0.140000   22.573428   -115.808199
 0.145000   22.004138   -112.007222
 0.150000   21.453356   -108.333910
 0.155000   20.920798   -104.698396
 0.160000   20.406372   -101.084423
 0.165000   19.909954   -97.505927
 0.170000   19.431313   -93.980544
 0.175000   18.970149   -90.524915
 0.180000   18.526064   -87.164293
 0.185000   18.098506   -83.891205
 0.190000   17.687152   -80.681054
 0.195000   17.291695   -77.550788
 0.200000   16.911644   -74.519499
 0.205000   16.546500   -71.587441
 0.210000   16.195769   -68.602556
 0.215000   15.860475   -65.673420
 0.220000   15.539035   -63.012708
 0.225000   15.230348   -60.525977
 0.230000   14.933775   -58.151355
 0.235000   14.648834   -55.869735
 0.240000   14.375078   -53.684594
 0.245000   14.111988   -51.461222
 0.250000   13.860466   -49.273574
 0.255000   13.619252   -47.338195
 0.260000   13.387084   -45.576959
 0.265000   13.163483   -43.908965
 0.270000   12.947994   -42.328574
 0.275000   12.740197   -40.666622
 0.280000   12.541328   -39.069735
 0.285000   12.349500   -37.736563
 0.290000   12.163962   -36.514968
 0.295000   11.984350   -35.364092
 0.300000   11.810322   -34.191476
 0.305000   11.642435   -33.040806
 0.310000   11.479913   -32.061844
 0.315000   11.321817   -31.204882
 0.320000   11.167865   -30.402682
 0.325000   11.017790   -29.574619
 0.330000   10.872118   -28.780814
 0.335000   10.729982   -28.128850
 0.340000   10.590830   -27.551529
 0.345000   10.454467   -27.006582
 0.350000   10.320764   -26.429899
 0.355000   10.190168   -25.906106
 0.360000   10.061703   -25.493378
 0.365000   9.935234   -25.106804
 0.370000   9.810635   -24.712074
 0.375000   9.688113   -24.324942
 0.380000   9.567386   -23.999818
 0.385000   9.448115   -23.716897
 0.390000   9.330217   -23.444170
 0.395000   9.213673   -23.158041
 0.400000   9.098636   -22.897083
 0.405000   8.984702   -22.681081
 0.410000   8.871825   -22.474032
 0.415000   8.759962   -22.248394
 0.420000   8.649341   -22.025898
 0.425000   8.539703   -21.835210
 0.430000   8.430989   -21.651421
 0.435000   8.323189   -21.453242
 0.440000   8.216457   -21.245490
 0.445000   8.110734   -21.058011
 0.450000   8.005877   -20.886732
 0.455000   7.901867   -20.711499
 0.460000   7.798762   -20.523189
 0.465000   7.696635   -20.344703
 0.470000   7.595315   -20.184221
 0.475000   7.494793   -20.024335
 0.480000   7.395071   -19.845743
 0.485000   7.296335   -19.672331
 0.490000   7.198348   -19.523247
 0.495000   7.101103   -19.375683
 0.500000   7.004591   -19.211566
 0.505000   6.908987   -19.044006
 0.510000   6.814151   -18.894199
 0.515000   6.720045   -18.747964
 0.520000   6.626672   -18.589770
 0.525000   6.534147   -18.417092
 0.530000   6.442501   -18.254060
 0.535000   6.351607   -18.104557
 0.540000   6.261455   -17.954032
 0.545000   6.172066   -17.785758
 0.550000   6.083598   -17.619342
 0.555000   5.995873   -17.471134
 0.560000   5.908886   -17.324235
 0.565000   5.822631   -17.164259
 0.570000   5.737244   -17.001295
 0.575000   5.652618   -16.856565
 0.580000   5.568678   -16.720368
 0.585000   5.485414   -16.581587
 0.590000   5.402862   -16.430575
 0.595000   5.321108   -16.288179
 0.600000   5.239980   -16.164954
 0.605000   5.159459   -16.045648
 0.610000   5.079524   -15.923612
 0.615000   5.000223   -15.802146
 0.620000   4.921502   -15.694712
 0.625000   4.843275   -15.598477
 0.630000   4.765518   -15.506552
 0.635000   4.688210   -15.415446
 0.640000   4.611363   -15.331147
 0.645000   4.534898   -15.258520
 0.650000   4.458778   -15.191760
 0.655000   4.382981   -15.128640
 0.660000   4.307492   -15.068745
 0.665000   4.232293   -15.013682
 0.670000   4.157355   -14.963668
 0.675000   4.082657   -14.917095
 0.680000   4.008184   -14.873522
 0.685000   3.933921   -14.835255
 0.690000   3.859831   -14.801941
 0.695000   3.785902   -14.772013
 0.700000   3.712111   -14.746206
 0.705000   3.638440   -14.723815
 0.710000   3.564873   -14.706476
 0.715000   3.491375   -14.694897
 0.720000   3.417924   -14.684411
 0.725000   3.344531   -14.673574
 0.730000   3.271188   -14.664014
 0.735000   3.197891   -14.654874
 0.740000   3.124640   -14.648720
 0.745000   3.051404   -14.643004
 0.750000   2.978209   -14.631937
 0.755000   2.905084   -14.616442
 0.760000   2.832045   -14.596916
 0.765000   2.759115   -14.571859
 0.770000   2.686326   -14.541031
 0.775000   2.613705   -14.505312
 0.780000   2.541273   -14.464057
 0.785000   2.469064   -14.416753
 0.790000   2.397106   -14.363640
 0.795000   2.325428   -14.304145
 0.800000   2.254064   -14.237767
 0.805000   2.183050   -14.161917
 0.810000   2.112445   -14.077087
 0.815000   2.042279   -13.986631
 0.820000   1.972579   -13.889489
 0.825000   1.903385   -13.784087
 0.830000   1.834738   -13.670046
 0.835000   1.766684   -13.546452
 0.840000   1.699274   -13.412393
 0.845000   1.632560   -13.260038
 0.850000   1.566673   -13.091752
 0.855000   1.501643   -12.916874
 0.860000   1.437504   -12.731640
 0.865000   1.374326   -12.535910
 0.870000   1.312145   -12.334384
 0.875000   1.250982   -12.128731
 0.880000   1.190858   -11.918960
 0.885000   1.131793   -11.705507
 0.890000   1.073803   -11.489476
 0.895000   1.016898   -11.273533
 0.900000   0.961068   -11.053365
 0.905000   0.906364   -10.834593
 0.910000   0.852722   -10.632511
 0.915000   0.800039   -10.459734
 0.920000   0.748124   -10.338477
 0.925000   0.696655   -10.290091
 0.930000   0.645223   -10.332888
 0.935000   0.593326   -10.481731
 0.940000   0.540406   -10.738563
 0.945000   0.485940   -11.073523
 0.950000   0.429671   -11.382233
 0.955000   0.372118   -11.436786
 0.960000   0.315303   -11.024933
 0.965000   0.261868   -10.181862
 0.970000   0.213484   -9.145404
 0.975000   0.170414   -8.048503
 0.980000   0.132999   -6.857056
 0.985000   0.101844   -5.632855
 0.990000   0.076671   -4.474107
 0.995000   0.057103   -3.756020
 1.000000   0.039111   -3.440814
201 psinorm ptot(KPa) dptot/dpsiN
 0.000000   97.605600   -69.899579
 0.005000   97.201760   -91.636426
 0.010000   96.689236   -112.569344
 0.015000   96.076067   -131.216966
 0.020000   95.377066   -147.003534
 0.025000   94.606031   -160.217705
 0.030000   93.774889   -171.044554
 0.035000   92.895586   -180.018782
 0.040000   91.974701   -187.730348
 0.045000   91.018282   -194.349003
 0.050000   90.031211   -199.857594
 0.055000   89.019706   -204.358484
 0.060000   87.987626   -207.909086
 0.065000   86.940615   -210.640611
 0.070000   85.881220   -212.721244
 0.075000   84.813403   -214.130458
 0.080000   83.739916   -215.040490
 0.085000   82.662998   -215.532638
 0.090000   81.584589   -215.647182
 0.095000   80.506526   -215.350080
 0.100000   79.431088   -214.684099
 0.105000   78.359685   -213.842683
 0.110000   77.292662   -212.802466
 0.115000   76.231661   -211.445213
 0.120000   75.178209   -209.840871
 0.125000   74.133252   -208.056854
 0.130000   73.097641   -206.120229
 0.135000   72.072050   -204.055593
 0.140000   71.057085   -201.749232
 0.145000   70.054557   -199.306916
 0.150000   69.064016   -196.886998
 0.155000   68.085687   -194.401635
 0.160000   67.120000   -191.830139
 0.165000   66.167386   -189.178027
 0.170000   65.228219   -186.458952
 0.175000   64.302796   -183.688312
 0.180000   63.391336   -180.888248
 0.185000   62.493914   -178.052103
 0.190000   61.610815   -175.154317
 0.195000   60.742371   -172.211266
 0.200000   59.888702   -169.259119
 0.205000   59.049780   -166.313493
 0.210000   58.225567   -163.255622
 0.215000   57.417223   -160.185845
 0.220000   56.623709   -157.290716
 0.225000   55.844316   -154.508690
 0.230000   55.078622   -151.789311
 0.235000   54.326423   -149.109405
 0.240000   53.587528   -146.474565
 0.245000   52.861677   -143.771819
 0.250000   52.149810   -141.065390
 0.255000   51.451023   -138.544878
 0.260000   50.764361   -136.111317
 0.265000   50.089910   -133.675734
 0.270000   49.427604   -131.250519
 0.275000   48.777405   -128.691385
 0.280000   48.140690   -126.124148
 0.285000   47.516164   -123.719312
 0.290000   46.903497   -121.341482
 0.295000   46.302749   -118.959499
 0.300000   45.713902   -116.502552
 0.305000   45.137723   -114.007523
 0.310000   44.573827   -111.606364
 0.315000   44.021660   -109.250066
 0.320000   43.481326   -106.939089
 0.325000   42.952269   -104.656227
 0.330000   42.434764   -102.439847
 0.335000   41.927870   -100.386937
 0.340000   41.430894   -98.442732
 0.345000   40.943443   -96.576314
 0.350000   40.465131   -94.736567
 0.355000   39.996077   -92.990334
 0.360000   39.535228   -91.380513
 0.365000   39.082272   -89.830166
 0.370000   38.636926   -88.305793
 0.375000   38.199214   -86.831930
 0.380000   37.768607   -85.434932
 0.385000   37.344865   -84.058641
 0.390000   36.928020   -82.671428
 0.395000   36.518151   -81.253769
 0.400000   36.115483   -79.841580
 0.405000   35.719735   -78.448780
 0.410000   35.330995   -77.049451
 0.415000   34.949240   -75.646600
 0.420000   34.574529   -74.277337
 0.425000   34.206467   -72.971982
 0.430000   33.844809   -71.713478
 0.435000   33.489332   -70.476148
 0.440000   33.140048   -69.269368
 0.445000   32.796639   -68.139576
 0.450000   32.458652   -67.082274
 0.455000   32.125816   -66.072738
 0.460000   31.797925   -65.102905
 0.465000   31.474787   -64.189661
 0.470000   31.156028   -63.343152
 0.475000   30.841355   -62.554049
 0.480000   30.530487   -61.799470
 0.485000   30.223361   -61.092503
 0.490000   29.919562   -60.445196
 0.495000   29.618909   -59.830881
 0.500000   29.321254   -59.222995
 0.505000   29.026679   -58.626456
 0.510000   28.734989   -58.062934
 0.515000   28.446049   -57.523021
 0.520000   28.159759   -56.993266
 0.525000   27.876117   -56.470674
 0.530000   27.595052   -55.975963
 0.535000   27.316357   -55.512730
 0.540000   27.039925   -55.067461
 0.545000   26.765682   -54.623840
 0.550000   26.493686   -54.197875
 0.555000   26.223704   -53.803058
 0.560000   25.955656   -53.423279
 0.565000   25.689471   -53.044073
 0.570000   25.425215   -52.672715
 0.575000   25.162744   -52.326826
 0.580000   24.901947   -51.996472
 0.585000   24.642779   -51.670256
 0.590000   24.385244   -51.338252
 0.595000   24.129396   -51.018921
 0.600000   23.875055   -50.721906
 0.605000   23.622177   -50.432911
 0.610000   23.370726   -50.144737
 0.615000   23.120730   -49.858769
 0.620000   22.872138   -49.587099
 0.625000   22.624859   -49.323984
 0.630000   22.378898   -49.059656
 0.635000   22.134262   -48.790895
 0.640000   21.890989   -48.521934
 0.645000   21.649043   -48.256060
 0.650000   21.408429   -47.988890
 0.655000   21.169154   -47.720157
 0.660000   20.931227   -47.451636
 0.665000   20.694638   -47.185845
 0.670000   20.459369   -46.920448
 0.675000   20.225433   -46.648939
 0.680000   19.992879   -46.362333
 0.685000   19.761810   -46.046630
 0.690000   19.532413   -45.692529
 0.695000   19.304885   -45.301826
 0.700000   19.079395   -44.879209
 0.705000   18.856093   -44.430299
 0.710000   18.635092   -43.956382
 0.715000   18.416529   -43.473564
 0.720000   18.200356   -43.001889
 0.725000   17.986510   -42.542331
 0.730000   17.774933   -42.096333
 0.735000   17.565547   -41.667878
 0.740000   17.358254   -41.261832
 0.745000   17.152928   -40.884728
 0.750000   16.949407   -40.540345
 0.755000   16.747525   -40.229340
 0.760000   16.547113   -39.951900
 0.765000   16.348006   -39.706019
 0.770000   16.150053   -39.494578
 0.775000   15.953060   -39.310058
 0.780000   15.756953   -39.117790
 0.785000   15.561882   -38.902656
 0.790000   15.367926   -38.670858
 0.795000   15.175174   -38.421054
 0.800000   14.983716   -38.155962
 0.805000   14.793614   -37.878692
 0.810000   14.604929   -37.593362
 0.815000   14.417680   -37.313085
 0.820000   14.231798   -37.047790
 0.825000   14.047202   -36.799404
 0.830000   13.863804   -36.571213
 0.835000   13.681490   -36.366007
 0.840000   13.500144   -36.174044
 0.845000   13.319750   -35.989062
 0.850000   13.140253   -35.827734
 0.855000   12.961473   -35.704254
 0.860000   12.783211   -35.620053
 0.865000   12.605272   -35.586734
 0.870000   12.427343   -35.595905
 0.875000   12.249313   -35.642825
 0.880000   12.070915   -35.744637
 0.885000   11.891867   -35.905150
 0.890000   11.711863   -36.130265
 0.895000   11.530564   -36.473443
 0.900000   11.347129   -36.956948
 0.905000   11.160994   -37.605459
 0.910000   10.971074   -38.512540
 0.915000   10.775869   -39.797313
 0.920000   10.573101   -41.676694
 0.925000   10.359102   -44.650331
 0.930000   10.126598   -49.304539
 0.935000   9.866057   -56.724762
 0.940000   9.559350   -69.213519
 0.945000   9.173922   -90.553364
 0.950000   8.653817   -126.020760
 0.955000   7.913714   -179.413368
 0.960000   6.859683   -242.915909
 0.965000   5.484555   -285.747803
 0.970000   4.002205   -271.658593
 0.975000   2.767969   -205.293030
 0.980000   1.949275   -130.635814
 0.985000   1.461611   -78.481479
 0.990000   1.164460   -49.584242
 0.995000   0.965768   -34.807627
 1.000000   0.816384   -24.946253
201 psinorm omeg(kRad/s) domeg/dpsiN
 0.000000   63.211673   0.032221
 0.005000   63.211239   -0.205586
 0.010000   63.209617   -0.497873
 0.015000   63.206261   -0.911728
 0.020000   63.200500   -1.469628
 0.025000   63.191564   -2.189257
 0.030000   63.178607   -3.083117
 0.035000   63.160733   -4.156420
 0.040000   63.137043   -5.395958
 0.045000   63.106774   -6.784844
 0.050000   63.069195   -8.308349
 0.055000   63.023690   -9.940486
 0.060000   62.969790   -11.650751
 0.065000   62.907183   -13.405031
 0.070000   62.835739   -15.121637
 0.075000   62.755966   -16.789424
 0.080000   62.667845   -18.454832
 0.085000   62.571418   -20.106184
 0.090000   62.466783   -21.744102
 0.095000   62.353977   -23.381045
 0.100000   62.232973   -24.990139
 0.105000   62.104076   -26.584097
 0.110000   61.967132   -28.194368
 0.115000   61.822132   -29.795148
 0.120000   61.669180   -31.385999
 0.125000   61.508272   -32.994817
 0.130000   61.339232   -34.649372
 0.135000   61.161778   -36.376486
 0.140000   60.975467   -38.160049
 0.145000   60.780178   -39.953907
 0.150000   60.575928   -41.742577
 0.155000   60.362752   -43.524943
 0.160000   60.140679   -45.293812
 0.165000   59.909814   -47.035987
 0.170000   59.670319   -48.742089
 0.175000   59.422393   -50.397722
 0.180000   59.166342   -51.989635
 0.185000   58.902497   -53.514103
 0.190000   58.631201   -54.958517
 0.195000   58.352911   -56.315157
 0.200000   58.068049   -57.602759
 0.205000   57.776884   -58.803308
 0.210000   57.480016   -59.872809
 0.215000   57.178156   -60.792680
 0.220000   56.872089   -61.533136
 0.225000   56.562824   -62.057347
 0.230000   56.251516   -62.447322
 0.235000   55.938351   -62.761536
 0.240000   55.623900   -62.970372
 0.245000   55.308647   -63.090730
 0.250000   54.992993   -63.126723
 0.255000   54.677380   -63.050087
 0.260000   54.362492   -62.928086
 0.265000   54.048099   -62.803358
 0.270000   53.734459   -62.635160
 0.275000   53.421748   -62.439511
 0.280000   53.110064   -62.230724
 0.285000   52.799441   -62.024953
 0.290000   52.489814   -61.869840
 0.295000   52.180742   -61.767636
 0.300000   51.872138   -61.663362
 0.305000   51.564109   -61.513736
 0.310000   51.257000   -61.267697
 0.315000   50.951432   -60.860609
 0.320000   50.648394   -60.273724
 0.325000   50.348694   -59.536813
 0.330000   50.053026   -58.665211
 0.335000   49.762042   -57.668758
 0.340000   49.476339   -56.559529
 0.345000   49.196447   -55.298268
 0.350000   48.923356   -53.944896
 0.355000   48.656998   -52.585132
 0.360000   48.397505   -51.200285
 0.365000   48.144995   -49.799873
 0.370000   47.899506   -48.399858
 0.375000   47.660997   -46.985164
 0.380000   47.429654   -45.594951
 0.385000   47.205047   -44.257828
 0.390000   46.987076   -42.926770
 0.395000   46.775779   -41.589093
 0.400000   46.571185   -40.249788
 0.405000   46.373281   -38.898474
 0.410000   46.182200   -37.605161
 0.415000   45.997230   -36.510051
 0.420000   45.817100   -35.683592
 0.425000   45.640394   -35.142374
 0.430000   45.465676   -34.874303
 0.435000   45.291651   -34.936046
 0.440000   45.116316   -35.269774
 0.445000   44.938953   -35.618030
 0.450000   44.760135   -35.890469
 0.455000   44.580048   -36.101282
 0.460000   44.399122   -36.205258
 0.465000   44.217996   -36.242113
 0.470000   44.036701   -36.163789
 0.475000   43.856358   -35.766512
 0.480000   43.679036   -35.064137
 0.485000   43.505717   -34.182249
 0.490000   43.337214   -33.159344
 0.495000   43.174123   -32.048993
 0.500000   43.016724   -30.882272
 0.505000   42.865300   -29.716501
 0.510000   42.719559   -28.674800
 0.515000   42.578552   -27.842212
 0.520000   42.441137   -27.251276
 0.525000   42.306040   -26.915393
 0.530000   42.171983   -26.827884
 0.535000   42.037761   -27.014610
 0.540000   41.901837   -27.493466
 0.545000   41.762826   -28.245313
 0.550000   41.619383   -29.261441
 0.555000   41.470212   -30.526039
 0.560000   41.314123   -32.007771
 0.565000   41.150134   -33.739001
 0.570000   40.976733   -35.740430
 0.575000   40.792730   -37.979041
 0.580000   40.596943   -40.454007
 0.585000   40.388190   -43.166266
 0.590000   40.165280   -46.111914
 0.595000   39.927071   -49.237100
 0.600000   39.672909   -52.450671
 0.605000   39.402564   -55.684293
 0.610000   39.116066   -58.886938
 0.615000   38.813694   -62.012079
 0.620000   38.495945   -64.952283
 0.625000   38.164172   -67.713388
 0.630000   37.818811   -70.342664
 0.635000   37.460745   -72.785495
 0.640000   37.090956   -75.027417
 0.645000   36.710471   -77.064499
 0.650000   36.320311   -78.859650
 0.655000   35.921874   -80.588470
 0.660000   35.514427   -82.452667
 0.665000   35.097348   -84.446558
 0.670000   34.669961   -86.583597
 0.675000   34.231512   -88.864355
 0.680000   33.781318   -91.379263
 0.685000   33.317719   -93.843207
 0.690000   32.842886   -95.753049
 0.695000   32.360189   -96.993045
 0.700000   31.872955   -97.559589
 0.705000   31.384593   -97.463037
 0.710000   30.898325   -96.759995
 0.715000   30.416993   -95.502673
 0.720000   29.943298   -93.738470
 0.725000   29.479608   -91.520468
 0.730000   29.028093   -88.888571
 0.735000   28.590722   -85.886859
 0.740000   28.169225   -82.541858
 0.745000   27.765304   -78.923007
 0.750000   27.379995   -75.199362
 0.755000   27.013310   -71.532355
 0.760000   26.664671   -68.024350
 0.765000   26.333067   -64.732779
 0.770000   26.017343   -61.716983
 0.775000   25.715897   -58.921790
 0.780000   25.428125   -56.078311
 0.785000   25.155114   -53.117349
 0.790000   24.896952   -50.183926
 0.795000   24.653274   -47.385599
 0.800000   24.423096   -44.885529
 0.805000   24.204419   -42.899466
 0.810000   23.994101   -41.568433
 0.815000   23.788735   -41.050308
 0.820000   23.583598   -41.562234
 0.825000   23.373112   -43.283911
 0.830000   23.150759   -46.437177
 0.835000   22.908741   -51.264651
 0.840000   22.638113   -57.772705
 0.845000   22.331014   -66.068704
 0.850000   21.977426   -76.455005
 0.855000   21.566464   -89.077438
 0.860000   21.086651   -104.051764
 0.865000   20.525946   -121.690012
 0.870000   19.869751   -141.389700
 0.875000   19.112049   -162.284625
 0.880000   18.246905   -183.906860
 0.885000   17.272980   -205.186423
 0.890000   16.195041   -224.787271
 0.895000   15.025108   -241.546719
 0.900000   13.779573   -253.299887
 0.905000   12.492109   -258.389581
 0.910000   11.195678   -256.620486
 0.915000   9.925904   -247.758185
 0.920000   8.718096   -232.179474
 0.925000   7.604109   -210.586377
 0.930000   6.612232   -184.551862
 0.935000   5.758591   -156.215294
 0.940000   5.050079   -127.495465
 0.945000   4.483636   -100.290193
 0.950000   4.047177   -76.174007
 0.955000   3.721896   -56.007613
 0.960000   3.487101   -40.486615
 0.965000   3.317030   -29.730386
 0.970000   3.189797   -22.962372
 0.975000   3.087406   -19.409441
 0.980000   2.995703   -18.318742
 0.985000   2.904219   -18.916838
 0.990000   2.806534   -20.634846
 0.995000   2.697870   -23.099086
 1.000000   2.575543   -25.831560
201 psinorm omegp(kRad/s) domegp/dpsiN
 0.000000   -0.007146   129.385469
 0.005000   0.516462   80.057850
 0.010000   0.793432   53.580812
 0.015000   1.052270   51.503826
 0.020000   1.308470   51.075441
 0.025000   1.563025   50.256609
 0.030000   1.811037   48.455660
 0.035000   2.047581   46.320015
 0.040000   2.274237   44.150129
 0.045000   2.489082   41.785702
 0.050000   2.692094   39.605163
 0.055000   2.885134   37.853319
 0.060000   3.070627   36.406761
 0.065000   3.249202   35.088984
 0.070000   3.421517   33.886258
 0.075000   3.588064   32.566879
 0.080000   3.747186   30.987823
 0.085000   3.897942   29.189649
 0.090000   4.039082   27.141520
 0.095000   4.169358   25.107903
 0.100000   4.290161   23.141504
 0.105000   4.400773   21.305567
 0.110000   4.503217   19.734487
 0.115000   4.598118   18.427838
 0.120000   4.687495   17.552124
 0.125000   4.773639   17.114314
 0.130000   4.858638   16.938146
 0.135000   4.943020   16.919103
 0.140000   5.027829   16.944483
 0.145000   5.112465   16.991810
 0.150000   5.197747   16.840653
 0.155000   5.280872   16.458654
 0.160000   5.362334   15.858786
 0.165000   5.439459   15.083076
 0.170000   5.513165   14.176194
 0.175000   5.581221   13.054159
 0.180000   5.643706   11.896876
 0.185000   5.700190   10.602620
 0.190000   5.749732   9.365515
 0.195000   5.793845   8.105853
 0.200000   5.830791   6.844198
 0.205000   5.862287   5.736301
 0.210000   5.888154   4.701685
 0.215000   5.909304   3.970178
 0.220000   5.927856   3.274619
 0.225000   5.942050   2.505296
 0.230000   5.952909   1.753989
 0.235000   5.959590   0.745689
 0.240000   5.960366   -0.387929
 0.245000   5.955711   -1.736383
 0.250000   5.943002   -3.390602
 0.255000   5.921805   -5.032771
 0.260000   5.892674   -6.797880
 0.265000   5.853826   -8.649842
 0.270000   5.806176   -10.344856
 0.275000   5.750378   -12.036822
 0.280000   5.685807   -13.649300
 0.285000   5.613885   -15.137680
 0.290000   5.534431   -16.703794
 0.295000   5.446847   -18.231368
 0.300000   5.352117   -19.778849
 0.305000   5.249058   -21.533272
 0.310000   5.136784   -23.326470
 0.315000   5.015793   -25.240316
 0.320000   4.884381   -27.459094
 0.325000   4.741203   -29.698429
 0.330000   4.587397   -31.822859
 0.335000   4.422974   -33.840403
 0.340000   4.248993   -35.493548
 0.345000   4.068038   -36.753103
 0.350000   3.881462   -37.527502
 0.355000   3.692763   -37.694226
 0.360000   3.504520   -37.519235
 0.365000   3.317571   -37.150421
 0.370000   3.133015   -36.555308
 0.375000   2.952018   -35.837905
 0.380000   2.774636   -35.119057
 0.385000   2.600827   -34.688908
 0.390000   2.427747   -34.685376
 0.395000   2.253974   -34.933253
 0.400000   2.078415   -35.318857
 0.405000   1.900785   -35.724681
 0.410000   1.721168   -36.357590
 0.415000   1.537209   -37.775603
 0.420000   1.343412   -40.432967
 0.425000   1.132880   -44.570388
 0.430000   0.897708   -50.261140
 0.435000   0.630268   -57.616698
 0.440000   0.321541   -67.152458
 0.445000   -0.041256   -77.448899
 0.450000   -0.452948   -87.180159
 0.455000   -0.913058   -96.541564
 0.460000   -1.418364   -104.935532
 0.465000   -1.962413   -111.815176
 0.470000   -2.536515   -116.182856
 0.475000   -3.124242   -116.990245
 0.480000   -3.706418   -114.405726
 0.485000   -4.268299   -109.081868
 0.490000   -4.797237   -101.385864
 0.495000   -5.282158   -91.239577
 0.500000   -5.709632   -79.356458
 0.505000   -6.075722   -67.882332
 0.510000   -6.388456   -57.661894
 0.515000   -6.652341   -48.588361
 0.520000   -6.874339   -41.158890
 0.525000   -7.063930   -35.611983
 0.530000   -7.230459   -32.556792
 0.535000   -7.389498   -31.767394
 0.540000   -7.548133   -31.923984
 0.545000   -7.708738   -32.337946
 0.550000   -7.871513   -32.718686
 0.555000   -8.035925   -33.170589
 0.560000   -8.203218   -33.240796
 0.565000   -8.368333   -32.450446
 0.570000   -8.527723   -31.066438
 0.575000   -8.678997   -29.152501
 0.580000   -8.819248   -26.671641
 0.585000   -8.945714   -23.684458
 0.590000   -9.056092   -20.415219
 0.595000   -9.149866   -17.034486
 0.600000   -9.226437   -13.670616
 0.605000   -9.286572   -10.551384
 0.610000   -9.331951   -7.747687
 0.615000   -9.364049   -5.192950
 0.620000   -9.383881   -3.013924
 0.625000   -9.394188   -1.347348
 0.630000   -9.397354   0.010441
 0.635000   -9.394084   1.186500
 0.640000   -9.385489   2.148804
 0.645000   -9.372596   2.953582
 0.650000   -9.355953   3.710990
 0.655000   -9.335486   4.453827
 0.660000   -9.311415   5.106531
 0.665000   -9.284420   5.703846
 0.670000   -9.254377   6.310230
 0.675000   -9.221318   6.920959
 0.680000   -9.185167   7.562212
 0.685000   -9.145696   8.326743
 0.690000   -9.101900   9.261601
 0.695000   -9.053080   10.314105
 0.700000   -8.998759   11.524964
 0.705000   -8.937830   12.871253
 0.710000   -8.870046   14.144430
 0.715000   -8.796386   15.173560
 0.720000   -8.718310   15.908527
 0.725000   -8.637301   16.278004
 0.730000   -8.555530   16.169336
 0.735000   -8.475607   15.510658
 0.740000   -8.400424   14.383880
 0.745000   -8.331769   12.958386
 0.750000   -8.270840   11.340109
 0.755000   -8.218367   9.667770
 0.760000   -8.174162   8.056152
 0.765000   -8.137806   6.634691
 0.770000   -8.107815   5.460355
 0.775000   -8.083202   4.507972
 0.780000   -8.062736   3.734553
 0.785000   -8.045857   2.998053
 0.790000   -8.032755   2.128828
 0.795000   -8.024569   1.022923
 0.800000   -8.022526   -0.366658
 0.805000   -8.028235   -2.079457
 0.810000   -8.043320   -4.041261
 0.815000   -8.068648   -6.078453
 0.820000   -8.104105   -8.006301
 0.825000   -8.148711   -9.508410
 0.830000   -8.199189   -10.290032
 0.835000   -8.251611   -10.276897
 0.840000   -8.301958   -9.470923
 0.845000   -8.346320   -7.948437
 0.850000   -8.381442   -5.712581
 0.855000   -8.403446   -2.806202
 0.860000   -8.409504   0.590534
 0.865000   -8.397541   4.328324
 0.870000   -8.366221   8.315512
 0.875000   -8.314386   12.416975
 0.880000   -8.242051   16.413968
 0.885000   -8.150246   20.177175
 0.890000   -8.040280   23.572106
 0.895000   -7.914525   26.342825
 0.900000   -7.776851   28.171728
 0.905000   -7.632808   28.799120
 0.910000   -7.488860   28.263537
 0.915000   -7.350172   26.954121
 0.920000   -7.219319   25.362948
 0.925000   -7.096543   23.835357
 0.930000   -6.980965   22.604775
 0.935000   -6.870495   22.261086
 0.940000   -6.758355   23.055782
 0.945000   -6.639937   21.049011
 0.950000   -6.547864   13.804291
 0.955000   -6.501894   4.211863
 0.960000   -6.505746   -1.953408
 0.965000   -6.521428   7.595988
 0.970000   -6.429786   53.854175
 0.975000   -5.982887   154.084850
 0.980000   -4.888937   303.575094
 0.985000   -2.947136   464.125282
 0.990000   -0.247685   567.572872
 0.995000   2.728593   549.940495
 1.000000   5.251720   459.310460
201 psinorm omgvb(kRad/s) domgvb/dpsiN
 0.000000   63.204527   129.417690
 0.005000   63.727702   79.852264
 0.010000   64.003049   53.082939
 0.015000   64.258531   50.592098
 0.020000   64.508970   49.605813
 0.025000   64.754589   48.067352
 0.030000   64.989644   45.372542
 0.035000   65.208314   42.163595
 0.040000   65.411280   38.754171
 0.045000   65.595856   35.000858
 0.050000   65.761288   31.296814
 0.055000   65.908824   27.912833
 0.060000   66.040417   24.756010
 0.065000   66.156384   21.683953
 0.070000   66.257256   18.764621
 0.075000   66.344031   15.777456
 0.080000   66.415031   12.532991
 0.085000   66.469361   9.083466
 0.090000   66.505865   5.397418
 0.095000   66.523335   1.726858
 0.100000   66.523134   -1.848635
 0.105000   66.504848   -5.278530
 0.110000   66.470349   -8.459881
 0.115000   66.420250   -11.367310
 0.120000   66.356676   -13.833875
 0.125000   66.281911   -15.880503
 0.130000   66.197871   -17.711226
 0.135000   66.104799   -19.457383
 0.140000   66.003297   -21.215566
 0.145000   65.892643   -22.962097
 0.150000   65.773676   -24.901925
 0.155000   65.643624   -27.066289
 0.160000   65.503013   -29.435026
 0.165000   65.349273   -31.952911
 0.170000   65.183484   -34.565895
 0.175000   65.003614   -37.343563
 0.180000   64.810048   -40.092759
 0.185000   64.602687   -42.911483
 0.190000   64.380933   -45.593003
 0.195000   64.146757   -48.209304
 0.200000   63.898840   -50.758561
 0.205000   63.639171   -53.067007
 0.210000   63.368170   -55.171124
 0.215000   63.087460   -56.822502
 0.220000   62.799945   -58.258517
 0.225000   62.504875   -59.552051
 0.230000   62.204425   -60.693333
 0.235000   61.897941   -62.015847
 0.240000   61.584266   -63.358301
 0.245000   61.264358   -64.827113
 0.250000   60.935995   -66.517325
 0.255000   60.599185   -68.082858
 0.260000   60.255166   -69.725966
 0.265000   59.901926   -71.453199
 0.270000   59.540634   -72.980016
 0.275000   59.172125   -74.476333
 0.280000   58.795871   -75.880024
 0.285000   58.413325   -77.162633
 0.290000   58.024245   -78.573634
 0.295000   57.627589   -79.999004
 0.300000   57.224255   -81.442211
 0.305000   56.813167   -83.047008
 0.310000   56.393785   -84.594167
 0.315000   55.967225   -86.100925
 0.320000   55.532775   -87.732818
 0.325000   55.089897   -89.235243
 0.330000   54.640423   -90.488070
 0.335000   54.185016   -91.509160
 0.340000   53.725331   -92.053077
 0.345000   53.264485   -92.051371
 0.350000   52.804818   -91.472398
 0.355000   52.349761   -90.279358
 0.360000   51.902024   -88.719521
 0.365000   51.462566   -86.950294
 0.370000   51.032521   -84.955166
 0.375000   50.613015   -82.823069
 0.380000   50.204290   -80.714008
 0.385000   49.805874   -78.946736
 0.390000   49.414823   -77.612146
 0.395000   49.029753   -76.522346
 0.400000   48.649600   -75.568645
 0.405000   48.274067   -74.623155
 0.410000   47.903368   -73.962750
 0.415000   47.534439   -74.285654
 0.420000   47.160512   -76.116559
 0.425000   46.773273   -79.712762
 0.430000   46.363384   -85.135443
 0.435000   45.921919   -92.552744
 0.440000   45.437856   -102.422232
 0.445000   44.897697   -113.066929
 0.450000   44.307187   -123.070629
 0.455000   43.666990   -132.642846
 0.460000   42.980759   -141.140790
 0.465000   42.255583   -148.057289
 0.470000   41.500186   -152.346645
 0.475000   40.732116   -152.756756
 0.480000   39.972618   -149.469863
 0.485000   39.237417   -143.264118
 0.490000   38.539977   -134.545208
 0.495000   37.891965   -123.288570
 0.500000   37.307091   -110.238730
 0.505000   36.789578   -97.598833
 0.510000   36.331103   -86.336694
 0.515000   35.926211   -76.430573
 0.520000   35.566797   -68.410166
 0.525000   35.242109   -62.527376
 0.530000   34.941524   -59.384676
 0.535000   34.648263   -58.782004
 0.540000   34.353704   -59.417450
 0.545000   34.054088   -60.583259
 0.550000   33.747871   -61.980127
 0.555000   33.434287   -63.696628
 0.560000   33.110905   -65.248567
 0.565000   32.781801   -66.189448
 0.570000   32.449010   -66.806867
 0.575000   32.113733   -67.131541
 0.580000   31.777695   -67.125648
 0.585000   31.442476   -66.850724
 0.590000   31.109188   -66.527133
 0.595000   30.777205   -66.271586
 0.600000   30.446472   -66.121288
 0.605000   30.115992   -66.235676
 0.610000   29.784115   -66.634625
 0.615000   29.449646   -67.205029
 0.620000   29.112065   -67.966206
 0.625000   28.769984   -69.060737
 0.630000   28.421457   -70.332222
 0.635000   28.066661   -71.598995
 0.640000   27.705467   -72.878613
 0.645000   27.337875   -74.110917
 0.650000   26.964358   -75.148660
 0.655000   26.586389   -76.134644
 0.660000   26.203012   -77.346136
 0.665000   25.812927   -78.742712
 0.670000   25.415585   -80.273367
 0.675000   25.010194   -81.943396
 0.680000   24.596151   -83.817051
 0.685000   24.172023   -85.516463
 0.690000   23.740986   -86.491448
 0.695000   23.307109   -86.678940
 0.700000   22.874197   -86.034624
 0.705000   22.446762   -84.591784
 0.710000   22.028279   -82.615565
 0.715000   21.620607   -80.329114
 0.720000   21.224988   -77.829944
 0.725000   20.842307   -75.242464
 0.730000   20.472563   -72.719235
 0.735000   20.115115   -70.376202
 0.740000   19.768801   -68.157978
 0.745000   19.433535   -65.964622
 0.750000   19.109155   -63.859253
 0.755000   18.794943   -61.864585
 0.760000   18.490509   -59.968198
 0.765000   18.195261   -58.098088
 0.770000   17.909528   -56.256628
 0.775000   17.632694   -54.413818
 0.780000   17.365390   -52.343758
 0.785000   17.109257   -50.119296
 0.790000   16.864197   -48.055099
 0.795000   16.628706   -46.362676
 0.800000   16.400570   -45.252186
 0.805000   16.176184   -44.978923
 0.810000   15.950781   -45.609694
 0.815000   15.720087   -47.128761
 0.820000   15.479493   -49.568535
 0.825000   15.224402   -52.792321
 0.830000   14.951570   -56.727208
 0.835000   14.657130   -61.541549
 0.840000   14.336155   -67.243628
 0.845000   13.984693   -74.017141
 0.850000   13.595983   -82.167586
 0.855000   13.163017   -91.883640
 0.860000   12.677147   -103.461230
 0.865000   12.128405   -117.361687
 0.870000   11.503530   -133.074189
 0.875000   10.797663   -149.867651
 0.880000   10.004853   -167.492892
 0.885000   9.122734   -185.009248
 0.890000   8.154761   -201.215165
 0.895000   7.110583   -215.203894
 0.900000   6.002722   -225.128159
 0.905000   4.859301   -229.590461
 0.910000   3.706817   -228.356949
 0.915000   2.575732   -220.804063
 0.920000   1.498777   -206.816526
 0.925000   0.507566   -186.751020
 0.930000   -0.368733   -161.947087
 0.935000   -1.111905   -133.954208
 0.940000   -1.708276   -104.439683
 0.945000   -2.156301   -79.241183
 0.950000   -2.500687   -62.369716
 0.955000   -2.779999   -51.795749
 0.960000   -3.018645   -42.440023
 0.965000   -3.204399   -22.134399
 0.970000   -3.239989   30.891803
 0.975000   -2.895481   134.675410
 0.980000   -1.893235   285.256352
 0.985000   -0.042917   445.208444
 0.990000   2.558850   546.938025
 0.995000   5.426463   526.841409
 1.000000   7.827264   433.478901
201 psinorm omgpp(kRad/s) domgpp/dpsiN
 0.000000   -0.055780   -27.654203
 0.005000   -0.225462   -40.218438
 0.010000   -0.457965   -47.208207
 0.015000   -0.697544   -48.543876
 0.020000   -0.943404   -49.688891
 0.025000   -1.194433   -50.599194
 0.030000   -1.449395   -51.298955
 0.035000   -1.707423   -51.785739
 0.040000   -1.967253   -52.031940
 0.045000   -2.227742   -52.052635
 0.050000   -2.487779   -51.816032
 0.055000   -2.745902   -51.324890
 0.060000   -3.001028   -50.723987
 0.065000   -3.253142   -49.915554
 0.070000   -3.500184   -48.793413
 0.075000   -3.741076   -47.478572
 0.080000   -3.974969   -45.974625
 0.085000   -4.200822   -44.280823
 0.090000   -4.417778   -42.772647
 0.095000   -4.628549   -41.302566
 0.100000   -4.830803   -39.553218
 0.105000   -5.024081   -37.715840
 0.110000   -5.207962   -35.772054
 0.115000   -5.381802   -33.687112
 0.120000   -5.544833   -31.950574
 0.125000   -5.701307   -30.501154
 0.130000   -5.849844   -28.860415
 0.135000   -5.989912   -27.070019
 0.140000   -6.120545   -25.044266
 0.145000   -6.240354   -22.733225
 0.150000   -6.347877   -20.320793
 0.155000   -6.443562   -17.917566
 0.160000   -6.527052   -15.455295
 0.165000   -6.598115   -12.949700
 0.170000   -6.656549   -10.415395
 0.175000   -6.702269   -7.663848
 0.180000   -6.733188   -5.094798
 0.185000   -6.753217   -2.823197
 0.190000   -6.761420   -0.485193
 0.195000   -6.758069   1.760720
 0.200000   -6.743813   3.850819
 0.205000   -6.719561   5.787890
 0.210000   -6.685934   7.100999
 0.215000   -6.648551   7.954783
 0.220000   -6.606386   8.882297
 0.225000   -6.559728   9.730272
 0.230000   -6.509083   10.495668
 0.235000   -6.454771   10.845813
 0.240000   -6.400625   11.289159
 0.245000   -6.341880   12.347821
 0.250000   -6.277147   13.533898
 0.255000   -6.206541   14.800565
 0.260000   -6.129141   16.238925
 0.265000   -6.044151   17.574708
 0.270000   -5.953394   19.254661
 0.275000   -5.851605   21.402327
 0.280000   -5.739371   23.297010
 0.285000   -5.618635   24.960843
 0.290000   -5.489762   26.546692
 0.295000   -5.353168   28.194586
 0.300000   -5.207817   30.121688
 0.305000   -5.051951   31.874508
 0.310000   -4.889072   32.985460
 0.315000   -4.722096   33.470344
 0.320000   -4.554368   33.333598
 0.325000   -4.388760   32.836853
 0.330000   -4.226000   31.937761
 0.335000   -4.069383   30.588190
 0.340000   -3.920118   29.343125
 0.345000   -3.775951   28.337314
 0.350000   -3.636745   27.369677
 0.355000   -3.502255   26.352098
 0.360000   -3.373224   25.189917
 0.365000   -3.250355   24.428968
 0.370000   -3.128934   24.022925
 0.375000   -3.010126   23.596554
 0.380000   -2.892968   23.384653
 0.385000   -2.776280   23.404901
 0.390000   -2.658919   23.820328
 0.395000   -2.538076   24.573406
 0.400000   -2.413185   25.009593
 0.405000   -2.287980   24.927472
 0.410000   -2.163911   24.545072
 0.415000   -2.042530   23.889918
 0.420000   -1.925011   23.213681
 0.425000   -1.810393   21.886177
 0.430000   -1.706150   20.147270
 0.435000   -1.608920   18.744886
 0.440000   -1.518701   17.342824
 0.445000   -1.435492   15.942094
 0.450000   -1.359280   14.816352
 0.455000   -1.287328   13.296158
 0.460000   -1.226318   11.458734
 0.465000   -1.172741   9.968840
 0.470000   -1.126630   8.465066
 0.475000   -1.088090   6.933354
 0.480000   -1.057296   5.333462
 0.485000   -1.034756   3.642977
 0.490000   -1.020866   2.169643
 0.495000   -1.013059   1.043834
 0.500000   -1.010428   0.046775
 0.505000   -1.012592   -0.908274
 0.510000   -1.019511   -1.890976
 0.515000   -1.031501   -2.886611
 0.520000   -1.048377   -3.828222
 0.525000   -1.069784   -4.702318
 0.530000   -1.095400   -5.511299
 0.535000   -1.124897   -6.254424
 0.540000   -1.157944   -6.923887
 0.545000   -1.194135   -7.532715
 0.550000   -1.233272   -8.105271
 0.555000   -1.275188   -8.640062
 0.560000   -1.319672   -9.139210
 0.565000   -1.366580   -9.609582
 0.570000   -1.415768   -10.053078
 0.575000   -1.467111   -10.464207
 0.580000   -1.520410   -10.807768
 0.585000   -1.575189   -11.069824
 0.590000   -1.631108   -11.269550
 0.595000   -1.687884   -11.418956
 0.600000   -1.745298   -11.543261
 0.605000   -1.803317   -11.658533
 0.610000   -1.861883   -11.738253
 0.615000   -1.920699   -11.792023
 0.620000   -1.979803   -11.837682
 0.625000   -2.039076   -11.853217
 0.630000   -2.098336   -11.895855
 0.635000   -2.158035   -11.938577
 0.640000   -2.217721   -11.717872
 0.645000   -2.275213   -11.340077
 0.650000   -2.331122   -11.003028
 0.655000   -2.385244   -10.627614
 0.660000   -2.437398   -10.288778
 0.665000   -2.488132   -10.148451
 0.670000   -2.538883   -10.119236
 0.675000   -2.589324   -10.367885
 0.680000   -2.642562   -10.922400
 0.685000   -2.698548   -11.401059
 0.690000   -2.756572   -11.846857
 0.695000   -2.817016   -12.586601
 0.700000   -2.882438   -12.055617
 0.705000   -2.937573   -10.582873
 0.710000   -2.988267   -9.532018
 0.715000   -3.032893   -8.134951
 0.720000   -3.069617   -6.417748
 0.725000   -3.097070   -4.550783
 0.730000   -3.115124   -1.630805
 0.735000   -3.113378   1.811645
 0.740000   -3.097008   4.774702
 0.745000   -3.065631   7.758650
 0.750000   -3.019421   10.643120
 0.755000   -2.959200   14.007991
 0.760000   -2.879341   16.473446
 0.765000   -2.794466   17.614730
 0.770000   -2.703194   18.662238
 0.775000   -2.607843   19.246018
 0.780000   -2.510734   19.378705
 0.785000   -2.414056   19.523575
 0.790000   -2.315498   18.603354
 0.795000   -2.228023   16.771136
 0.800000   -2.147787   15.267129
 0.805000   -2.075351   13.662771
 0.810000   -2.011159   12.042068
 0.815000   -1.954931   10.410362
 0.820000   -1.907056   9.371734
 0.825000   -1.861213   8.942609
 0.830000   -1.817629   8.389695
 0.835000   -1.777316   7.662526
 0.840000   -1.741004   6.759685
 0.845000   -1.709720   5.365900
 0.850000   -1.687345   3.614858
 0.855000   -1.673571   1.772818
 0.860000   -1.669617   -0.429717
 0.865000   -1.677868   -2.989336
 0.870000   -1.699510   -5.774353
 0.875000   -1.735612   -9.278595
 0.880000   -1.792296   -12.964659
 0.885000   -1.865258   -16.121471
 0.890000   -1.953511   -20.122217
 0.895000   -2.066480   -25.718004
 0.900000   -2.210691   -32.742114
 0.905000   -2.393902   -42.949385
 0.910000   -2.640185   -57.122810
 0.915000   -2.965130   -72.652232
 0.920000   -3.366707   -91.925484
 0.925000   -3.884385   -118.892357
 0.930000   -4.555631   -154.765905
 0.935000   -5.432044   -207.619043
 0.940000   -6.631821   -282.482211
 0.945000   -8.256866   -360.065906
 0.950000   -10.232480   -438.171924
 0.955000   -12.638585   -517.675963
 0.960000   -15.409240   -571.332496
 0.965000   -18.351910   -578.143364
 0.970000   -21.190674   -510.197794
 0.975000   -23.453888   -322.815510
 0.980000   -24.418829   -62.191421
 0.985000   -24.075802   192.235417
 0.990000   -22.496475   408.115037
 0.995000   -19.994652   545.483634
 1.000000   -17.041638   635.721746
201 psinorm omgeb(kRad/s) domgeb/dpsiN
 0.000000   63.148746   101.763486
 0.005000   63.502240   39.633826
 0.010000   63.545084   5.874732
 0.015000   63.560987   2.048222
 0.020000   63.565567   -0.083078
 0.025000   63.560156   -2.531842
 0.030000   63.540248   -5.926413
 0.035000   63.500892   -9.622144
 0.040000   63.444027   -13.277769
 0.045000   63.368114   -17.051778
 0.050000   63.273509   -20.519218
 0.055000   63.162922   -23.412057
 0.060000   63.039389   -25.967976
 0.065000   62.903242   -28.231602
 0.070000   62.757072   -30.028791
 0.075000   62.602954   -31.701116
 0.080000   62.440061   -33.441633
 0.085000   62.268538   -35.197357
 0.090000   62.088088   -37.375229
 0.095000   61.894786   -39.575708
 0.100000   61.692331   -41.401853
 0.105000   61.480767   -42.994370
 0.110000   61.262387   -44.231935
 0.115000   61.038448   -45.054421
 0.120000   60.811843   -45.784449
 0.125000   60.580603   -46.381657
 0.130000   60.348026   -46.571641
 0.135000   60.114887   -46.527402
 0.140000   59.882752   -46.259832
 0.145000   59.652289   -45.695322
 0.150000   59.425799   -45.222718
 0.155000   59.200061   -44.983856
 0.160000   58.975960   -44.890321
 0.165000   58.751158   -44.902611
 0.170000   58.526934   -44.981290
 0.175000   58.301345   -45.007411
 0.180000   58.076860   -45.187557
 0.185000   57.849470   -45.734680
 0.190000   57.619513   -46.078196
 0.195000   57.388688   -46.448584
 0.200000   57.155028   -46.907742
 0.205000   56.919610   -47.279117
 0.210000   56.682236   -48.070125
 0.215000   56.438909   -48.867719
 0.220000   56.193559   -49.376220
 0.225000   55.945147   -49.821779
 0.230000   55.695341   -50.197665
 0.235000   55.443170   -51.170034
 0.240000   55.183641   -52.069141
 0.245000   54.922479   -52.479292
 0.250000   54.658848   -52.983426
 0.255000   54.392645   -53.282294
 0.260000   54.126025   -53.487042
 0.265000   53.857774   -53.878491
 0.270000   53.587240   -53.725355
 0.275000   53.320521   -53.074006
 0.280000   53.056500   -52.583014
 0.285000   52.794691   -52.201790
 0.290000   52.534482   -52.026942
 0.295000   52.274421   -51.804419
 0.300000   52.016438   -51.320523
 0.305000   51.761216   -51.172500
 0.310000   51.504713   -51.608707
 0.315000   51.245129   -52.630582
 0.320000   50.978407   -54.399220
 0.325000   50.701137   -56.398390
 0.330000   50.414423   -58.550309
 0.335000   50.115634   -60.920970
 0.340000   49.805214   -62.709952
 0.345000   49.488534   -63.714058
 0.350000   49.168073   -64.102721
 0.355000   48.847507   -63.927260
 0.360000   48.528801   -63.529603
 0.365000   48.212211   -62.521327
 0.370000   47.903587   -60.932240
 0.375000   47.602888   -59.226515
 0.380000   47.311322   -57.329355
 0.385000   47.029595   -55.541835
 0.390000   46.755904   -53.791818
 0.395000   46.491677   -51.948941
 0.400000   46.236414   -50.559052
 0.405000   45.986086   -49.695682
 0.410000   45.739458   -49.417678
 0.415000   45.491909   -50.395736
 0.420000   45.235500   -52.902878
 0.425000   44.962881   -57.826585
 0.430000   44.657234   -64.988173
 0.435000   44.312999   -73.807858
 0.440000   43.919156   -85.079408
 0.445000   43.462205   -97.124834
 0.450000   42.947907   -108.254276
 0.455000   42.379662   -119.346688
 0.460000   41.754441   -129.682056
 0.465000   41.082841   -138.088449
 0.470000   40.373556   -143.881579
 0.475000   39.644026   -145.823402
 0.480000   38.915322   -144.136401
 0.485000   38.202662   -139.621141
 0.490000   37.519111   -132.375565
 0.495000   36.878906   -122.244736
 0.500000   36.296663   -110.191955
 0.505000   35.776986   -98.507107
 0.510000   35.311592   -88.227670
 0.515000   34.894710   -79.317184
 0.520000   34.518420   -72.238388
 0.525000   34.172326   -67.229694
 0.530000   33.846123   -64.895975
 0.535000   33.523366   -65.036428
 0.540000   33.195759   -66.341337
 0.545000   32.859953   -68.115974
 0.550000   32.514599   -70.085399
 0.555000   32.159099   -72.336691
 0.560000   31.791232   -74.387777
 0.565000   31.415221   -75.799030
 0.570000   31.033242   -76.859945
 0.575000   30.646622   -77.595748
 0.580000   30.257285   -77.933416
 0.585000   29.867287   -77.920548
 0.590000   29.478079   -77.796683
 0.595000   29.089321   -77.690543
 0.600000   28.701174   -77.664549
 0.605000   28.312675   -77.894210
 0.610000   27.922232   -78.372878
 0.615000   27.528946   -78.997052
 0.620000   27.132261   -79.803888
 0.625000   26.730907   -80.913953
 0.630000   26.323122   -82.228078
 0.635000   25.908627   -83.537572
 0.640000   25.487746   -84.596485
 0.645000   25.062662   -85.450994
 0.650000   24.633236   -86.151688
 0.655000   24.201145   -86.762258
 0.660000   23.765613   -87.634914
 0.665000   23.324796   -88.891163
 0.670000   22.876702   -90.392603
 0.675000   22.420870   -92.311282
 0.680000   21.953589   -94.739451
 0.685000   21.473475   -96.917523
 0.690000   20.984414   -98.338305
 0.695000   20.490092   -99.265541
 0.700000   19.991758   -98.090241
 0.705000   19.509190   -95.174658
 0.710000   19.040012   -92.147583
 0.715000   18.587714   -88.464065
 0.720000   18.155371   -84.247691
 0.725000   17.745237   -79.793247
 0.730000   17.357439   -74.350040
 0.735000   17.001737   -68.564557
 0.740000   16.671793   -63.383276
 0.745000   16.367904   -58.205972
 0.750000   16.089733   -53.216132
 0.755000   15.835743   -47.856594
 0.760000   15.611167   -43.494752
 0.765000   15.400795   -40.483358
 0.770000   15.206334   -37.594390
 0.775000   15.024851   -35.167799
 0.780000   14.854656   -32.965053
 0.785000   14.695201   -30.595722
 0.790000   14.548699   -29.451745
 0.795000   14.400683   -29.591539
 0.800000   14.252783   -29.985058
 0.805000   14.100833   -31.316153
 0.810000   13.939622   -33.567626
 0.815000   13.765156   -36.718398
 0.820000   13.572438   -40.196801
 0.825000   13.363188   -43.849712
 0.830000   13.133941   -48.337513
 0.835000   12.879813   -53.879023
 0.840000   12.595150   -60.483942
 0.845000   12.274974   -68.651241
 0.850000   11.908638   -78.552728
 0.855000   11.489446   -90.110823
 0.860000   11.007530   -103.890948
 0.865000   10.450537   -120.351023
 0.870000   9.804019   -138.848542
 0.875000   9.062052   -159.146246
 0.880000   8.212557   -180.457551
 0.885000   7.257476   -201.130719
 0.890000   6.201250   -221.337383
 0.895000   5.044102   -240.921898
 0.900000   3.792031   -257.870273
 0.905000   2.465399   -272.539846
 0.910000   1.066632   -285.479760
 0.915000   -0.389398   -293.456295
 0.920000   -1.867931   -298.742010
 0.925000   -3.376818   -305.643377
 0.930000   -4.924364   -316.712992
 0.935000   -6.543948   -341.573251
 0.940000   -8.340097   -386.921894
 0.945000   -10.413167   -439.307089
 0.950000   -12.733168   -500.541640
 0.955000   -15.418583   -569.471713
 0.960000   -18.427885   -613.772518
 0.965000   -21.556309   -600.277763
 0.970000   -24.430662   -479.305991
 0.975000   -26.349369   -188.140100
 0.980000   -26.312063   223.064931
 0.985000   -24.118719   637.443862
 0.990000   -19.937625   955.053062
 0.995000   -14.568189   1072.325044
 1.000000   -9.214374   1069.200646
201 psinorm er(kV/m) der/dpsiN
 0.000000   1.125621   1083.482888
 0.005000   5.527856   677.410931
 0.010000   7.899731   421.308286
 0.015000   9.740939   338.557812
 0.020000   11.285309   290.883889
 0.025000   12.649778   259.796406
 0.030000   13.883273   236.454509
 0.035000   15.014323   217.587639
 0.040000   16.059149   202.105955
 0.045000   17.035382   189.469563
 0.050000   17.953845   177.637629
 0.055000   18.811759   166.313086
 0.060000   19.616976   156.028985
 0.065000   20.372048   149.571995
 0.070000   21.112696   142.795310
 0.075000   21.800002   132.749394
 0.080000   22.440190   128.451583
 0.085000   23.084517   122.226743
 0.090000   23.662457   115.354859
 0.095000   24.238066   111.341391
 0.100000   24.775871   103.618088
 0.105000   25.274247   100.715512
 0.110000   25.783026   94.244493
 0.115000   26.216692   91.298737
 0.120000   26.696013   86.228098
 0.125000   27.078973   82.849251
 0.130000   27.524506   79.246492
 0.135000   27.871438   75.551566
 0.140000   28.280022   73.428857
 0.145000   28.605726   69.316142
 0.150000   28.973183   68.524294
 0.155000   29.290969   63.611975
 0.160000   29.609303   63.441396
 0.165000   29.925383   58.101673
 0.170000   30.190320   58.330930
 0.175000   30.508692   52.979707
 0.180000   30.720117   50.618094
 0.185000   31.014873   51.316814
 0.190000   31.233285   44.940850
 0.195000   31.464282   47.057223
 0.200000   31.703857   40.310299
 0.205000   31.867385   39.523929
 0.210000   32.099096   38.766816
 0.215000   32.255053   32.770328
 0.220000   32.426800   35.888521
 0.225000   32.613938   28.771442
 0.230000   32.714514   27.040591
 0.235000   32.884344   29.370131
 0.240000   33.008215   21.884322
 0.245000   33.103187   23.170912
 0.250000   33.239924   20.498093
 0.255000   33.308168   16.048761
 0.260000   33.400412   20.102150
 0.265000   33.509190   13.269197
 0.270000   33.533104   11.132331
 0.275000   33.620513   16.414657
 0.280000   33.697251   9.631495
 0.285000   33.716828   8.986937
 0.290000   33.787120   12.056413
 0.295000   33.837392   6.247120
 0.300000   33.849591   6.444187
 0.305000   33.901834   8.175225
 0.310000   33.931343   2.869468
 0.315000   33.930529   2.365520
 0.320000   33.954999   2.162692
 0.325000   33.952156   -3.546820
 0.330000   33.919530   -4.893668
 0.335000   33.903219   -5.726201
 0.340000   33.862268   -10.892487
 0.345000   33.794294   -11.741512
 0.350000   33.744853   -11.120892
 0.355000   33.683085   -14.645402
 0.360000   33.598399   -14.860838
 0.365000   33.534477   -12.967617
 0.370000   33.468723   -15.249757
 0.375000   33.381979   -14.878734
 0.380000   33.319936   -11.978803
 0.385000   33.262191   -13.864398
 0.390000   33.181292   -13.766143
 0.395000   33.124530   -10.901096
 0.400000   33.072281   -12.123460
 0.405000   33.003295   -12.916172
 0.410000   32.943119   -11.946860
 0.415000   32.883827   -13.651592
 0.420000   32.806603   -17.088887
 0.425000   32.712938   -20.702492
 0.430000   32.599578   -26.075337
 0.435000   32.452184   -34.224814
 0.440000   32.257330   -43.136686
 0.445000   32.020817   -51.800219
 0.450000   31.739328   -61.716636
 0.455000   31.403651   -70.992516
 0.460000   31.029403   -78.576009
 0.465000   30.617891   -86.057672
 0.470000   30.168826   -91.719340
 0.475000   29.700698   -93.629882
 0.480000   29.232527   -92.935687
 0.485000   28.771341   -90.922499
 0.490000   28.323302   -86.216766
 0.495000   27.909173   -78.653751
 0.500000   27.536765   -70.718932
 0.505000   27.201984   -62.662407
 0.510000   26.910141   -54.787787
 0.515000   26.654106   -48.575966
 0.520000   26.424381   -44.067847
 0.525000   26.213427   -40.486122
 0.530000   26.019520   -38.668520
 0.535000   25.826742   -39.727552
 0.540000   25.622244   -41.209191
 0.545000   25.414650   -42.340639
 0.550000   25.198838   -44.503982
 0.555000   24.969610   -46.993855
 0.560000   24.728899   -48.628771
 0.565000   24.483323   -49.775677
 0.570000   24.231142   -51.571052
 0.575000   23.967612   -52.514914
 0.580000   23.705993   -52.460146
 0.585000   23.443011   -53.146272
 0.590000   23.174531   -53.751443
 0.595000   22.905496   -53.571490
 0.600000   22.638816   -53.536409
 0.605000   22.370132   -54.738028
 0.610000   22.091435   -55.416162
 0.615000   21.815971   -55.438471
 0.620000   21.537051   -56.737414
 0.625000   21.248597   -58.353628
 0.630000   20.953514   -59.255600
 0.635000   20.656041   -60.083084
 0.640000   20.352684   -62.086078
 0.645000   20.035180   -63.102992
 0.650000   19.721654   -62.998515
 0.655000   19.405195   -64.041177
 0.660000   19.081242   -65.600205
 0.665000   18.749193   -66.524663
 0.670000   18.415995   -67.343227
 0.675000   18.075760   -69.894373
 0.680000   17.717052   -72.334366
 0.685000   17.352417   -73.547641
 0.690000   16.981575   -74.875242
 0.695000   16.603664   -76.714419
 0.700000   16.214431   -75.832565
 0.705000   15.845339   -72.812622
 0.710000   15.486305   -71.123104
 0.715000   15.134107   -68.854887
 0.720000   14.797756   -65.042689
 0.725000   14.483681   -61.061355
 0.730000   14.187142   -57.762567
 0.735000   13.906055   -53.328933
 0.740000   13.653853   -48.258235
 0.745000   13.423473   -44.266723
 0.750000   13.211186   -41.114550
 0.755000   13.012327   -36.614536
 0.760000   12.845040   -32.344186
 0.765000   12.688885   -30.476113
 0.770000   12.540279   -28.637026
 0.775000   12.402515   -26.247259
 0.780000   12.277807   -24.099358
 0.785000   12.161521   -22.899312
 0.790000   12.048814   -22.189624
 0.795000   11.939625   -21.747857
 0.800000   11.831335   -22.116316
 0.805000   11.718462   -23.891857
 0.810000   11.592416   -25.799631
 0.815000   11.460466   -27.947526
 0.820000   11.312941   -31.147959
 0.825000   11.148986   -34.666531
 0.830000   10.966276   -38.329610
 0.835000   10.765690   -42.717172
 0.840000   10.539104   -48.677710
 0.845000   10.278913   -55.852076
 0.850000   9.980583   -63.988524
 0.855000   9.639028   -73.639079
 0.860000   9.244193   -85.783786
 0.865000   8.781190   -99.881467
 0.870000   8.245378   -115.238468
 0.875000   7.628805   -132.527504
 0.880000   6.920103   -151.126447
 0.885000   6.117541   -168.787730
 0.890000   5.232226   -185.702396
 0.895000   4.260517   -202.675975
 0.900000   3.205466   -217.663559
 0.905000   2.083881   -230.227300
 0.910000   0.903193   -241.102848
 0.915000   -0.327147   -248.468835
 0.920000   -1.581496   -253.525020
 0.925000   -2.862398   -259.303249
 0.930000   -4.174528   -268.640053
 0.935000   -5.548798   -291.279034
 0.940000   -7.087318   -331.056517
 0.945000   -8.859363   -374.872842
 0.950000   -10.836047   -426.248692
 0.955000   -13.121850   -516.273969
 0.960000   -15.998786   -563.640152
 0.965000   -18.758252   -529.230987
 0.970000   -21.291096   -425.006012
 0.975000   -23.008312   -205.410717
 0.980000   -23.345203   158.183686
 0.985000   -21.426475   559.854247
 0.990000   -17.746661   843.809753
 0.995000   -12.988377   954.287702
 1.000000   -8.203784   959.549681
201 psinorm ommvb() dommvb/dpsiN
 0.000000   29.335928   16163.669259
 0.005000   99.297191   11820.835732
 0.010000   147.544285   9868.402856
 0.015000   197.981219   9299.736633
 0.020000   240.541652   7967.120569
 0.025000   277.652425   6723.603803
 0.030000   307.777690   5616.859312
 0.035000   333.821018   4941.130405
 0.040000   357.188994   4459.948816
 0.045000   378.420506   3943.975594
 0.050000   396.628750   3434.070565
 0.055000   412.761212   3037.931826
 0.060000   427.008068   2593.205160
 0.065000   438.693263   2212.515761
 0.070000   449.133226   1934.977551
 0.075000   458.043039   1645.799214
 0.080000   465.591218   1402.274060
 0.085000   472.065779   1163.189982
 0.090000   477.223118   953.683896
 0.095000   481.602618   788.608947
 0.100000   485.109207   645.071357
 0.105000   488.053332   516.986914
 0.110000   490.279076   250.926770
 0.115000   490.562600   12.216112
 0.120000   490.401237   -83.341495
 0.125000   489.729185   -206.088577
 0.130000   488.340352   -342.987959
 0.135000   486.299305   -510.791289
 0.140000   483.232439   -710.244771
 0.145000   479.196857   -780.480012
 0.150000   475.427638   -800.690111
 0.155000   471.189956   -893.031344
 0.160000   466.497325   -982.090759
 0.165000   461.369049   -1062.085278
 0.170000   455.876472   -1130.466995
 0.175000   450.064379   -1184.777574
 0.180000   444.028697   -1235.050418
 0.185000   437.713875   -1423.092159
 0.190000   429.797775   -1484.497000
 0.195000   422.868905   -1398.087377
 0.200000   415.816901   -1420.874278
 0.205000   408.660162   -1436.608143
 0.210000   401.450820   -1448.167742
 0.215000   394.178484   -1454.669154
 0.220000   386.904128   -1447.162996
 0.225000   379.706854   -1529.650153
 0.230000   371.607627   -1651.485659
 0.235000   363.191998   -1537.910229
 0.240000   356.228524   -1379.826574
 0.245000   349.393732   -1354.835346
 0.250000   342.680171   -1327.894946
 0.255000   336.114783   -1330.428191
 0.260000   329.375889   -1500.782674
 0.265000   321.106956   -1407.285915
 0.270000   315.303030   -1148.991415
 0.275000   309.617042   -1118.541439
 0.280000   304.117615   -1071.316273
 0.285000   298.903879   -1160.659436
 0.290000   292.511021   -1167.293613
 0.295000   287.230943   -951.857912
 0.300000   282.992442   -825.861748
 0.305000   278.972325   -781.669294
 0.310000   275.175749   -848.141698
 0.315000   270.490908   -846.330380
 0.320000   266.712445   -661.240031
 0.325000   263.878508   -548.439449
 0.330000   261.228051   -511.138396
 0.335000   258.767124   -587.094678
 0.340000   255.357104   -540.588221
 0.345000   253.361242   -362.859617
 0.350000   251.728508   -311.370710
 0.355000   250.247535   -312.069059
 0.360000   248.607817   -338.766366
 0.365000   246.859871   -257.323431
 0.370000   246.034583   -151.957250
 0.375000   245.340299   -125.314124
 0.380000   244.781442   -164.092258
 0.385000   243.699376   -134.615582
 0.390000   243.435286   -32.677003
 0.395000   243.372606   -4.493450
 0.400000   243.390351   -19.061938
 0.405000   243.181987   -25.782485
 0.410000   243.132526   25.018021
 0.415000   243.432167   61.947671
 0.420000   243.752003   53.742933
 0.425000   243.969596   11.444237
 0.430000   243.866446   21.729904
 0.435000   244.186895   60.082723
 0.440000   244.467273   50.802678
 0.445000   244.694922   -6.688194
 0.450000   244.400391   -8.436740
 0.455000   244.610555   40.746801
 0.460000   244.807859   35.877649
 0.465000   244.969331   -8.420047
 0.470000   244.723658   -24.915346
 0.475000   244.720178   17.669230
 0.480000   244.900351   39.391136
 0.485000   245.114089   26.779822
 0.490000   245.168149   13.690225
 0.495000   245.250991   50.453109
 0.500000   245.672680   90.985461
 0.505000   246.160846   96.209678
 0.510000   246.634777   65.787340
 0.515000   246.818719   81.028510
 0.520000   247.445062   125.152478
 0.525000   248.070244   124.220941
 0.530000   248.687271   83.568011
 0.535000   248.905924   83.952398
 0.540000   249.526795   130.288705
 0.545000   250.208811   134.038487
 0.550000   250.867180   106.037942
 0.555000   251.269191   78.665144
 0.560000   251.653832   107.187943
 0.565000   252.341070   138.651068
 0.570000   253.040342   141.783250
 0.575000   253.758903   105.750031
 0.580000   254.097843   117.408911
 0.585000   254.932992   169.338936
 0.590000   255.791232   175.992390
 0.595000   256.692916   172.890239
 0.600000   257.520134   172.665491
 0.605000   258.419570   212.868741
 0.610000   259.648822   252.653906
 0.615000   260.946110   267.146294
 0.620000   262.320285   271.896966
 0.625000   263.665079   296.795268
 0.630000   265.288237   346.033485
 0.635000   267.125414   379.933025
 0.640000   269.087568   404.857379
 0.645000   271.173988   426.026539
 0.650000   273.347833   460.771751
 0.655000   275.781705   503.943113
 0.660000   278.387264   535.557235
 0.665000   281.137278   563.285163
 0.670000   284.020116   594.163309
 0.675000   287.078911   631.374740
 0.680000   290.333863   671.158432
 0.685000   293.790495   710.788588
 0.690000   297.441749   750.408144
 0.695000   301.294577   804.741395
 0.700000   305.489163   865.141243
 0.705000   309.945989   915.922508
 0.710000   314.648388   968.753298
 0.715000   319.633522   1026.638802
 0.720000   324.914776   1089.223519
 0.725000   330.525757   1171.574094
 0.730000   336.630517   1235.265620
 0.735000   342.878413   1283.192277
 0.740000   349.462440   1350.949096
 0.745000   356.387904   1418.938795
 0.750000   363.651828   1488.132763
 0.755000   371.269232   1563.783161
 0.760000   379.289659   1614.992121
 0.765000   387.419153   1657.400806
 0.770000   395.863667   1726.522804
 0.775000   404.684381   1803.881831
 0.780000   413.902486   1881.620639
 0.785000   423.500588   1952.004708
 0.790000   433.422533   2018.945997
 0.795000   443.690048   2095.260236
 0.800000   454.375135   2182.287002
 0.805000   465.512918   2275.394568
 0.810000   477.129081   2372.758717
 0.815000   489.240505   2472.848120
 0.820000   501.857562   2555.471093
 0.825000   514.795216   2621.622013
 0.830000   528.073782   2734.755346
 0.835000   542.142769   2867.606562
 0.840000   556.749848   2979.822829
 0.845000   571.940997   3095.143419
 0.850000   587.701282   3208.979928
 0.855000   604.030797   3324.095203
 0.860000   620.942234   3440.565440
 0.865000   638.436451   3548.858923
 0.870000   656.430823   3696.785189
 0.875000   675.404303   3998.268847
 0.880000   696.413512   4362.379324
 0.885000   719.028096   4712.793179
 0.890000   743.541443   5145.604652
 0.895000   770.484143   5686.170785
 0.900000   800.403151   6354.735718
 0.905000   834.031500   7206.029388
 0.910000   872.463445   8390.175937
 0.915000   917.933259   10230.402889
 0.920000   974.767474   13068.821219
 0.925000   1048.621471   17191.793774
 0.930000   1146.685412   23069.546129
 0.935000   1279.316933   31318.536529
 0.940000   1459.870777   42526.065220
 0.945000   1704.577585   56582.986840
 0.950000   2025.700646   70643.492254
 0.955000   2411.012507   77743.183149
 0.960000   2803.132477   76038.428055
 0.965000   3171.396788   73787.489304
 0.970000   3541.007370   73273.647593
 0.975000   3904.133264   58767.174105
 0.980000   4128.679111   25997.659376
 0.985000   4164.109858   -3471.987476
 0.990000   4093.959236   -1698.033083
 0.995000   4147.129527   279271.765576
 1.000000   6886.676892   816547.180508
201 psinorm ommpp() dommpp/dpsiN
 0.000000   33.812818   -16061.905772
 0.005000   -35.794951   -11781.201906
 0.010000   -83.999201   -9862.528125
 0.015000   -134.420232   -9297.688412
 0.020000   -176.976085   -7967.203647
 0.025000   -214.092269   -6726.135645
 0.030000   -244.237441   -5622.785724
 0.035000   -270.320126   -4950.752549
 0.040000   -293.744967   -4473.226584
 0.045000   -315.052392   -3961.027372
 0.050000   -333.355241   -3454.589783
 0.055000   -349.598290   -3061.343883
 0.060000   -363.968679   -2619.173136
 0.065000   -375.790021   -2240.747363
 0.070000   -386.376153   -1965.006343
 0.075000   -395.440084   -1677.500330
 0.080000   -403.151156   -1435.715693
 0.085000   -409.797241   -1198.387339
 0.090000   -415.135030   -991.059126
 0.095000   -419.707833   -828.184655
 0.100000   -423.416876   -686.473211
 0.105000   -426.572565   -559.981284
 0.110000   -429.016689   -295.158705
 0.115000   -429.524152   -57.270533
 0.120000   -429.589395   37.557046
 0.125000   -429.148581   159.706920
 0.130000   -427.992325   296.416318
 0.135000   -426.184418   464.263887
 0.140000   -423.349686   663.984938
 0.145000   -419.544569   734.784690
 0.150000   -416.001840   755.467393
 0.155000   -411.989895   848.047488
 0.160000   -407.521365   937.200438
 0.165000   -402.617890   1017.182668
 0.170000   -397.349538   1085.485706
 0.175000   -391.763033   1139.770163
 0.180000   -385.951836   1189.862861
 0.185000   -379.864405   1377.357479
 0.190000   -372.178262   1438.418805
 0.195000   -365.480217   1351.638793
 0.200000   -358.661874   1373.966536
 0.205000   -351.740551   1389.329026
 0.210000   -344.768583   1400.097617
 0.215000   -337.739575   1405.801435
 0.220000   -330.710569   1397.786776
 0.225000   -323.761707   1479.828374
 0.230000   -315.912285   1601.287994
 0.235000   -307.748827   1486.740195
 0.240000   -301.044883   1327.757433
 0.245000   -294.471253   1302.356053
 0.250000   -288.021323   1274.911520
 0.255000   -281.722138   1277.145898
 0.260000   -275.249864   1447.295632
 0.265000   -267.249182   1353.407424
 0.270000   -261.715790   1095.266061
 0.275000   -256.296521   1065.467433
 0.280000   -251.061115   1018.733260
 0.285000   -246.109188   1108.457646
 0.290000   -239.976539   1115.266671
 0.295000   -234.956522   900.053493
 0.300000   -230.976004   774.541225
 0.305000   -227.211109   730.496794
 0.310000   -223.671036   796.532991
 0.315000   -219.245780   793.699799
 0.320000   -215.734038   606.840810
 0.325000   -213.177371   492.041059
 0.330000   -210.813627   452.588087
 0.335000   -208.651491   526.173708
 0.340000   -205.551890   477.878268
 0.345000   -203.872708   299.145560
 0.350000   -202.560435   247.267989
 0.355000   -201.400028   248.141799
 0.360000   -200.079017   275.236763
 0.365000   -198.647660   194.802105
 0.370000   -198.130996   91.025010
 0.375000   -197.737410   66.087609
 0.380000   -197.470120   106.762903
 0.385000   -196.669781   79.073747
 0.390000   -196.679382   -21.114814
 0.395000   -196.880929   -47.455490
 0.400000   -197.153937   -31.497114
 0.405000   -197.195901   -23.913197
 0.410000   -197.393069   -74.435699
 0.415000   -197.940258   -112.343408
 0.420000   -198.516503   -106.645811
 0.425000   -199.006716   -69.270821
 0.430000   -199.209211   -86.718077
 0.435000   -199.873896   -133.890582
 0.440000   -200.548117   -135.882086
 0.445000   -201.232717   -90.436640
 0.450000   -201.452483   -99.817536
 0.455000   -202.230893   -160.093490
 0.460000   -203.053418   -165.559704
 0.465000   -203.886490   -129.668403
 0.470000   -204.350102   -118.966233
 0.475000   -205.076152   -163.492632
 0.480000   -205.985029   -183.527537
 0.485000   -206.911427   -166.400963
 0.490000   -207.649038   -146.065790
 0.495000   -208.372085   -172.697845
 0.500000   -209.376017   -201.177416
 0.505000   -210.383859   -194.716785
 0.510000   -211.323185   -154.015010
 0.515000   -211.924010   -160.345694
 0.520000   -212.926642   -197.390865
 0.525000   -213.897918   -191.450635
 0.530000   -214.841148   -148.463985
 0.535000   -215.382558   -148.988826
 0.540000   -216.331036   -196.630042
 0.545000   -217.348858   -202.154462
 0.550000   -218.352581   -176.123340
 0.555000   -219.110092   -151.001834
 0.560000   -219.862599   -181.575720
 0.565000   -220.925849   -214.450097
 0.570000   -222.007100   -218.643195
 0.575000   -223.112281   -183.345779
 0.580000   -223.840558   -195.342327
 0.585000   -225.065704   -247.259484
 0.590000   -226.313153   -253.789073
 0.595000   -227.603595   -250.580782
 0.600000   -228.818961   -250.330040
 0.605000   -230.106895   -290.762951
 0.610000   -231.726590   -331.026784
 0.615000   -233.417163   -346.143346
 0.620000   -235.188024   -351.700854
 0.625000   -236.934172   -377.709221
 0.630000   -238.965116   -428.261563
 0.635000   -241.216787   -463.470596
 0.640000   -243.599822   -489.453864
 0.645000   -246.111326   -511.477533
 0.650000   -248.714597   -546.923438
 0.655000   -251.580560   -590.705370
 0.660000   -254.621651   -623.192149
 0.665000   -257.812482   -652.176326
 0.670000   -261.143414   -684.555912
 0.675000   -264.658041   -723.686021
 0.680000   -268.380274   -765.897884
 0.685000   -272.317020   -807.706111
 0.690000   -276.457335   -848.746448
 0.695000   -280.804484   -904.006937
 0.700000   -285.497405   -963.231484
 0.705000   -290.436799   -1011.097166
 0.710000   -295.608376   -1060.900881
 0.715000   -301.045808   -1115.102866
 0.720000   -306.759405   -1173.471210
 0.725000   -312.780520   -1251.367342
 0.730000   -319.273078   -1309.615659
 0.735000   -325.876677   -1351.756833
 0.740000   -332.790647   -1414.332372
 0.745000   -340.020000   -1477.144767
 0.750000   -347.562094   -1541.348895
 0.755000   -355.433489   -1611.639755
 0.760000   -363.678492   -1658.486873
 0.765000   -372.018358   -1697.884164
 0.770000   -380.657334   -1764.117194
 0.775000   -389.659530   -1839.049631
 0.780000   -399.047830   -1914.585693
 0.785000   -408.805387   -1982.600429
 0.790000   -418.873834   -2048.397742
 0.795000   -429.289364   -2124.851775
 0.800000   -440.122352   -2212.272059
 0.805000   -451.412085   -2306.710721
 0.810000   -463.189459   -2406.326343
 0.815000   -475.475348   -2509.566519
 0.820000   -488.285124   -2595.667894
 0.825000   -501.432027   -2665.471725
 0.830000   -514.939842   -2783.092859
 0.835000   -529.262956   -2921.485585
 0.840000   -544.154697   -3040.306772
 0.845000   -559.666024   -3163.794661
 0.850000   -575.792644   -3287.532656
 0.855000   -592.541350   -3414.206025
 0.860000   -609.934704   -3544.456387
 0.865000   -627.985914   -3669.209946
 0.870000   -646.626804   -3835.633731
 0.875000   -666.342251   -4157.415093
 0.880000   -688.200955   -4542.836875
 0.885000   -711.770620   -4913.923898
 0.890000   -737.340194   -5366.942035
 0.895000   -765.440041   -5927.092683
 0.900000   -796.611120   -6612.605991
 0.905000   -831.566100   -7478.569234
 0.910000   -871.396813   -8675.655696
 0.915000   -918.322657   -10523.859184
 0.920000   -976.635405   -13367.563230
 0.925000   -1051.998290   -17497.437151
 0.930000   -1151.609776   -23386.259121
 0.935000   -1285.860881   -31660.109779
 0.940000   -1468.210874   -42912.987114
 0.945000   -1714.990752   -57022.293928
 0.950000   -2038.433813   -71144.033894
 0.955000   -2426.431091   -78312.654862
 0.960000   -2821.560362   -76652.200573
 0.965000   -3192.953097   -74387.767067
 0.970000   -3565.438033   -73752.953584
 0.975000   -3930.482633   -58955.314205
 0.980000   -4154.991175   -25774.594445
 0.985000   -4188.228577   4109.431338
 0.990000   -4113.896861   2653.086145
 0.995000   -4161.697716   -278199.440533
 1.000000   -6895.891267   -815477.979861
201 psinorm omevb() domevb/dpsiN
 0.000000   42.767694   106.285749
 0.005000   43.146684   45.310222
 0.010000   43.220796   12.199504
 0.015000   43.268679   8.515160
 0.020000   43.305948   6.525112
 0.025000   43.333930   4.216673
 0.030000   43.348115   0.961490
 0.035000   43.343545   -2.595802
 0.040000   43.322157   -6.113948
 0.045000   43.282406   -9.751449
 0.050000   43.224642   -13.083363
 0.055000   43.151572   -15.841668
 0.060000   43.066226   -18.264057
 0.065000   42.968931   -20.395164
 0.070000   42.862274   -22.060858
 0.075000   42.748323   -23.602720
 0.080000   42.626247   -25.213817
 0.085000   42.496185   -26.841173
 0.090000   42.357835   -28.891739
 0.095000   42.207267   -30.965983
 0.100000   42.048175   -32.666971
 0.105000   41.880598   -34.135420
 0.110000   41.706821   -35.250015
 0.115000   41.528097   -35.950636
 0.120000   41.347315   -36.559912
 0.125000   41.162498   -37.037490
 0.130000   40.976940   -37.108974
 0.135000   40.791409   -36.947373
 0.140000   40.607466   -36.563585
 0.145000   40.425773   -35.884010
 0.150000   40.248626   -35.297499
 0.155000   40.072798   -34.945898
 0.160000   39.899167   -34.740796
 0.165000   39.725390   -34.642699
 0.170000   39.552740   -34.612177
 0.175000   39.379268   -34.530290
 0.180000   39.207437   -34.603625
 0.185000   39.033232   -35.045142
 0.190000   38.856986   -35.284260
 0.195000   38.680389   -35.551468
 0.200000   38.501471   -35.908665
 0.205000   38.321303   -36.179304
 0.210000   38.139678   -36.870807
 0.215000   37.952594   -37.570131
 0.220000   37.763977   -37.981601
 0.225000   37.572778   -38.331374
 0.230000   37.380663   -38.612722
 0.235000   37.186651   -39.491804
 0.240000   36.985745   -40.298880
 0.245000   36.783662   -40.618259
 0.250000   36.579562   -41.032885
 0.255000   36.373334   -41.243509
 0.260000   36.167127   -41.361283
 0.265000   35.959721   -41.667030
 0.270000   35.750457   -41.429466
 0.275000   35.545426   -40.694966
 0.280000   35.343507   -40.122101
 0.285000   35.144205   -39.660286
 0.290000   34.946904   -39.406131
 0.295000   34.750144   -39.105584
 0.300000   34.555848   -38.544952
 0.305000   34.364694   -38.321479
 0.310000   34.172634   -38.683526
 0.315000   33.977859   -39.632531
 0.320000   33.776308   -41.329590
 0.325000   33.564563   -43.258471
 0.330000   33.343724   -45.341394
 0.335000   33.111149   -47.644350
 0.340000   32.867280   -49.366920
 0.345000   32.617480   -50.305906
 0.350000   32.364221   -50.630741
 0.355000   32.111173   -50.392744
 0.360000   31.860294   -49.933841
 0.365000   31.611834   -48.865610
 0.370000   31.371638   -47.217858
 0.375000   31.139656   -45.454755
 0.380000   30.917090   -43.501505
 0.385000   30.704641   -41.659179
 0.390000   30.500498   -39.855641
 0.395000   30.306084   -37.960526
 0.400000   30.120893   -36.519679
 0.405000   29.940887   -35.606630
 0.410000   29.764827   -35.280222
 0.415000   29.588085   -36.211151
 0.420000   29.402715   -38.672434
 0.425000   29.201361   -43.551551
 0.430000   28.967200   -50.669816
 0.435000   28.694663   -59.447440
 0.440000   28.372725   -70.678188
 0.445000   27.987881   -82.684069
 0.450000   27.545885   -93.775219
 0.455000   27.050129   -104.830588
 0.460000   26.497579   -115.130159
 0.465000   25.898827   -123.501997
 0.470000   25.262559   -129.261809
 0.475000   24.606209   -131.171549
 0.480000   23.950843   -129.453693
 0.485000   23.311672   -124.908803
 0.490000   22.701755   -117.634818
 0.495000   22.135324   -107.476795
 0.500000   21.626987   -95.398032
 0.505000   21.181343   -83.688407
 0.510000   20.790103   -73.385394
 0.515000   20.447489   -64.452527
 0.520000   20.145578   -57.352541
 0.525000   19.873964   -52.323842
 0.530000   19.622339   -49.971297
 0.535000   19.374251   -50.094098
 0.540000   19.121398   -51.382522
 0.545000   18.860426   -53.141836
 0.550000   18.589980   -55.097094
 0.555000   18.309455   -57.335368
 0.560000   18.016626   -59.374580
 0.565000   17.715709   -60.775095
 0.570000   17.408875   -61.826404
 0.575000   17.097445   -62.553723
 0.580000   16.783338   -62.884025
 0.585000   16.468605   -62.864901
 0.590000   16.154689   -62.735883
 0.595000   15.841246   -62.625687
 0.600000   15.528432   -62.596726
 0.605000   15.215279   -62.824503
 0.610000   14.900187   -63.302362
 0.615000   14.582255   -63.926793
 0.620000   14.260919   -64.734947
 0.625000   13.934906   -65.847382
 0.630000   13.602446   -67.164922
 0.635000   13.263256   -68.478867
 0.640000   12.917657   -69.543262
 0.645000   12.567824   -70.404273
 0.650000   12.213614   -71.112482
 0.655000   11.856699   -71.731574
 0.660000   11.496298   -72.613748
 0.665000   11.130562   -73.880505
 0.670000   10.757493   -75.393433
 0.675000   10.376627   -77.324572
 0.680000   9.984248   -79.766166
 0.685000   9.578966   -81.958617
 0.690000   9.164661   -83.394725
 0.695000   8.745018   -84.338226
 0.700000   8.321279   -83.180119
 0.705000   7.913217   -80.282650
 0.710000   7.518453   -77.274599
 0.715000   7.140471   -73.611006
 0.720000   6.782343   -69.415449
 0.725000   6.446317   -64.982702
 0.730000   6.132516   -59.562060
 0.735000   5.850696   -53.799999
 0.740000   5.594516   -48.642980
 0.745000   5.364266   -43.490761
 0.750000   5.159608   -38.526808
 0.755000   4.978998   -33.193927
 0.760000   4.827669   -28.859477
 0.765000   4.690403   -25.876155
 0.770000   4.568907   -23.015868
 0.775000   4.460245   -20.618463
 0.780000   4.362723   -18.445259
 0.785000   4.275792   -16.105611
 0.790000   4.201666   -14.991147
 0.795000   4.125881   -15.159830
 0.800000   4.050068   -15.580954
 0.805000   3.970071   -16.937414
 0.810000   3.880694   -19.210622
 0.815000   3.777965   -22.377493
 0.820000   3.656919   -25.863467
 0.825000   3.519330   -29.511284
 0.830000   3.361806   -33.975438
 0.835000   3.179576   -39.466441
 0.840000   2.967142   -45.982386
 0.845000   2.719752   -54.006233
 0.850000   2.427080   -63.688072
 0.855000   2.082871   -74.921514
 0.860000   1.677864   -88.234954
 0.865000   1.200522   -104.040938
 0.870000   0.637455   -121.645622
 0.875000   -0.015935   -140.762320
 0.880000   -0.770168   -160.575862
 0.885000   -1.621693   -179.467198
 0.890000   -2.564840   -197.782937
 0.895000   -3.599523   -215.841117
 0.900000   -4.723251   -232.695265
 0.905000   -5.926475   -250.912552
 0.910000   -7.232377   -275.402540
 0.915000   -8.680501   -311.277080
 0.920000   -10.345148   -376.428835
 0.925000   -12.444789   -503.797331
 0.930000   -15.383121   -747.033163
 0.935000   -19.915121   -1202.931277
 0.940000   -27.412434   -2014.128484
 0.945000   -40.056405   -3337.751232
 0.950000   -60.789946   -5256.475093
 0.955000   -92.621156   -7359.922783
 0.960000   -134.389174   -8085.583903
 0.965000   -173.476995   -5193.796210
 0.970000   -186.327136   1106.735729
 0.975000   -162.409638   6595.477799
 0.980000   -120.372358   7983.808788
 0.985000   -82.571550   6512.701002
 0.990000   -55.245348   4624.584094
 0.995000   -36.325709   3199.494401
 1.000000   -23.250404   2030.627706
201 psinorm omepp() domepp/dpsiN
 0.000000   20.381052   -4.522262
 0.005000   20.355555   -5.676396
 0.010000   20.324288   -6.324773
 0.015000   20.292308   -6.466939
 0.020000   20.259619   -6.608190
 0.025000   20.226226   -6.748515
 0.030000   20.192134   -6.887903
 0.035000   20.157347   -7.026342
 0.040000   20.121870   -7.163821
 0.045000   20.085709   -7.300328
 0.050000   20.048867   -7.435855
 0.055000   20.011350   -7.570389
 0.060000   19.973163   -7.703920
 0.065000   19.934311   -7.836438
 0.070000   19.894799   -7.967934
 0.075000   19.854631   -8.098396
 0.080000   19.813815   -8.227816
 0.085000   19.772353   -8.356184
 0.090000   19.730253   -8.483490
 0.095000   19.687518   -8.609726
 0.100000   19.644156   -8.734882
 0.105000   19.600170   -8.858950
 0.110000   19.555566   -8.981920
 0.115000   19.510350   -9.103786
 0.120000   19.464528   -9.224537
 0.125000   19.418105   -9.344167
 0.130000   19.371087   -9.462667
 0.135000   19.323478   -9.580029
 0.140000   19.275286   -9.696247
 0.145000   19.226516   -9.811312
 0.150000   19.177173   -9.925219
 0.155000   19.127264   -10.037958
 0.160000   19.076794   -10.149525
 0.165000   19.025768   -10.259912
 0.170000   18.974194   -10.369113
 0.175000   18.922077   -10.477122
 0.180000   18.869423   -10.583932
 0.185000   18.816238   -10.689538
 0.190000   18.762528   -10.793935
 0.195000   18.708299   -10.897117
 0.200000   18.653557   -10.999078
 0.205000   18.598308   -11.099813
 0.210000   18.542558   -11.199318
 0.215000   18.486315   -11.297588
 0.220000   18.429583   -11.394619
 0.225000   18.372368   -11.490405
 0.230000   18.314679   -11.584944
 0.235000   18.256519   -11.678230
 0.240000   18.197896   -11.770261
 0.245000   18.138816   -11.861033
 0.250000   18.079286   -11.950541
 0.255000   18.019311   -12.038784
 0.260000   17.958898   -12.125759
 0.265000   17.898053   -12.211461
 0.270000   17.836783   -12.295889
 0.275000   17.775095   -12.379040
 0.280000   17.712993   -12.460912
 0.285000   17.650485   -12.541503
 0.290000   17.587578   -12.620811
 0.295000   17.524277   -12.698834
 0.300000   17.460590   -12.775571
 0.305000   17.396522   -12.851020
 0.310000   17.332079   -12.925181
 0.315000   17.267270   -12.998051
 0.320000   17.202099   -13.069631
 0.325000   17.136574   -13.139919
 0.330000   17.070700   -13.208915
 0.335000   17.004484   -13.276620
 0.340000   16.937934   -13.343032
 0.345000   16.871054   -13.408152
 0.350000   16.803852   -13.471980
 0.355000   16.736334   -13.534516
 0.360000   16.668507   -13.595762
 0.365000   16.600377   -13.655717
 0.370000   16.531950   -13.714383
 0.375000   16.463233   -13.771760
 0.380000   16.394232   -13.827851
 0.385000   16.324954   -13.882656
 0.390000   16.255406   -13.936176
 0.395000   16.185593   -13.988415
 0.400000   16.115521   -14.039373
 0.405000   16.045199   -14.089053
 0.410000   15.974631   -14.137456
 0.415000   15.903824   -14.184586
 0.420000   15.832785   -14.230444
 0.425000   15.761520   -14.275034
 0.430000   15.690035   -14.318357
 0.435000   15.618336   -14.360419
 0.440000   15.546431   -14.401220
 0.445000   15.474324   -14.440765
 0.450000   15.402023   -14.479057
 0.455000   15.329533   -14.516100
 0.460000   15.256862   -14.551897
 0.465000   15.184014   -14.586452
 0.470000   15.110997   -14.619770
 0.475000   15.037817   -14.651854
 0.480000   14.964479   -14.682708
 0.485000   14.890990   -14.712338
 0.490000   14.817355   -14.740747
 0.495000   14.743582   -14.767940
 0.500000   14.669676   -14.793923
 0.505000   14.595643   -14.818700
 0.510000   14.521489   -14.842276
 0.515000   14.447220   -14.864656
 0.520000   14.372842   -14.885846
 0.525000   14.298362   -14.905852
 0.530000   14.223784   -14.924678
 0.535000   14.149115   -14.942330
 0.540000   14.074361   -14.958815
 0.545000   13.999527   -14.974138
 0.550000   13.924619   -14.988305
 0.555000   13.849644   -15.001323
 0.560000   13.774606   -15.013197
 0.565000   13.699512   -15.023935
 0.570000   13.624367   -15.033542
 0.575000   13.549176   -15.042025
 0.580000   13.473946   -15.049391
 0.585000   13.398682   -15.055647
 0.590000   13.323390   -15.060799
 0.595000   13.248074   -15.064855
 0.600000   13.172741   -15.067822
 0.605000   13.097396   -15.069707
 0.610000   13.022044   -15.070516
 0.615000   12.946691   -15.070259
 0.620000   12.871342   -15.068941
 0.625000   12.796002   -15.066571
 0.630000   12.720676   -15.063156
 0.635000   12.645370   -15.058704
 0.640000   12.570089   -15.053223
 0.645000   12.494838   -15.046721
 0.650000   12.419622   -15.039205
 0.655000   12.344446   -15.030684
 0.660000   12.269315   -15.021166
 0.665000   12.194234   -15.010658
 0.670000   12.119208   -14.999170
 0.675000   12.044242   -14.986710
 0.680000   11.969341   -14.973286
 0.685000   11.894510   -14.958906
 0.690000   11.819752   -14.943580
 0.695000   11.745074   -14.927315
 0.700000   11.670479   -14.910122
 0.705000   11.595973   -14.892008
 0.710000   11.521559   -14.872984
 0.715000   11.447243   -14.853059
 0.720000   11.373028   -14.832242
 0.725000   11.298920   -14.810545
 0.730000   11.224923   -14.787979
 0.735000   11.151041   -14.764558
 0.740000   11.077277   -14.740296
 0.745000   11.003638   -14.715210
 0.750000   10.930125   -14.689325
 0.755000   10.856744   -14.662667
 0.760000   10.783499   -14.635276
 0.765000   10.710392   -14.607203
 0.770000   10.637427   -14.578522
 0.775000   10.564606   -14.549336
 0.780000   10.491933   -14.519794
 0.785000   10.419408   -14.490111
 0.790000   10.347032   -14.460598
 0.795000   10.274802   -14.431710
 0.800000   10.202715   -14.404104
 0.805000   10.130761   -14.378739
 0.810000   10.058928   -14.357003
 0.815000   9.987191   -14.340905
 0.820000   9.915519   -14.333334
 0.825000   9.843858   -14.338429
 0.830000   9.772134   -14.362075
 0.835000   9.700237   -14.412582
 0.840000   9.628008   -14.501557
 0.845000   9.555222   -14.645008
 0.850000   9.481558   -14.864656
 0.855000   9.406575   -15.189308
 0.860000   9.329665   -15.655993
 0.865000   9.250015   -16.310085
 0.870000   9.166564   -17.202919
 0.875000   9.077986   -18.383926
 0.880000   8.982725   -19.881690
 0.885000   8.879169   -21.663521
 0.890000   8.766090   -23.554445
 0.895000   8.643625   -25.080782
 0.900000   8.515282   -25.175008
 0.905000   8.391875   -21.627294
 0.910000   8.299009   -10.077220
 0.915000   8.291102   17.820785
 0.920000   8.477217   77.686825
 0.925000   9.067971   198.153954
 0.930000   10.458757   430.320171
 0.935000   13.371172   861.358027
 0.940000   19.072337   1627.206590
 0.945000   29.643238   2898.444143
 0.950000   48.056778   4755.933454
 0.955000   77.202573   6790.451070
 0.960000   115.961289   7471.811384
 0.965000   151.920687   4593.518448
 0.970000   161.896474   -1586.041720
 0.975000   136.060269   -6783.617899
 0.980000   94.060295   -7760.743856
 0.985000   58.452831   -5875.257140
 0.990000   35.307723   -3669.531032
 0.995000   21.757521   -2127.169358
 1.000000   14.036030   -961.427060
201 psinorm kpol(km/s/T) dkpol/dpsiN
 0.000000   -0.007051   131.208079
 0.005000   0.529236   83.306581
 0.010000   0.826015   57.944855
 0.015000   1.108685   56.632042
 0.020000   1.392336   56.887866
 0.025000   1.677563   56.656700
 0.030000   1.958903   55.301851
 0.035000   2.230582   53.487262
 0.040000   2.493775   51.556946
 0.045000   2.746151   49.361126
 0.050000   2.987386   47.307070
 0.055000   3.219222   45.670060
 0.060000   3.444087   44.338986
 0.065000   3.662612   43.132522
 0.070000   3.875412   42.020381
 0.075000   4.082816   40.745879
 0.080000   4.282871   39.159127
 0.085000   4.474407   37.294613
 0.090000   4.655817   35.105879
 0.095000   4.825466   32.903579
 0.100000   4.984853   30.758723
 0.105000   5.133053   28.735553
 0.110000   5.272209   26.994500
 0.115000   5.402998   25.551216
 0.120000   5.527721   24.601924
 0.125000   5.649017   24.156211
 0.130000   5.769283   24.017937
 0.135000   5.889196   24.069096
 0.140000   6.009974   24.172206
 0.145000   6.130919   24.300842
 0.150000   6.252982   24.193564
 0.155000   6.372854   23.806263
 0.160000   6.491045   23.146695
 0.165000   6.604321   22.268779
 0.170000   6.713733   21.225578
 0.175000   6.816577   19.911656
 0.180000   6.912849   18.537660
 0.185000   7.001954   16.987279
 0.190000   7.082722   15.495250
 0.195000   7.156906   13.960963
 0.200000   7.222332   12.412810
 0.205000   7.281034   11.044276
 0.210000   7.332774   9.761101
 0.215000   7.378645   8.841564
 0.220000   7.421190   7.961842
 0.225000   7.458264   6.988520
 0.230000   7.491075   6.026698
 0.235000   7.518531   4.736421
 0.240000   7.538439   3.277689
 0.245000   7.551307   1.536693
 0.250000   7.553806   -0.602710
 0.255000   7.545280   -2.745269
 0.260000   7.526354   -5.055736
 0.265000   7.494723   -7.491144
 0.270000   7.451442   -9.745449
 0.275000   7.397268   -12.007406
 0.280000   7.331368   -14.179601
 0.285000   7.255472   -16.207685
 0.290000   7.169291   -18.345269
 0.295000   7.072020   -20.445606
 0.300000   6.964835   -22.586102
 0.305000   6.846159   -25.006996
 0.310000   6.714765   -27.495333
 0.315000   6.571205   -30.155723
 0.320000   6.413208   -33.228689
 0.325000   6.238919   -36.349622
 0.330000   6.049712   -39.337347
 0.335000   5.845545   -42.197166
 0.340000   5.627740   -44.592520
 0.345000   5.399620   -46.477772
 0.350000   5.162962   -47.722146
 0.355000   4.922398   -48.164291
 0.360000   4.681320   -48.151120
 0.365000   4.440887   -47.871820
 0.370000   4.202601   -47.285147
 0.375000   3.968036   -46.530116
 0.380000   3.737300   -45.764615
 0.385000   3.510390   -45.381844
 0.390000   3.283482   -45.573183
 0.395000   3.054658   -46.104174
 0.400000   2.822440   -46.822931
 0.405000   2.586428   -47.572251
 0.410000   2.346717   -48.634041
 0.415000   2.100088   -50.773665
 0.420000   1.838981   -54.623447
 0.425000   1.553854   -60.525936
 0.430000   1.233721   -68.597275
 0.435000   0.867881   -79.009361
 0.440000   0.443628   -92.491289
 0.445000   -0.057032   -107.099011
 0.450000   -0.627362   -121.005549
 0.455000   -1.267088   -134.474574
 0.460000   -1.972108   -146.670987
 0.465000   -2.733797   -156.821498
 0.470000   -3.540323   -163.513468
 0.475000   -4.368932   -165.255919
 0.480000   -5.192882   -162.249045
 0.485000   -5.991423   -155.368806
 0.490000   -6.746570   -145.106070
 0.495000   -7.442483   -131.328491
 0.500000   -8.059855   -115.015090
 0.505000   -8.592634   -99.185264
 0.510000   -9.051708   -85.044341
 0.515000   -9.443078   -72.454621
 0.520000   -9.776254   -62.128466
 0.525000   -10.064362   -54.428448
 0.530000   -10.320538   -50.250755
 0.535000   -10.566870   -49.287808
 0.540000   -10.813417   -49.671597
 0.545000   -11.063586   -50.429071
 0.550000   -11.317707   -51.144709
 0.555000   -11.575033   -51.959673
 0.560000   -11.837304   -52.225987
 0.565000   -12.097293   -51.255173
 0.570000   -12.349856   -49.412858
 0.575000   -12.591421   -46.786708
 0.580000   -12.817723   -43.326594
 0.585000   -13.024687   -39.110969
 0.590000   -13.208832   -34.453389
 0.595000   -13.369221   -29.608895
 0.600000   -13.504921   -24.769572
 0.605000   -13.616917   -20.259191
 0.610000   -13.707513   -16.185428
 0.615000   -13.778771   -12.460310
 0.620000   -13.832116   -9.274136
 0.625000   -13.871513   -6.820554
 0.630000   -13.900322   -4.810602
 0.635000   -13.919619   -3.068701
 0.640000   -13.931009   -1.631157
 0.645000   -13.935930   -0.416104
 0.650000   -13.935170   0.730334
 0.655000   -13.928627   1.856963
 0.660000   -13.916600   2.860660
 0.665000   -13.900020   3.787497
 0.670000   -13.878725   4.726245
 0.675000   -13.852758   5.676215
 0.680000   -13.821963   6.683197
 0.685000   -13.785926   7.879222
 0.690000   -13.743171   9.332007
 0.695000   -13.692606   10.975384
 0.700000   -13.633417   12.869319
 0.705000   -13.563912   14.973419
 0.710000   -13.483683   16.973957
 0.715000   -13.394173   18.618813
 0.720000   -13.297495   19.823049
 0.725000   -13.195942   20.466564
 0.730000   -13.092829   20.382736
 0.735000   -12.992115   19.459145
 0.740000   -12.898238   17.808351
 0.745000   -12.814032   15.685055
 0.750000   -12.741387   13.258135
 0.755000   -12.681450   10.737474
 0.760000   -12.634013   8.293745
 0.765000   -12.598513   6.129988
 0.770000   -12.572713   4.345625
 0.775000   -12.555056   2.897199
 0.780000   -12.543741   1.713522
 0.785000   -12.537921   0.583613
 0.790000   -12.537905   -0.755304
 0.795000   -12.545474   -2.472856
 0.800000   -12.562633   -4.648071
 0.805000   -12.591955   -7.337612
 0.810000   -12.636009   -10.428795
 0.815000   -12.696243   -13.657535
 0.820000   -12.772585   -16.731403
 0.825000   -12.863557   -19.142050
 0.830000   -12.964005   -20.423147
 0.835000   -13.067788   -20.455612
 0.840000   -13.168561   -19.230013
 0.845000   -13.260089   -16.853115
 0.850000   -13.337092   -13.329629
 0.855000   -13.393385   -8.725240
 0.860000   -13.424345   -3.313356
 0.865000   -13.426518   2.673748
 0.870000   -13.397607   9.087020
 0.875000   -13.335648   15.709491
 0.880000   -13.240512   22.198860
 0.885000   -13.113660   28.344304
 0.890000   -12.957069   33.920709
 0.895000   -12.774453   38.511872
 0.900000   -12.571951   41.604271
 0.905000   -12.358410   42.765063
 0.910000   -12.144300   42.039134
 0.915000   -11.938019   40.051279
 0.920000   -11.743787   37.600370
 0.925000   -11.562015   35.240278
 0.930000   -11.391384   33.347027
 0.935000   -11.228545   32.894789
 0.940000   -11.062436   34.309102
 0.945000   -10.885454   31.131294
 0.950000   -10.751124   19.337795
 0.955000   -10.692076   3.635226
 0.960000   -10.714771   -6.477319
 0.965000   -10.756849   9.314623
 0.970000   -10.621625   85.871289
 0.975000   -9.898136   252.132506
 0.980000   -8.100300   500.792801
 0.985000   -4.890208   768.870974
 0.990000   -0.411590   943.112082
 0.995000   4.540913   916.431670
 1.000000   8.752726   768.293740
201 psinorm omghb() domghb/dpsiN
 0.000000   -0.000059   0.037253
 0.005000   0.000006   -0.011483
 0.010000   -0.000173   -0.011821
 0.015000   -0.000112   0.019331
 0.020000   0.000020   0.034604
 0.025000   0.000234   0.052048
 0.030000   0.000540   0.080289
 0.035000   0.001037   0.112869
 0.040000   0.001669   0.146448
 0.045000   0.002501   0.170099
 0.050000   0.003370   0.175255
 0.055000   0.004254   0.176297
 0.060000   0.005133   0.172222
 0.065000   0.005976   0.168323
 0.070000   0.006816   0.188417
 0.075000   0.007860   0.208130
 0.080000   0.008898   0.214449
 0.085000   0.010004   0.225972
 0.090000   0.011157   0.242232
 0.095000   0.012427   0.245493
 0.100000   0.013612   0.262741
 0.105000   0.015054   0.270651
 0.110000   0.016319   0.228737
 0.115000   0.017342   0.201402
 0.120000   0.018333   0.187852
 0.125000   0.019220   0.189376
 0.130000   0.020227   0.166186
 0.135000   0.020882   0.130451
 0.140000   0.021531   0.113022
 0.145000   0.022012   0.106813
 0.150000   0.022599   0.113274
 0.155000   0.023145   0.115612
 0.160000   0.023755   0.132048
 0.165000   0.024465   0.148668
 0.170000   0.025242   0.169470
 0.175000   0.026160   0.161391
 0.180000   0.026856   0.169597
 0.185000   0.027856   0.173815
 0.190000   0.028594   0.163157
 0.195000   0.029488   0.219226
 0.200000   0.030786   0.228685
 0.205000   0.031775   0.217825
 0.210000   0.032965   0.219383
 0.215000   0.033968   0.207989
 0.220000   0.035044   0.250242
 0.225000   0.036471   0.231061
 0.230000   0.037355   0.212961
 0.235000   0.038600   0.232415
 0.240000   0.039679   0.220349
 0.245000   0.040804   0.267515
 0.250000   0.042354   0.316332
 0.255000   0.043967   0.167666
 0.260000   0.044031   0.088811
 0.265000   0.044855   0.118141
 0.270000   0.045212   0.092439
 0.275000   0.045780   0.106636
 0.280000   0.046279   0.070419
 0.285000   0.046484   0.033254
 0.290000   0.046611   0.067278
 0.295000   0.047157   0.096995
 0.300000   0.047581   0.114473
 0.305000   0.048301   0.149050
 0.310000   0.049072   0.098013
 0.315000   0.049282   0.387316
 0.320000   0.052945   0.655486
 0.325000   0.055836   0.565220
 0.330000   0.058597   0.547375
 0.335000   0.061310   0.492263
 0.340000   0.063520   0.410434
 0.345000   0.065414   0.338567
 0.350000   0.066905   0.206176
 0.355000   0.067476   0.041844
 0.360000   0.067324   -0.085221
 0.365000   0.066624   -0.182392
 0.370000   0.065500   -0.141862
 0.375000   0.065205   -0.208673
 0.380000   0.063413   -0.364749
 0.385000   0.061558   -0.348525
 0.390000   0.059928   -0.284553
 0.395000   0.058712   -0.200214
 0.400000   0.057926   -0.187450
 0.405000   0.056838   -0.115590
 0.410000   0.056770   0.160910
 0.415000   0.058447   0.494282
 0.420000   0.061713   1.011826
 0.425000   0.068565   1.663354
 0.430000   0.078346   2.062641
 0.435000   0.089192   2.397412
 0.440000   0.102320   2.783832
 0.445000   0.117030   2.979131
 0.450000   0.132112   3.228873
 0.455000   0.149319   3.086161
 0.460000   0.162973   2.412735
 0.465000   0.173446   1.829016
 0.470000   0.181263   1.216805
 0.475000   0.185614   0.432187
 0.480000   0.185585   -0.587663
 0.485000   0.179737   -1.525338
 0.490000   0.170332   -2.134644
 0.495000   0.158391   -2.562976
 0.500000   0.144702   -2.750783
 0.505000   0.130883   -2.728474
 0.510000   0.117417   -2.722684
 0.515000   0.103656   -2.206745
 0.520000   0.095350   -1.358758
 0.525000   0.090069   -0.771957
 0.530000   0.087630   -0.228494
 0.535000   0.087784   0.256369
 0.540000   0.090194   0.589254
 0.545000   0.093676   0.667150
 0.550000   0.096866   0.648009
 0.555000   0.100156   0.628032
 0.560000   0.103146   0.559188
 0.565000   0.105748   0.480845
 0.570000   0.107954   0.386853
 0.575000   0.109617   0.235564
 0.580000   0.110310   0.109431
 0.585000   0.110711   0.080896
 0.590000   0.111119   0.079370
 0.595000   0.111505   0.070124
 0.600000   0.111820   0.084711
 0.605000   0.112352   0.169951
 0.610000   0.113520   0.255672
 0.615000   0.114909   0.350711
 0.620000   0.117027   0.413739
 0.625000   0.119046   0.424966
 0.630000   0.121276   0.434358
 0.635000   0.123390   0.404206
 0.640000   0.125319   0.391922
 0.645000   0.127309   0.410286
 0.650000   0.129421   0.322882
 0.655000   0.130538   0.256714
 0.660000   0.131989   0.337104
 0.665000   0.133909   0.465469
 0.670000   0.136643   0.625215
 0.675000   0.140161   0.964464
 0.680000   0.146288   0.952741
 0.685000   0.149688   0.494264
 0.690000   0.151231   0.221706
 0.695000   0.151905   -0.018421
 0.700000   0.151046   -0.359766
 0.705000   0.148308   -0.511909
 0.710000   0.145927   -0.899061
 0.715000   0.139317   -1.429712
 0.720000   0.131630   -1.471048
 0.725000   0.124607   -1.454272
 0.730000   0.117087   -1.522000
 0.735000   0.109387   -1.596686
 0.740000   0.101121   -1.733519
 0.745000   0.092051   -1.659828
 0.750000   0.084522   -1.462987
 0.755000   0.077422   -1.345312
 0.760000   0.071069   -1.179774
 0.765000   0.065624   -1.125958
 0.770000   0.059810   -1.008860
 0.775000   0.055535   -0.617246
 0.780000   0.053637   -0.468962
 0.785000   0.050846   -0.443597
 0.790000   0.049201   -0.266294
 0.795000   0.048183   -0.082715
 0.800000   0.048374   0.341371
 0.805000   0.051596   0.785239
 0.810000   0.056226   0.908741
 0.815000   0.060684   1.019696
 0.820000   0.066423   1.245785
 0.825000   0.073142   1.491150
 0.830000   0.081335   1.788698
 0.835000   0.091029   2.005072
 0.840000   0.101386   2.411605
 0.845000   0.115145   3.085433
 0.850000   0.132240   3.757372
 0.855000   0.152718   4.468333
 0.860000   0.176923   5.394925
 0.865000   0.206668   6.010081
 0.870000   0.237024   6.477212
 0.875000   0.271440   7.203416
 0.880000   0.309058   7.572445
 0.885000   0.347164   7.363522
 0.890000   0.382693   7.472150
 0.895000   0.421886   6.688540
 0.900000   0.449579   5.273790
 0.905000   0.474624   4.418307
 0.910000   0.493762   3.241453
 0.915000   0.507038   2.401129
 0.920000   0.517773   4.812788
 0.925000   0.555166   4.531489
 0.930000   0.563088   4.444399
 0.935000   0.599610   9.642154
 0.940000   0.659510   15.786403
 0.945000   0.757474   22.864510
 0.950000   0.888155   34.186918
 0.955000   1.099343   27.045911
 0.960000   1.158614   2.017497
 0.965000   1.119518   -27.799859
 0.970000   0.880615   -74.848600
 0.975000   0.371032   -126.769228
 0.980000   -0.387077   -158.396343
 0.985000   -1.212931   -151.641802
 0.990000   -1.903495   -93.105529
 0.995000   -2.143987   -2.380364
 1.000000   -1.927299   89.055482
201 psinorm nz1(10^20/m^3) dnz1/dpsiN
 0.000000   0.016982   -0.000000
 0.005000   0.016981   -0.000152
 0.010000   0.016980   -0.000306
 0.015000   0.016978   -0.000462
 0.020000   0.016975   -0.000621
 0.025000   0.016972   -0.000781
 0.030000   0.016968   -0.000942
 0.035000   0.016962   -0.001104
 0.040000   0.016957   -0.001265
 0.045000   0.016950   -0.001426
 0.050000   0.016942   -0.001584
 0.055000   0.016934   -0.001741
 0.060000   0.016925   -0.001894
 0.065000   0.016915   -0.002045
 0.070000   0.016904   -0.002192
 0.075000   0.016893   -0.002334
 0.080000   0.016881   -0.002474
 0.085000   0.016868   -0.002610
 0.090000   0.016855   -0.002741
 0.095000   0.016841   -0.002867
 0.100000   0.016826   -0.002989
 0.105000   0.016811   -0.003106
 0.110000   0.016795   -0.003220
 0.115000   0.016779   -0.003329
 0.120000   0.016762   -0.003433
 0.125000   0.016745   -0.003530
 0.130000   0.016727   -0.003621
 0.135000   0.016708   -0.003704
 0.140000   0.016690   -0.003780
 0.145000   0.016671   -0.003849
 0.150000   0.016651   -0.003909
 0.155000   0.016631   -0.003961
 0.160000   0.016612   -0.004004
 0.165000   0.016591   -0.004039
 0.170000   0.016571   -0.004066
 0.175000   0.016551   -0.004085
 0.180000   0.016530   -0.004097
 0.185000   0.016510   -0.004101
 0.190000   0.016489   -0.004096
 0.195000   0.016469   -0.004082
 0.200000   0.016448   -0.004059
 0.205000   0.016428   -0.004029
 0.210000   0.016408   -0.003989
 0.215000   0.016388   -0.003942
 0.220000   0.016369   -0.003887
 0.225000   0.016349   -0.003827
 0.230000   0.016331   -0.003762
 0.235000   0.016312   -0.003692
 0.240000   0.016294   -0.003617
 0.245000   0.016276   -0.003535
 0.250000   0.016258   -0.003447
 0.255000   0.016241   -0.003352
 0.260000   0.016225   -0.003249
 0.265000   0.016209   -0.003134
 0.270000   0.016193   -0.003009
 0.275000   0.016179   -0.002874
 0.280000   0.016165   -0.002728
 0.285000   0.016151   -0.002572
 0.290000   0.016139   -0.002405
 0.295000   0.016127   -0.002227
 0.300000   0.016117   -0.002040
 0.305000   0.016107   -0.001845
 0.310000   0.016098   -0.001642
 0.315000   0.016090   -0.001434
 0.320000   0.016084   -0.001222
 0.325000   0.016078   -0.001008
 0.330000   0.016074   -0.000793
 0.335000   0.016070   -0.000579
 0.340000   0.016068   -0.000365
 0.345000   0.016067   -0.000152
 0.350000   0.016066   0.000062
 0.355000   0.016067   0.000277
 0.360000   0.016069   0.000495
 0.365000   0.016072   0.000716
 0.370000   0.016076   0.000940
 0.375000   0.016082   0.001166
 0.380000   0.016088   0.001392
 0.385000   0.016096   0.001615
 0.390000   0.016104   0.001832
 0.395000   0.016114   0.002042
 0.400000   0.016125   0.002241
 0.405000   0.016136   0.002426
 0.410000   0.016149   0.002593
 0.415000   0.016162   0.002742
 0.420000   0.016176   0.002870
 0.425000   0.016191   0.002977
 0.430000   0.016206   0.003063
 0.435000   0.016222   0.003126
 0.440000   0.016237   0.003169
 0.445000   0.016253   0.003200
 0.450000   0.016269   0.003218
 0.455000   0.016285   0.003223
 0.460000   0.016302   0.003214
 0.465000   0.016318   0.003193
 0.470000   0.016333   0.003161
 0.475000   0.016349   0.003111
 0.480000   0.016365   0.003038
 0.485000   0.016380   0.002940
 0.490000   0.016394   0.002813
 0.495000   0.016408   0.002658
 0.500000   0.016421   0.002472
 0.505000   0.016432   0.002256
 0.510000   0.016443   0.002011
 0.515000   0.016453   0.001739
 0.520000   0.016461   0.001443
 0.525000   0.016467   0.001123
 0.530000   0.016472   0.000783
 0.535000   0.016475   0.000426
 0.540000   0.016476   0.000055
 0.545000   0.016475   -0.000329
 0.550000   0.016473   -0.000725
 0.555000   0.016468   -0.001132
 0.560000   0.016461   -0.001549
 0.565000   0.016453   -0.001979
 0.570000   0.016442   -0.002422
 0.575000   0.016428   -0.002879
 0.580000   0.016413   -0.003348
 0.585000   0.016395   -0.003829
 0.590000   0.016375   -0.004318
 0.595000   0.016352   -0.004815
 0.600000   0.016326   -0.005317
 0.605000   0.016299   -0.005823
 0.610000   0.016268   -0.006334
 0.615000   0.016235   -0.006849
 0.620000   0.016200   -0.007377
 0.625000   0.016161   -0.007918
 0.630000   0.016120   -0.008470
 0.635000   0.016077   -0.009032
 0.640000   0.016030   -0.009603
 0.645000   0.015981   -0.010180
 0.650000   0.015928   -0.010768
 0.655000   0.015873   -0.011354
 0.660000   0.015815   -0.011923
 0.665000   0.015754   -0.012478
 0.670000   0.015690   -0.013034
 0.675000   0.015623   -0.013613
 0.680000   0.015554   -0.014282
 0.685000   0.015481   -0.015071
 0.690000   0.015403   -0.015939
 0.695000   0.015321   -0.016868
 0.700000   0.015235   -0.017847
 0.705000   0.015143   -0.018853
 0.710000   0.015046   -0.019900
 0.715000   0.014944   -0.020918
 0.720000   0.014837   -0.021792
 0.725000   0.014726   -0.022514
 0.730000   0.014612   -0.023085
 0.735000   0.014495   -0.023482
 0.740000   0.014377   -0.023680
 0.745000   0.014258   -0.023637
 0.750000   0.014140   -0.023346
 0.755000   0.014025   -0.022841
 0.760000   0.013912   -0.022144
 0.765000   0.013803   -0.021278
 0.770000   0.013699   -0.020247
 0.775000   0.013601   -0.019089
 0.780000   0.013508   -0.017941
 0.785000   0.013421   -0.016861
 0.790000   0.013340   -0.015835
 0.795000   0.013263   -0.014881
 0.800000   0.013191   -0.014007
 0.805000   0.013123   -0.013237
 0.810000   0.013059   -0.012588
 0.815000   0.012997   -0.012010
 0.820000   0.012939   -0.011451
 0.825000   0.012883   -0.010891
 0.830000   0.012830   -0.010324
 0.835000   0.012779   -0.009751
 0.840000   0.012732   -0.009177
 0.845000   0.012688   -0.008608
 0.850000   0.012646   -0.008052
 0.855000   0.012607   -0.007517
 0.860000   0.012571   -0.007013
 0.865000   0.012537   -0.006566
 0.870000   0.012505   -0.006190
 0.875000   0.012475   -0.005875
 0.880000   0.012446   -0.005617
 0.885000   0.012419   -0.005418
 0.890000   0.012392   -0.005290
 0.895000   0.012366   -0.005303
 0.900000   0.012339   -0.005475
 0.905000   0.012311   -0.005821
 0.910000   0.012281   -0.006459
 0.915000   0.012247   -0.007556
 0.920000   0.012205   -0.009388
 0.925000   0.012153   -0.012630
 0.930000   0.012079   -0.017958
 0.935000   0.011973   -0.026291
 0.940000   0.011816   -0.039223
 0.945000   0.011581   -0.058458
 0.950000   0.011232   -0.085362
 0.955000   0.010727   -0.121341
 0.960000   0.010018   -0.163205
 0.965000   0.009095   -0.202923
 0.970000   0.007989   -0.231949
 0.975000   0.006776   -0.242500
 0.980000   0.005564   -0.231677
 0.985000   0.004459   -0.203431
 0.990000   0.003530   -0.165677
 0.995000   0.002802   -0.127066
 1.000000   0.002259   -0.090226
201 psinorm vtor1(km/s) dvtor1/dpsiN
 0.000000   110.655360   545.788950
 0.005000   112.772078   300.897897
 0.010000   113.664339   156.893887
 0.015000   114.341016   123.365414
 0.020000   114.897994   103.558155
 0.025000   115.376598   90.370441
 0.030000   115.801698   80.510583
 0.035000   116.181704   71.739539
 0.040000   116.519093   63.917475
 0.045000   116.820879   57.081244
 0.050000   117.089906   50.613202
 0.055000   117.327011   44.254866
 0.060000   117.532454   38.187601
 0.065000   117.708887   32.520742
 0.070000   117.857662   27.068107
 0.075000   117.979568   21.830406
 0.080000   118.075966   16.879875
 0.085000   118.148366   12.139561
 0.090000   118.197361   7.426009
 0.095000   118.222626   2.834776
 0.100000   118.225709   -1.509188
 0.105000   118.207535   -5.816764
 0.110000   118.167542   -10.122403
 0.115000   118.106311   -14.289579
 0.120000   118.024646   -18.372813
 0.125000   117.922582   -22.503289
 0.130000   117.799613   -26.668985
 0.135000   117.655893   -30.902061
 0.140000   117.490592   -35.232591
 0.145000   117.303567   -39.567021
 0.150000   117.094922   -43.850374
 0.155000   116.865063   -48.092149
 0.160000   116.614001   -52.328767
 0.165000   116.341775   -56.488224
 0.170000   116.049118   -60.525191
 0.175000   115.736523   -64.458839
 0.180000   115.404530   -68.282855
 0.185000   115.053695   -71.954359
 0.190000   114.684986   -75.435671
 0.195000   114.299338   -78.757987
 0.200000   113.897407   -81.943657
 0.205000   113.479901   -84.928218
 0.210000   113.048124   -87.642732
 0.215000   112.603474   -90.075037
 0.220000   112.147374   -92.139919
 0.225000   111.682075   -93.746868
 0.230000   111.209905   -95.090519
 0.235000   110.731170   -96.281634
 0.240000   110.247089   -97.240476
 0.245000   109.758765   -98.004320
 0.250000   109.267046   -98.607468
 0.255000   108.772690   -98.974805
 0.260000   108.277298   -99.222695
 0.265000   107.780463   -99.461157
 0.270000   107.282686   -99.612625
 0.275000   106.784337   -99.697311
 0.280000   106.285713   -99.736363
 0.285000   105.786974   -99.777699
 0.290000   105.287936   -99.911729
 0.295000   104.787856   -100.131941
 0.300000   104.286617   -100.342068
 0.305000   103.784436   -100.466550
 0.310000   103.281951   -100.389075
 0.315000   102.780545   -99.965063
 0.320000   102.282301   -99.172233
 0.325000   101.788822   -98.068897
 0.330000   101.301612   -96.679599
 0.335000   100.822026   -95.029767
 0.340000   100.351314   -93.142795
 0.345000   99.890599   -90.928374
 0.350000   99.442030   -88.506282
 0.355000   99.005536   -86.070578
 0.360000   98.581324   -83.575477
 0.365000   98.169781   -81.023202
 0.370000   97.771092   -78.454339
 0.375000   97.385238   -75.855840
 0.380000   97.012534   -73.298171
 0.385000   96.652256   -70.824265
 0.390000   96.304291   -68.351157
 0.395000   95.968744   -65.862400
 0.400000   95.645667   -63.358673
 0.405000   95.335158   -60.809966
 0.410000   95.037568   -58.373037
 0.415000   94.751427   -56.341413
 0.420000   94.474153   -54.849815
 0.425000   94.202929   -53.934242
 0.430000   93.934811   -53.584391
 0.435000   93.667085   -53.915860
 0.440000   93.395652   -54.801405
 0.445000   93.119071   -55.717140
 0.450000   92.838481   -56.483586
 0.455000   92.554235   -57.117686
 0.460000   92.267304   -57.522121
 0.465000   91.979014   -57.794906
 0.470000   91.689355   -57.826831
 0.475000   91.400746   -57.182313
 0.480000   91.117532   -55.902428
 0.485000   90.841721   -54.245975
 0.490000   90.575072   -52.281419
 0.495000   90.318907   -50.125984
 0.500000   90.073812   -47.851111
 0.505000   89.840396   -45.566540
 0.510000   89.618147   -43.531203
 0.515000   89.405084   -41.932443
 0.520000   89.198823   -40.834337
 0.525000   88.996741   -40.267136
 0.530000   88.796151   -40.221650
 0.535000   88.594524   -40.752265
 0.540000   88.388629   -41.899426
 0.545000   88.175530   -43.625858
 0.550000   87.952370   -45.912097
 0.555000   87.716409   -48.730656
 0.560000   87.465063   -52.017152
 0.565000   87.196237   -55.835427
 0.570000   86.906709   -60.239155
 0.575000   86.593846   -65.159139
 0.580000   86.255118   -70.588215
 0.585000   85.887964   -76.537735
 0.590000   85.489740   -83.000738
 0.595000   85.057956   -89.859152
 0.600000   84.591149   -96.923556
 0.605000   84.088721   -104.048322
 0.610000   83.550666   -111.123670
 0.615000   82.977484   -118.051788
 0.620000   82.370148   -124.598137
 0.625000   81.731503   -130.777981
 0.630000   81.062368   -136.691285
 0.635000   80.364590   -142.214016
 0.640000   79.640228   -147.320644
 0.645000   78.891383   -151.999492
 0.650000   78.120233   -156.165492
 0.655000   77.329729   -160.199111
 0.660000   76.518242   -164.533408
 0.665000   75.684394   -169.156946
 0.670000   74.826672   -174.099880
 0.675000   73.943396   -179.362724
 0.680000   73.033045   -185.146347
 0.685000   72.091932   -190.832014
 0.690000   71.124725   -195.327275
 0.695000   70.138659   -198.382324
 0.700000   69.140902   -199.981090
 0.705000   68.138849   -200.141324
 0.710000   67.139488   -198.982345
 0.715000   66.149025   -196.612442
 0.720000   65.173364   -193.132532
 0.725000   64.217700   -188.651824
 0.730000   63.286846   -183.255877
 0.735000   62.385141   -177.039006
 0.740000   61.516456   -170.053406
 0.745000   60.684607   -162.450865
 0.750000   59.891947   -154.599393
 0.755000   59.138613   -146.850971
 0.760000   58.423437   -139.430690
 0.765000   57.744306   -132.464973
 0.770000   57.098788   -126.088124
 0.775000   56.483425   -120.178541
 0.780000   55.897002   -114.146073
 0.785000   55.341964   -107.840883
 0.790000   54.818593   -101.579213
 0.795000   54.326172   -95.599334
 0.800000   53.862600   -90.261951
 0.805000   53.423552   -86.046374
 0.810000   53.002136   -83.267596
 0.815000   52.590877   -82.278102
 0.820000   52.179355   -83.566668
 0.825000   51.755210   -87.537351
 0.830000   51.303982   -94.690224
 0.835000   50.808308   -105.574512
 0.840000   50.248237   -120.215755
 0.845000   49.606150   -138.865244
 0.850000   48.859584   -162.206340
 0.855000   47.984087   -190.580013
 0.860000   46.953784   -224.259387
 0.865000   45.741493   -263.955787
 0.870000   44.314226   -308.343880
 0.875000   42.658054   -355.504100
 0.880000   40.759185   -404.399375
 0.885000   38.614060   -452.640401
 0.890000   36.232781   -497.234847
 0.895000   33.641712   -535.567000
 0.900000   30.877111   -562.761923
 0.905000   28.014093   -575.069263
 0.910000   25.126419   -572.003313
 0.915000   22.294059   -552.989835
 0.920000   19.596520   -518.825875
 0.925000   17.105801   -471.043801
 0.930000   14.886082   -413.145140
 0.935000   12.974349   -349.920797
 0.940000   11.386874   -285.684562
 0.945000   10.117504   -224.719190
 0.950000   9.139682   -170.593731
 0.955000   8.411566   -125.273497
 0.960000   7.886947   -90.360027
 0.965000   7.507966   -66.154437
 0.970000   7.225403   -50.927827
 0.975000   6.998688   -42.955645
 0.980000   6.795847   -40.551185
 0.985000   6.593176   -41.974616
 0.990000   6.376100   -45.944396
 0.995000   6.133732   -51.618543
 1.000000   5.859915   -57.908238
201 psinorm vpol1(km/s) dvpol1/dpsiN
 0.000000   -0.000046   4.608740
 0.005000   0.025776   5.720166
 0.010000   0.057155   6.828564
 0.015000   0.094062   7.904932
 0.020000   0.136205   8.899170
 0.025000   0.183053   9.754297
 0.030000   0.233748   10.396973
 0.035000   0.287023   10.856641
 0.040000   0.342314   11.197656
 0.045000   0.399000   11.432715
 0.050000   0.456641   11.605078
 0.055000   0.515050   11.760449
 0.060000   0.574246   11.919092
 0.065000   0.634241   12.072754
 0.070000   0.694973   12.187158
 0.075000   0.756113   12.232275
 0.080000   0.817296   12.200928
 0.085000   0.878122   12.070410
 0.090000   0.938000   11.834961
 0.095000   0.996472   11.547510
 0.100000   1.053475   11.244971
 0.105000   1.108921   10.933691
 0.110000   1.162812   10.643359
 0.115000   1.215355   10.405322
 0.120000   1.266865   10.258691
 0.125000   1.317942   10.210889
 0.130000   1.368974   10.230811
 0.135000   1.420250   10.294238
 0.140000   1.471917   10.371826
 0.145000   1.523968   10.445850
 0.150000   1.576375   10.471436
 0.155000   1.628683   10.409814
 0.160000   1.680473   10.273730
 0.165000   1.731420   10.072217
 0.170000   1.781195   9.811426
 0.175000   1.829534   9.486572
 0.180000   1.876061   9.105566
 0.185000   1.920590   8.691992
 0.190000   1.962981   8.253857
 0.195000   2.003128   7.799072
 0.200000   2.040972   7.337842
 0.205000   2.076507   6.894727
 0.210000   2.109919   6.506787
 0.215000   2.141575   6.172168
 0.220000   2.171641   5.856152
 0.225000   2.200136   5.529248
 0.230000   2.226933   5.165137
 0.235000   2.251788   4.740723
 0.240000   2.274340   4.220410
 0.245000   2.293992   3.600830
 0.250000   2.310349   2.902832
 0.255000   2.323020   2.138623
 0.260000   2.331735   1.329492
 0.265000   2.336315   0.495313
 0.270000   2.336688   -0.334961
 0.275000   2.332965   -1.144873
 0.280000   2.325239   -1.938672
 0.285000   2.313579   -2.721777
 0.290000   2.298021   -3.504492
 0.295000   2.278534   -4.305176
 0.300000   2.254970   -5.142627
 0.305000   2.227107   -6.031494
 0.310000   2.194655   -6.983789
 0.315000   2.157270   -8.009863
 0.320000   2.114556   -9.132275
 0.325000   2.065947   -10.315479
 0.330000   2.011401   -11.471191
 0.335000   1.951235   -12.548047
 0.340000   1.885921   -13.507129
 0.345000   1.816164   -14.306836
 0.350000   1.742853   -14.854736
 0.355000   1.667616   -15.153906
 0.360000   1.591313   -15.305078
 0.365000   1.514565   -15.331934
 0.370000   1.437994   -15.260645
 0.375000   1.361959   -15.137598
 0.380000   1.286618   -14.985107
 0.385000   1.212108   -14.961230
 0.390000   1.137006   -15.144629
 0.395000   1.060662   -15.431494
 0.400000   0.982691   -15.776367
 0.405000   0.902898   -16.143896
 0.410000   0.821252   -16.614160
 0.415000   0.736756   -17.452148
 0.420000   0.646730   -18.906885
 0.425000   0.547687   -21.090625
 0.430000   0.435824   -24.041748
 0.435000   0.307270   -27.843359
 0.440000   0.157391   -32.754492
 0.445000   -0.020275   -38.086768
 0.450000   -0.223477   -43.195166
 0.455000   -0.452227   -48.166162
 0.460000   -0.705139   -52.704053
 0.465000   -0.979267   -56.530029
 0.470000   -1.270439   -59.110352
 0.475000   -1.570371   -59.916016
 0.480000   -1.869599   -59.025684
 0.485000   -2.160627   -56.703027
 0.490000   -2.436629   -53.131494
 0.495000   -2.691942   -48.290820
 0.500000   -2.919538   -42.497559
 0.505000   -3.116918   -36.826074
 0.510000   -3.287798   -31.756787
 0.515000   -3.434486   -27.254639
 0.520000   -3.560345   -23.513721
 0.525000   -3.669623   -20.713672
 0.530000   -3.767481   -19.233008
 0.535000   -3.861953   -18.897363
 0.540000   -3.956455   -19.031396
 0.545000   -4.052267   -19.325781
 0.550000   -4.149713   -19.621729
 0.555000   -4.248484   -19.912988
 0.560000   -4.348843   -20.005127
 0.565000   -4.448536   -19.682568
 0.570000   -4.545668   -19.011328
 0.575000   -4.638649   -18.030103
 0.580000   -4.725969   -16.763916
 0.585000   -4.806288   -15.229175
 0.590000   -4.878261   -13.488330
 0.595000   -4.941171   -11.677148
 0.600000   -4.995033   -9.901660
 0.605000   -5.040188   -8.222192
 0.610000   -5.077255   -6.683301
 0.615000   -5.107021   -5.291846
 0.620000   -5.130173   -4.114648
 0.625000   -5.148167   -3.172266
 0.630000   -5.161896   -2.393018
 0.635000   -5.172098   -1.746924
 0.640000   -5.179365   -1.199341
 0.645000   -5.184091   -0.716382
 0.650000   -5.186529   -0.271802
 0.655000   -5.186809   0.148877
 0.660000   -5.185040   0.546680
 0.665000   -5.181342   0.920215
 0.670000   -5.175838   1.276294
 0.675000   -5.168579   1.638428
 0.680000   -5.159454   2.038818
 0.685000   -5.148191   2.504810
 0.690000   -5.134406   3.050684
 0.695000   -5.117684   3.679492
 0.700000   -5.097611   4.409180
 0.705000   -5.073593   5.207202
 0.710000   -5.045539   5.960754
 0.715000   -5.013985   6.595215
 0.720000   -4.979586   7.065356
 0.725000   -4.943331   7.312378
 0.730000   -4.906463   7.290479
 0.735000   -4.870427   6.960950
 0.740000   -4.836853   6.354437
 0.745000   -4.806882   5.562622
 0.750000   -4.781227   4.663483
 0.755000   -4.760247   3.731952
 0.760000   -4.743907   2.820877
 0.765000   -4.732039   2.010281
 0.770000   -4.723805   1.355020
 0.775000   -4.718488   0.825696
 0.780000   -4.715548   0.381873
 0.785000   -4.714670   -0.037662
 0.790000   -4.715924   -0.523660
 0.795000   -4.719906   -1.157272
 0.800000   -4.727497   -1.976163
 0.805000   -4.739668   -2.977646
 0.810000   -4.757273   -4.121783
 0.815000   -4.780886   -5.329947
 0.820000   -4.810573   -6.489587
 0.825000   -4.845782   -7.379800
 0.830000   -4.884371   -7.840411
 0.835000   -4.924186   -7.850580
 0.840000   -4.962877   -7.388354
 0.845000   -4.998069   -6.466394
 0.850000   -5.027541   -5.113953
 0.855000   -5.049209   -3.378857
 0.860000   -5.061329   -1.328821
 0.865000   -5.062497   0.958948
 0.870000   -5.051740   3.397681
 0.875000   -5.028520   5.895093
 0.880000   -4.992789   8.360107
 0.885000   -4.944919   10.708789
 0.890000   -4.885701   12.824561
 0.895000   -4.816674   14.554736
 0.900000   -4.740154   15.743286
 0.905000   -4.659241   16.209106
 0.910000   -4.578062   15.938916
 0.915000   -4.499852   15.186426
 0.920000   -4.426198   14.226416
 0.925000   -4.357587   13.301660
 0.930000   -4.293182   12.587256
 0.935000   -4.231715   12.185205
 0.940000   -4.171330   11.545801
 0.945000   -4.116257   9.436914
 0.950000   -4.076960   5.031445
 0.955000   -4.065942   -1.190674
 0.960000   -4.088867   -5.801221
 0.965000   -4.123955   -0.191064
 0.970000   -4.090778   29.453027
 0.975000   -3.829424   94.772363
 0.980000   -3.143054   192.968018
 0.985000   -1.899744   298.297021
 0.990000   -0.160084   366.797949
 0.995000   1.768235   356.689844
 1.000000   3.406814   298.741797
3 N Z A of ION SPECIES
 6.000000   6.000000   12.010700
 1.000000   1.000000   2.000000
 1.000000   1.000000   2.000000
