201 psinorm ne(10^20/m^3) dne/dpsiN
 0.000000   0.463279   -0.238697
 0.005000   0.462087   -0.238311
 0.010000   0.460896   -0.237925
 0.015000   0.459707   -0.237538
 0.020000   0.458521   -0.237151
 0.025000   0.457336   -0.236765
 0.030000   0.456153   -0.236378
 0.035000   0.454972   -0.235990
 0.040000   0.453793   -0.235603
 0.045000   0.452616   -0.235215
 0.050000   0.451441   -0.234828
 0.055000   0.450268   -0.234440
 0.060000   0.449096   -0.234052
 0.065000   0.447927   -0.233664
 0.070000   0.446760   -0.233276
 0.075000   0.445594   -0.232887
 0.080000   0.444431   -0.232499
 0.085000   0.443269   -0.232110
 0.090000   0.442110   -0.231721
 0.095000   0.440952   -0.231332
 0.100000   0.439797   -0.230943
 0.105000   0.438643   -0.230554
 0.110000   0.437491   -0.230165
 0.115000   0.436341   -0.229775
 0.120000   0.435193   -0.229386
 0.125000   0.434047   -0.228996
 0.130000   0.432903   -0.228606
 0.135000   0.431761   -0.228217
 0.140000   0.430621   -0.227827
 0.145000   0.429483   -0.227437
 0.150000   0.428347   -0.227047
 0.155000   0.427212   -0.226656
 0.160000   0.426080   -0.226266
 0.165000   0.424950   -0.225876
 0.170000   0.423821   -0.225485
 0.175000   0.422695   -0.225095
 0.180000   0.421570   -0.224704
 0.185000   0.420448   -0.224314
 0.190000   0.419327   -0.223923
 0.195000   0.418209   -0.223532
 0.200000   0.417092   -0.223141
 0.205000   0.415977   -0.222750
 0.210000   0.414865   -0.222359
 0.215000   0.413754   -0.221968
 0.220000   0.412645   -0.221577
 0.225000   0.411538   -0.221186
 0.230000   0.410433   -0.220795
 0.235000   0.409330   -0.220404
 0.240000   0.408229   -0.220013
 0.245000   0.407130   -0.219622
 0.250000   0.406033   -0.219230
 0.255000   0.404938   -0.218839
 0.260000   0.403844   -0.218448
 0.265000   0.402753   -0.218056
 0.270000   0.401664   -0.217665
 0.275000   0.400576   -0.217274
 0.280000   0.399491   -0.216882
 0.285000   0.398408   -0.216491
 0.290000   0.397326   -0.216099
 0.295000   0.396247   -0.215708
 0.300000   0.395169   -0.215317
 0.305000   0.394093   -0.214925
 0.310000   0.393020   -0.214534
 0.315000   0.391948   -0.214142
 0.320000   0.390878   -0.213751
 0.325000   0.389811   -0.213360
 0.330000   0.388745   -0.212968
 0.335000   0.387681   -0.212577
 0.340000   0.386619   -0.212186
 0.345000   0.385559   -0.211795
 0.350000   0.384501   -0.211403
 0.355000   0.383445   -0.211012
 0.360000   0.382391   -0.210621
 0.365000   0.381339   -0.210230
 0.370000   0.380289   -0.209839
 0.375000   0.379240   -0.209448
 0.380000   0.378194   -0.209057
 0.385000   0.377150   -0.208666
 0.390000   0.376107   -0.208275
 0.395000   0.375067   -0.207884
 0.400000   0.374029   -0.207493
 0.405000   0.372992   -0.207102
 0.410000   0.371958   -0.206712
 0.415000   0.370925   -0.206321
 0.420000   0.369894   -0.205930
 0.425000   0.368866   -0.205540
 0.430000   0.367839   -0.205150
 0.435000   0.366814   -0.204759
 0.440000   0.365791   -0.204369
 0.445000   0.364771   -0.203979
 0.450000   0.363752   -0.203589
 0.455000   0.362735   -0.203199
 0.460000   0.361720   -0.202809
 0.465000   0.360707   -0.202419
 0.470000   0.359695   -0.202029
 0.475000   0.358686   -0.201640
 0.480000   0.357679   -0.201250
 0.485000   0.356674   -0.200861
 0.490000   0.355670   -0.200471
 0.495000   0.354669   -0.200082
 0.500000   0.353670   -0.199693
 0.505000   0.352672   -0.199304
 0.510000   0.351677   -0.198915
 0.515000   0.350683   -0.198526
 0.520000   0.349691   -0.198138
 0.525000   0.348702   -0.197749
 0.530000   0.347714   -0.197361
 0.535000   0.346728   -0.196972
 0.540000   0.345744   -0.196584
 0.545000   0.344762   -0.196196
 0.550000   0.343782   -0.195808
 0.555000   0.342804   -0.195420
 0.560000   0.341828   -0.195033
 0.565000   0.340854   -0.194645
 0.570000   0.339882   -0.194258
 0.575000   0.338911   -0.193871
 0.580000   0.337943   -0.193484
 0.585000   0.336976   -0.193097
 0.590000   0.336012   -0.192710
 0.595000   0.335049   -0.192324
 0.600000   0.334089   -0.191937
 0.605000   0.333130   -0.191551
 0.610000   0.332173   -0.191165
 0.615000   0.331218   -0.190779
 0.620000   0.330265   -0.190393
 0.625000   0.329314   -0.190008
 0.630000   0.328365   -0.189622
 0.635000   0.327418   -0.189237
 0.640000   0.326473   -0.188852
 0.645000   0.325530   -0.188467
 0.650000   0.324588   -0.188083
 0.655000   0.323649   -0.187698
 0.660000   0.322711   -0.187314
 0.665000   0.321776   -0.186930
 0.670000   0.320842   -0.186546
 0.675000   0.319910   -0.186162
 0.680000   0.318980   -0.185779
 0.685000   0.318052   -0.185395
 0.690000   0.317126   -0.185012
 0.695000   0.316202   -0.184629
 0.700000   0.315280   -0.184246
 0.705000   0.314360   -0.183864
 0.710000   0.313441   -0.183482
 0.715000   0.312525   -0.183099
 0.720000   0.311610   -0.182717
 0.725000   0.310698   -0.182336
 0.730000   0.309787   -0.181954
 0.735000   0.308878   -0.181573
 0.740000   0.307971   -0.181191
 0.745000   0.307066   -0.180810
 0.750000   0.306163   -0.180429
 0.755000   0.305262   -0.180048
 0.760000   0.304363   -0.179666
 0.765000   0.303465   -0.179284
 0.770000   0.302570   -0.178901
 0.775000   0.301676   -0.178517
 0.780000   0.300785   -0.178131
 0.785000   0.299895   -0.177742
 0.790000   0.299007   -0.177347
 0.795000   0.298122   -0.176946
 0.800000   0.297238   -0.176533
 0.805000   0.296356   -0.176104
 0.810000   0.295477   -0.175651
 0.815000   0.294600   -0.175161
 0.820000   0.293725   -0.174618
 0.825000   0.292854   -0.173996
 0.830000   0.291985   -0.173258
 0.835000   0.291121   -0.172349
 0.840000   0.290262   -0.171188
 0.845000   0.289409   -0.169661
 0.850000   0.288565   -0.167598
 0.855000   0.287733   -0.164756
 0.860000   0.286918   -0.160785
 0.865000   0.286125   -0.155184
 0.870000   0.285366   -0.147239
 0.875000   0.284653   -0.135947
 0.880000   0.284006   -0.119902
 0.885000   0.283454   -0.097166
 0.890000   0.283035   -0.065104
 0.895000   0.282803   -0.020219
 0.900000   0.282832   0.041978
 0.905000   0.283223   0.126942
 0.910000   0.284102   0.240645
 0.915000   0.285629   0.388176
 0.920000   0.287984   0.570315
 0.925000   0.291332   0.776219
 0.930000   0.295746   0.969676
 0.935000   0.301029   1.067821
 0.940000   0.306424   0.920697
 0.945000   0.310236   0.324687
 0.950000   0.309671   -0.872549
 0.955000   0.301510   -2.572919
 0.960000   0.283942   -4.318673
 0.965000   0.258324   -5.516795
 0.970000   0.228774   -5.859582
 0.975000   0.199728   -5.479602
 0.980000   0.173978   -4.727962
 0.985000   0.152448   -3.905316
 0.990000   0.134925   -3.168863
 0.995000   0.120760   -2.566221
 1.000000   0.109262   -2.032677
201 psinorm te(KeV) dte/dpsiN
 0.000000   3.758769   -2.711037
 0.005000   3.745170   -2.728701
 0.010000   3.731482   -2.746233
 0.015000   3.717707   -2.763498
 0.020000   3.703847   -2.780496
 0.025000   3.689902   -2.797225
 0.030000   3.675875   -2.813685
 0.035000   3.661766   -2.829876
 0.040000   3.647576   -2.845796
 0.045000   3.633308   -2.861444
 0.050000   3.618962   -2.876821
 0.055000   3.604539   -2.891925
 0.060000   3.590042   -2.906755
 0.065000   3.575472   -2.921312
 0.070000   3.560829   -2.935595
 0.075000   3.546116   -2.949603
 0.080000   3.531333   -2.963336
 0.085000   3.516483   -2.976794
 0.090000   3.501565   -2.989975
 0.095000   3.486583   -3.002881
 0.100000   3.471536   -3.015510
 0.105000   3.456428   -3.027863
 0.110000   3.441258   -3.039939
 0.115000   3.426028   -3.051739
 0.120000   3.410740   -3.063261
 0.125000   3.395396   -3.074507
 0.130000   3.379995   -3.085476
 0.135000   3.364541   -3.096167
 0.140000   3.349034   -3.106582
 0.145000   3.333475   -3.116721
 0.150000   3.317866   -3.126583
 0.155000   3.302209   -3.136168
 0.160000   3.286505   -3.145478
 0.165000   3.270754   -3.154512
 0.170000   3.254960   -3.163270
 0.175000   3.239122   -3.171754
 0.180000   3.223242   -3.179963
 0.185000   3.207322   -3.187897
 0.190000   3.191363   -3.195558
 0.195000   3.175367   -3.202946
 0.200000   3.159334   -3.210061
 0.205000   3.143266   -3.216904
 0.210000   3.127165   -3.223475
 0.215000   3.111031   -3.229776
 0.220000   3.094867   -3.235807
 0.225000   3.078673   -3.241568
 0.230000   3.062451   -3.247061
 0.235000   3.046203   -3.252286
 0.240000   3.029928   -3.257244
 0.245000   3.013630   -3.261936
 0.250000   2.997309   -3.266363
 0.255000   2.980966   -3.270526
 0.260000   2.964604   -3.274426
 0.265000   2.948222   -3.278064
 0.270000   2.931823   -3.281440
 0.275000   2.915408   -3.284556
 0.280000   2.898978   -3.287414
 0.285000   2.882534   -3.290014
 0.290000   2.866077   -3.292357
 0.295000   2.849610   -3.294444
 0.300000   2.833133   -3.296278
 0.305000   2.816647   -3.297859
 0.310000   2.800154   -3.299188
 0.315000   2.783655   -3.300267
 0.320000   2.767152   -3.301096
 0.325000   2.750644   -3.301679
 0.330000   2.734135   -3.302015
 0.335000   2.717624   -3.302107
 0.340000   2.701114   -3.301955
 0.345000   2.684605   -3.301562
 0.350000   2.668098   -3.300928
 0.355000   2.651595   -3.300056
 0.360000   2.635098   -3.298947
 0.365000   2.618606   -3.297602
 0.370000   2.602122   -3.296023
 0.375000   2.585646   -3.294213
 0.380000   2.569180   -3.292171
 0.385000   2.552724   -3.289901
 0.390000   2.536280   -3.287404
 0.395000   2.519850   -3.284681
 0.400000   2.503434   -3.281735
 0.405000   2.487033   -3.278567
 0.410000   2.470648   -3.275178
 0.415000   2.454281   -3.271572
 0.420000   2.437932   -3.267749
 0.425000   2.421603   -3.263712
 0.430000   2.405295   -3.259462
 0.435000   2.389009   -3.255001
 0.440000   2.372745   -3.250331
 0.445000   2.356505   -3.245455
 0.450000   2.340291   -3.240374
 0.455000   2.324102   -3.235089
 0.460000   2.307940   -3.229604
 0.465000   2.291806   -3.223920
 0.470000   2.275701   -3.218039
 0.475000   2.259625   -3.211963
 0.480000   2.243581   -3.205694
 0.485000   2.227568   -3.199234
 0.490000   2.211589   -3.192585
 0.495000   2.195643   -3.185750
 0.500000   2.179731   -3.178730
 0.505000   2.163855   -3.171528
 0.510000   2.148016   -3.164145
 0.515000   2.132214   -3.156585
 0.520000   2.116450   -3.148848
 0.525000   2.100725   -3.140937
 0.530000   2.085041   -3.132855
 0.535000   2.069397   -3.124603
 0.540000   2.053795   -3.116184
 0.545000   2.038235   -3.107599
 0.550000   2.022719   -3.098852
 0.555000   2.007246   -3.089943
 0.560000   1.991819   -3.080876
 0.565000   1.976438   -3.071653
 0.570000   1.961103   -3.062276
 0.575000   1.945815   -3.052747
 0.580000   1.930575   -3.043068
 0.585000   1.915384   -3.033241
 0.590000   1.900243   -3.023270
 0.595000   1.885151   -3.013155
 0.600000   1.870111   -3.002900
 0.605000   1.855122   -2.992506
 0.610000   1.840186   -2.981976
 0.615000   1.825303   -2.971313
 0.620000   1.810473   -2.960517
 0.625000   1.795698   -2.949592
 0.630000   1.780977   -2.938540
 0.635000   1.766312   -2.927363
 0.640000   1.751703   -2.916064
 0.645000   1.737151   -2.904644
 0.650000   1.722657   -2.893106
 0.655000   1.708220   -2.881452
 0.660000   1.693842   -2.869684
 0.665000   1.679524   -2.857805
 0.670000   1.665264   -2.845817
 0.675000   1.651065   -2.833722
 0.680000   1.636927   -2.821523
 0.685000   1.622850   -2.809221
 0.690000   1.608835   -2.796819
 0.695000   1.594882   -2.784319
 0.700000   1.580992   -2.771723
 0.705000   1.567165   -2.759034
 0.710000   1.553401   -2.746254
 0.715000   1.539702   -2.733384
 0.720000   1.526068   -2.720428
 0.725000   1.512498   -2.707387
 0.730000   1.498994   -2.694263
 0.735000   1.485555   -2.681059
 0.740000   1.472183   -2.667778
 0.745000   1.458878   -2.654420
 0.750000   1.445639   -2.640988
 0.755000   1.432468   -2.627485
 0.760000   1.419364   -2.613912
 0.765000   1.406329   -2.600272
 0.770000   1.393361   -2.586567
 0.775000   1.380463   -2.572798
 0.780000   1.367633   -2.558968
 0.785000   1.354873   -2.545080
 0.790000   1.342183   -2.531134
 0.795000   1.329562   -2.517134
 0.800000   1.317011   -2.503081
 0.805000   1.304531   -2.488977
 0.810000   1.292121   -2.474824
 0.815000   1.279783   -2.460625
 0.820000   1.267515   -2.446380
 0.825000   1.255319   -2.432092
 0.830000   1.243194   -2.417763
 0.835000   1.231141   -2.403393
 0.840000   1.219160   -2.388984
 0.845000   1.207252   -2.374537
 0.850000   1.195415   -2.360051
 0.855000   1.183651   -2.345526
 0.860000   1.171960   -2.330958
 0.865000   1.160341   -2.316342
 0.870000   1.148796   -2.301673
 0.875000   1.137325   -2.286941
 0.880000   1.125927   -2.272138
 0.885000   1.114603   -2.257264
 0.890000   1.103354   -2.242341
 0.895000   1.092180   -2.227454
 0.900000   1.081080   -2.212828
 0.905000   1.070052   -2.199000
 0.910000   1.059090   -2.187162
 0.915000   1.048180   -2.179845
 0.920000   1.037291   -2.182274
 0.925000   1.026357   -2.204990
 0.930000   1.015241   -2.268881
 0.935000   1.003668   -2.414631
 0.940000   0.991095   -2.719927
 0.945000   0.976469   -3.329100
 0.950000   0.957804   -4.498358
 0.955000   0.931486   -6.645102
 0.960000   0.891353   -10.334854
 0.965000   0.828137   -16.010237
 0.970000   0.731251   -23.176458
 0.975000   0.596373   -29.342260
 0.980000   0.437828   -30.679266
 0.985000   0.289580   -25.689636
 0.990000   0.180932   -17.421251
 0.995000   0.115367   -10.126560
 1.000000   0.079666   -4.153930
201 psinorm ni(10^20/m^3) dni/dpsiN
 0.000000   0.260451   -0.323975
 0.005000   0.259093   -0.219236
 0.010000   0.258258   -0.132355
 0.015000   0.257769   -0.071545
 0.020000   0.257543   -0.021728
 0.025000   0.257552   0.021484
 0.030000   0.257758   0.058738
 0.035000   0.258139   0.089933
 0.040000   0.258657   0.114428
 0.045000   0.259284   0.133740
 0.050000   0.259995   0.148772
 0.055000   0.260771   0.160325
 0.060000   0.261598   0.168806
 0.065000   0.262459   0.174587
 0.070000   0.263344   0.177968
 0.075000   0.264239   0.179356
 0.080000   0.265137   0.178776
 0.085000   0.266027   0.176346
 0.090000   0.266901   0.172660
 0.095000   0.267753   0.167866
 0.100000   0.268579   0.161678
 0.105000   0.269370   0.154417
 0.110000   0.270124   0.146746
 0.115000   0.270838   0.138602
 0.120000   0.271510   0.129934
 0.125000   0.272137   0.120865
 0.130000   0.272718   0.111470
 0.135000   0.273252   0.101834
 0.140000   0.273737   0.091997
 0.145000   0.274172   0.082065
 0.150000   0.274557   0.072193
 0.155000   0.274894   0.062400
 0.160000   0.275181   0.052706
 0.165000   0.275421   0.043163
 0.170000   0.275613   0.033812
 0.175000   0.275759   0.024689
 0.180000   0.275860   0.015837
 0.185000   0.275917   0.007253
 0.190000   0.275932   -0.001078
 0.195000   0.275906   -0.009130
 0.200000   0.275841   -0.016893
 0.205000   0.275737   -0.024368
 0.210000   0.275597   -0.031756
 0.215000   0.275420   -0.039193
 0.220000   0.275205   -0.046115
 0.225000   0.274959   -0.052397
 0.230000   0.274681   -0.058382
 0.235000   0.274375   -0.064052
 0.240000   0.274041   -0.069429
 0.245000   0.273681   -0.074687
 0.250000   0.273294   -0.080082
 0.255000   0.272880   -0.085031
 0.260000   0.272444   -0.089323
 0.265000   0.271987   -0.093420
 0.270000   0.271509   -0.097322
 0.275000   0.271013   -0.101252
 0.280000   0.270497   -0.105218
 0.285000   0.269961   -0.108781
 0.290000   0.269409   -0.111979
 0.295000   0.268841   -0.115067
 0.300000   0.268258   -0.118181
 0.305000   0.267660   -0.121405
 0.310000   0.267044   -0.124340
 0.315000   0.266416   -0.126915
 0.320000   0.265775   -0.129398
 0.325000   0.265122   -0.131949
 0.330000   0.264456   -0.134526
 0.335000   0.263777   -0.136802
 0.340000   0.263088   -0.138821
 0.345000   0.262389   -0.140756
 0.350000   0.261680   -0.142823
 0.355000   0.260960   -0.144785
 0.360000   0.260232   -0.146456
 0.365000   0.259496   -0.148090
 0.370000   0.258751   -0.149805
 0.375000   0.257998   -0.151526
 0.380000   0.257236   -0.153072
 0.385000   0.256467   -0.154515
 0.390000   0.255691   -0.155962
 0.395000   0.254908   -0.157419
 0.400000   0.254117   -0.158740
 0.405000   0.253320   -0.159897
 0.410000   0.252518   -0.160992
 0.415000   0.251710   -0.162072
 0.420000   0.250897   -0.163011
 0.425000   0.250080   -0.163750
 0.430000   0.249260   -0.164393
 0.435000   0.248436   -0.165021
 0.440000   0.247609   -0.165532
 0.445000   0.246781   -0.165868
 0.450000   0.245951   -0.166139
 0.455000   0.245119   -0.166438
 0.460000   0.244286   -0.166653
 0.465000   0.243453   -0.166691
 0.470000   0.242619   -0.166657
 0.475000   0.241786   -0.166617
 0.480000   0.240953   -0.166446
 0.485000   0.240122   -0.166039
 0.490000   0.239293   -0.165480
 0.495000   0.238467   -0.164833
 0.500000   0.237645   -0.164020
 0.505000   0.236827   -0.162960
 0.510000   0.236015   -0.161735
 0.515000   0.235210   -0.160419
 0.520000   0.234411   -0.158969
 0.525000   0.233620   -0.157325
 0.530000   0.232838   -0.155554
 0.535000   0.232064   -0.153730
 0.540000   0.231300   -0.151833
 0.545000   0.230546   -0.149807
 0.550000   0.229802   -0.147690
 0.555000   0.229069   -0.145534
 0.560000   0.228347   -0.143326
 0.565000   0.227636   -0.141003
 0.570000   0.226937   -0.138568
 0.575000   0.226250   -0.136058
 0.580000   0.225576   -0.133481
 0.585000   0.224915   -0.130804
 0.590000   0.224268   -0.128030
 0.595000   0.223635   -0.125195
 0.600000   0.223016   -0.122329
 0.605000   0.222412   -0.119401
 0.610000   0.221822   -0.116385
 0.615000   0.221248   -0.113299
 0.620000   0.220689   -0.110090
 0.625000   0.220147   -0.106727
 0.630000   0.219622   -0.103218
 0.635000   0.219115   -0.099571
 0.640000   0.218626   -0.095795
 0.645000   0.218157   -0.091900
 0.650000   0.217707   -0.087845
 0.655000   0.217278   -0.083729
 0.660000   0.216870   -0.079680
 0.665000   0.216482   -0.075656
 0.670000   0.216113   -0.071580
 0.675000   0.215766   -0.067324
 0.680000   0.215440   -0.062463
 0.685000   0.215141   -0.056809
 0.690000   0.214872   -0.050604
 0.695000   0.214635   -0.043948
 0.700000   0.214433   -0.036912
 0.705000   0.214266   -0.029631
 0.710000   0.214136   -0.021975
 0.715000   0.214046   -0.014288
 0.720000   0.213993   -0.007271
 0.725000   0.213974   -0.001041
 0.730000   0.213983   0.004345
 0.735000   0.214017   0.008693
 0.740000   0.214070   0.011816
 0.745000   0.214135   0.013392
 0.750000   0.214204   0.013265
 0.755000   0.214268   0.011604
 0.760000   0.214320   0.008543
 0.765000   0.214353   0.004216
 0.770000   0.214362   -0.001383
 0.775000   0.214339   -0.007941
 0.780000   0.214283   -0.014449
 0.785000   0.214195   -0.020474
 0.790000   0.214078   -0.026113
 0.795000   0.213934   -0.031232
 0.800000   0.213766   -0.035763
 0.805000   0.213576   -0.039513
 0.810000   0.213370   -0.042384
 0.815000   0.213152   -0.044740
 0.820000   0.212923   -0.046963
 0.825000   0.212683   -0.049211
 0.830000   0.212431   -0.051538
 0.835000   0.212167   -0.053924
 0.840000   0.211892   -0.056244
 0.845000   0.211605   -0.058304
 0.850000   0.211309   -0.059852
 0.855000   0.211006   -0.060567
 0.860000   0.210703   -0.060044
 0.865000   0.210406   -0.057614
 0.870000   0.210127   -0.052263
 0.875000   0.209883   -0.042898
 0.880000   0.209698   -0.028201
 0.885000   0.209601   -0.006219
 0.890000   0.209636   0.025755
 0.895000   0.209859   0.071751
 0.900000   0.210353   0.136345
 0.905000   0.211222   0.224912
 0.910000   0.212602   0.344067
 0.915000   0.214663   0.499703
 0.920000   0.217599   0.693746
 0.925000   0.221600   0.918488
 0.930000   0.226784   1.139227
 0.935000   0.232993   1.274943
 0.940000   0.239534   1.181123
 0.945000   0.244804   0.659692
 0.950000   0.246131   -0.436428
 0.955000   0.240440   -2.000373
 0.960000   0.226127   -3.581632
 0.965000   0.204623   -4.611468
 0.970000   0.180012   -4.808119
 0.975000   0.156542   -4.334585
 0.980000   0.136666   -3.564143
 0.985000   0.120901   -2.798149
 0.990000   0.108685   -2.181398
 0.995000   0.099087   -1.733829
 1.000000   0.091346   -1.362247
201 psinorm ti(KeV) dti/dpsiN
 0.000000   5.739086   0.003951
 0.005000   5.738186   -0.363992
 0.010000   5.735446   -0.737613
 0.015000   5.730809   -1.122021
 0.020000   5.724226   -1.515962
 0.025000   5.715650   -1.917970
 0.030000   5.705046   -2.326414
 0.035000   5.692386   -2.739563
 0.040000   5.677650   -3.155077
 0.045000   5.660835   -3.571305
 0.050000   5.641937   -3.987044
 0.055000   5.620965   -4.400393
 0.060000   5.597933   -4.809554
 0.065000   5.572869   -5.212592
 0.070000   5.545807   -5.605937
 0.075000   5.516810   -5.988405
 0.080000   5.485923   -6.360954
 0.085000   5.453200   -6.722658
 0.090000   5.418697   -7.072786
 0.095000   5.382472   -7.410914
 0.100000   5.344588   -7.735688
 0.105000   5.305115   -8.046936
 0.110000   5.264118   -8.344957
 0.115000   5.221666   -8.628673
 0.120000   5.177832   -8.897988
 0.125000   5.132686   -9.153824
 0.130000   5.086293   -9.398137
 0.135000   5.038705   -9.631507
 0.140000   4.989978   -9.850768
 0.145000   4.940197   -10.053192
 0.150000   4.889446   -10.238032
 0.155000   4.837817   -10.404547
 0.160000   4.785401   -10.551995
 0.165000   4.732297   -10.678464
 0.170000   4.678616   -10.782220
 0.175000   4.624474   -10.863044
 0.180000   4.569986   -10.920923
 0.185000   4.515265   -10.955940
 0.190000   4.460426   -10.967160
 0.195000   4.405594   -10.953941
 0.200000   4.350887   -10.921349
 0.205000   4.296380   -10.874147
 0.210000   4.242145   -10.814060
 0.215000   4.188239   -10.744136
 0.220000   4.134704   -10.666944
 0.225000   4.081570   -10.586058
 0.230000   4.028843   -10.503152
 0.235000   3.976538   -10.417028
 0.240000   3.924673   -10.327328
 0.245000   3.873265   -10.233974
 0.250000   3.822333   -10.137295
 0.255000   3.771892   -10.038365
 0.260000   3.721950   -9.928059
 0.265000   3.672612   -9.800486
 0.270000   3.623945   -9.659338
 0.275000   3.576018   -9.504499
 0.280000   3.528900   -9.336119
 0.285000   3.482657   -9.153769
 0.290000   3.437362   -8.956413
 0.295000   3.393093   -8.745471
 0.300000   3.349908   -8.522675
 0.305000   3.307866   -8.288084
 0.310000   3.267027   -8.042504
 0.315000   3.227441   -7.784693
 0.320000   3.189180   -7.528686
 0.325000   3.152154   -7.286549
 0.330000   3.116314   -7.054651
 0.335000   3.081608   -6.833365
 0.340000   3.047981   -6.622951
 0.345000   3.015378   -6.425604
 0.350000   2.983725   -6.241381
 0.355000   2.952964   -6.066946
 0.360000   2.923055   -5.900724
 0.365000   2.893957   -5.741924
 0.370000   2.865636   -5.589575
 0.375000   2.838061   -5.446821
 0.380000   2.811168   -5.307845
 0.385000   2.784983   -5.162480
 0.390000   2.759543   -5.010514
 0.395000   2.734878   -4.852421
 0.400000   2.711019   -4.688601
 0.405000   2.687992   -4.518120
 0.410000   2.665838   -4.341669
 0.415000   2.644575   -4.165280
 0.420000   2.624185   -3.993521
 0.425000   2.604640   -3.827735
 0.430000   2.585907   -3.669161
 0.435000   2.567948   -3.515715
 0.440000   2.550750   -3.368755
 0.445000   2.534261   -3.234244
 0.450000   2.518408   -3.112196
 0.455000   2.503139   -3.000707
 0.460000   2.488401   -2.899964
 0.465000   2.474139   -2.809001
 0.470000   2.460311   -2.729008
 0.475000   2.446849   -2.662983
 0.480000   2.433681   -2.609867
 0.485000   2.420750   -2.567431
 0.490000   2.408007   -2.534574
 0.495000   2.395405   -2.509455
 0.500000   2.382912   -2.488869
 0.505000   2.370516   -2.470656
 0.510000   2.358205   -2.455407
 0.515000   2.345962   -2.443843
 0.520000   2.333767   -2.435945
 0.525000   2.321603   -2.431549
 0.530000   2.309452   -2.430459
 0.535000   2.297298   -2.432309
 0.540000   2.285128   -2.436725
 0.545000   2.272931   -2.443468
 0.550000   2.260694   -2.452238
 0.555000   2.248408   -2.462760
 0.560000   2.236066   -2.474821
 0.565000   2.223660   -2.487954
 0.570000   2.211187   -2.501747
 0.575000   2.198643   -2.516035
 0.580000   2.186026   -2.530526
 0.585000   2.173337   -2.544928
 0.590000   2.160577   -2.559049
 0.595000   2.147747   -2.572960
 0.600000   2.134847   -2.586957
 0.605000   2.121877   -2.601189
 0.610000   2.108836   -2.615561
 0.615000   2.095722   -2.629899
 0.620000   2.082537   -2.644811
 0.625000   2.069274   -2.659420
 0.630000   2.055942   -2.672490
 0.635000   2.042549   -2.684275
 0.640000   2.029100   -2.694535
 0.645000   2.015603   -2.703011
 0.650000   2.002069   -2.710529
 0.655000   1.988498   -2.717299
 0.660000   1.974896   -2.723407
 0.665000   1.961264   -2.729795
 0.670000   1.947599   -2.736479
 0.675000   1.933899   -2.743141
 0.680000   1.920167   -2.750794
 0.685000   1.906391   -2.756244
 0.690000   1.892605   -2.755265
 0.695000   1.878839   -2.748916
 0.700000   1.865115   -2.738331
 0.705000   1.851455   -2.724039
 0.710000   1.837875   -2.706453
 0.715000   1.824391   -2.685182
 0.720000   1.811023   -2.660300
 0.725000   1.797788   -2.632752
 0.730000   1.784696   -2.603082
 0.735000   1.771757   -2.571731
 0.740000   1.758978   -2.538380
 0.745000   1.746373   -2.503503
 0.750000   1.733943   -2.469726
 0.755000   1.721676   -2.438945
 0.760000   1.709554   -2.412094
 0.765000   1.697555   -2.390243
 0.770000   1.685652   -2.374018
 0.775000   1.673815   -2.362707
 0.780000   1.662024   -2.354014
 0.785000   1.650275   -2.346607
 0.790000   1.638558   -2.340580
 0.795000   1.626869   -2.336134
 0.800000   1.615197   -2.333584
 0.805000   1.603533   -2.334606
 0.810000   1.591851   -2.342079
 0.815000   1.580112   -2.357214
 0.820000   1.568279   -2.379930
 0.825000   1.556313   -2.410265
 0.830000   1.544176   -2.448581
 0.835000   1.531827   -2.495537
 0.840000   1.519221   -2.548813
 0.845000   1.506339   -2.609856
 0.850000   1.493122   -2.684323
 0.855000   1.479496   -2.775017
 0.860000   1.465372   -2.884812
 0.865000   1.450648   -3.022683
 0.870000   1.435145   -3.179317
 0.875000   1.418854   -3.344746
 0.880000   1.401698   -3.525101
 0.885000   1.383603   -3.719578
 0.890000   1.364502   -3.928122
 0.895000   1.344322   -4.169202
 0.900000   1.322810   -4.435659
 0.905000   1.299966   -4.715062
 0.910000   1.275659   -5.021244
 0.915000   1.249753   -5.356348
 0.920000   1.222096   -5.723051
 0.925000   1.192523   -6.155337
 0.930000   1.160543   -6.623935
 0.935000   1.126283   -7.082875
 0.940000   1.089714   -7.544626
 0.945000   1.050837   -7.999355
 0.950000   1.009720   -8.433867
 0.955000   0.966498   -8.868853
 0.960000   0.921032   -9.270264
 0.965000   0.873796   -9.585754
 0.970000   0.825174   -9.822795
 0.975000   0.775568   -9.971991
 0.980000   0.725454   -10.019098
 0.985000   0.675377   -9.963297
 0.990000   0.625821   -9.775526
 0.995000   0.577621   -9.437225
 1.000000   0.531449   -9.031744
201 psinorm nb(10^20/m^3) dnb/dpsiN
 0.000000   0.103937   0.085271
 0.005000   0.104104   -0.018410
 0.010000   0.103753   -0.104229
 0.015000   0.103062   -0.163973
 0.020000   0.102113   -0.212719
 0.025000   0.100935   -0.254856
 0.030000   0.099564   -0.291033
 0.035000   0.098024   -0.321148
 0.040000   0.096353   -0.344562
 0.045000   0.094579   -0.362792
 0.050000   0.092725   -0.376742
 0.055000   0.090811   -0.387218
 0.060000   0.088853   -0.394626
 0.065000   0.086865   -0.399342
 0.070000   0.084859   -0.401669
 0.075000   0.082848   -0.402018
 0.080000   0.080839   -0.400412
 0.085000   0.078844   -0.396971
 0.090000   0.076870   -0.392292
 0.095000   0.074921   -0.386523
 0.100000   0.073004   -0.379380
 0.105000   0.071127   -0.371182
 0.110000   0.069293   -0.362588
 0.115000   0.067502   -0.353539
 0.120000   0.065757   -0.343986
 0.125000   0.064062   -0.334055
 0.130000   0.062417   -0.323825
 0.135000   0.060823   -0.313381
 0.140000   0.059283   -0.302760
 0.145000   0.057796   -0.292070
 0.150000   0.056362   -0.281468
 0.155000   0.054981   -0.270972
 0.160000   0.053652   -0.260603
 0.165000   0.052375   -0.250414
 0.170000   0.051148   -0.240444
 0.175000   0.049971   -0.230728
 0.180000   0.048841   -0.221313
 0.185000   0.047758   -0.212196
 0.190000   0.046719   -0.203363
 0.195000   0.045724   -0.194844
 0.200000   0.044771   -0.186651
 0.205000   0.043857   -0.178787
 0.210000   0.042983   -0.171048
 0.215000   0.042147   -0.163300
 0.220000   0.041350   -0.156105
 0.225000   0.040586   -0.149580
 0.230000   0.039854   -0.143378
 0.235000   0.039152   -0.137516
 0.240000   0.038479   -0.131974
 0.245000   0.037832   -0.126578
 0.250000   0.037213   -0.121078
 0.255000   0.036622   -0.116051
 0.260000   0.036052   -0.111725
 0.265000   0.035504   -0.107648
 0.270000   0.034976   -0.103817
 0.275000   0.034466   -0.100011
 0.280000   0.033976   -0.096224
 0.285000   0.033504   -0.092894
 0.290000   0.033047   -0.089992
 0.295000   0.032604   -0.087263
 0.300000   0.032174   -0.084564
 0.305000   0.031758   -0.081806
 0.310000   0.031356   -0.079384
 0.315000   0.030964   -0.077365
 0.320000   0.030583   -0.075473
 0.325000   0.030210   -0.073529
 0.330000   0.029847   -0.071573
 0.335000   0.029494   -0.069923
 0.340000   0.029148   -0.068532
 0.345000   0.028809   -0.067223
 0.350000   0.028476   -0.065784
 0.355000   0.028151   -0.064459
 0.360000   0.027831   -0.063439
 0.365000   0.027516   -0.062475
 0.370000   0.027206   -0.061449
 0.375000   0.026902   -0.060436
 0.380000   0.026602   -0.059606
 0.385000   0.026306   -0.058878
 0.390000   0.026013   -0.058131
 0.395000   0.025725   -0.057349
 0.400000   0.025440   -0.056663
 0.405000   0.025158   -0.056086
 0.410000   0.024879   -0.055499
 0.415000   0.024603   -0.054846
 0.420000   0.024331   -0.054243
 0.425000   0.024061   -0.053745
 0.430000   0.023793   -0.053242
 0.435000   0.023528   -0.052649
 0.440000   0.023267   -0.052082
 0.445000   0.023007   -0.051624
 0.450000   0.022750   -0.051167
 0.455000   0.022496   -0.050615
 0.460000   0.022244   -0.050082
 0.465000   0.021995   -0.049664
 0.470000   0.021748   -0.049255
 0.475000   0.021502   -0.048766
 0.480000   0.021260   -0.048292
 0.485000   0.021019   -0.047924
 0.490000   0.020781   -0.047566
 0.495000   0.020544   -0.047146
 0.500000   0.020309   -0.046736
 0.505000   0.020076   -0.046412
 0.510000   0.019845   -0.046101
 0.515000   0.019615   -0.045738
 0.520000   0.019388   -0.045375
 0.525000   0.019162   -0.045083
 0.530000   0.018937   -0.044807
 0.535000   0.018714   -0.044492
 0.540000   0.018492   -0.044170
 0.545000   0.018272   -0.043904
 0.550000   0.018053   -0.043660
 0.555000   0.017835   -0.043394
 0.560000   0.017619   -0.043118
 0.565000   0.017404   -0.042884
 0.570000   0.017190   -0.042680
 0.575000   0.016977   -0.042469
 0.580000   0.016765   -0.042245
 0.585000   0.016555   -0.042051
 0.590000   0.016345   -0.041894
 0.595000   0.016136   -0.041743
 0.600000   0.015928   -0.041577
 0.605000   0.015720   -0.041433
 0.610000   0.015513   -0.041331
 0.615000   0.015307   -0.041241
 0.620000   0.015101   -0.041158
 0.625000   0.014895   -0.041091
 0.630000   0.014690   -0.041049
 0.635000   0.014485   -0.041025
 0.640000   0.014280   -0.041013
 0.645000   0.014075   -0.041020
 0.650000   0.013869   -0.041044
 0.655000   0.013664   -0.041080
 0.660000   0.013459   -0.041124
 0.665000   0.013253   -0.041184
 0.670000   0.013047   -0.041261
 0.675000   0.012840   -0.041343
 0.680000   0.012633   -0.041431
 0.685000   0.012426   -0.041526
 0.690000   0.012218   -0.041642
 0.695000   0.012010   -0.041774
 0.700000   0.011800   -0.041906
 0.705000   0.011590   -0.042039
 0.710000   0.011380   -0.042178
 0.715000   0.011169   -0.042334
 0.720000   0.010957   -0.042509
 0.725000   0.010744   -0.042675
 0.730000   0.010530   -0.042833
 0.735000   0.010315   -0.042991
 0.740000   0.010100   -0.043151
 0.745000   0.009884   -0.043328
 0.750000   0.009667   -0.043497
 0.755000   0.009449   -0.043634
 0.760000   0.009230   -0.043763
 0.765000   0.009011   -0.043879
 0.770000   0.008792   -0.043984
 0.775000   0.008571   -0.044085
 0.780000   0.008351   -0.044168
 0.785000   0.008130   -0.044226
 0.790000   0.007908   -0.044268
 0.795000   0.007687   -0.044293
 0.800000   0.007465   -0.044297
 0.805000   0.007244   -0.044278
 0.810000   0.007023   -0.044231
 0.815000   0.006802   -0.044158
 0.820000   0.006581   -0.044060
 0.825000   0.006361   -0.043932
 0.830000   0.006142   -0.043774
 0.835000   0.005923   -0.043583
 0.840000   0.005706   -0.043355
 0.845000   0.005490   -0.043068
 0.850000   0.005275   -0.042738
 0.855000   0.005062   -0.042388
 0.860000   0.004851   -0.042001
 0.865000   0.004642   -0.041594
 0.870000   0.004435   -0.041188
 0.875000   0.004231   -0.040796
 0.880000   0.004028   -0.040423
 0.885000   0.003826   -0.040076
 0.890000   0.003627   -0.039759
 0.895000   0.003429   -0.039473
 0.900000   0.003232   -0.039232
 0.905000   0.003036   -0.039047
 0.910000   0.002842   -0.038907
 0.915000   0.002647   -0.038831
 0.920000   0.002453   -0.038849
 0.925000   0.002259   -0.038888
 0.930000   0.002064   -0.038772
 0.935000   0.001871   -0.038295
 0.940000   0.001681   -0.037282
 0.945000   0.001498   -0.035752
 0.950000   0.001324   -0.034080
 0.955000   0.001158   -0.032746
 0.960000   0.000996   -0.031894
 0.965000   0.000839   -0.030931
 0.970000   0.000687   -0.028734
 0.975000   0.000551   -0.024824
 0.980000   0.000439   -0.020211
 0.985000   0.000349   -0.016837
 0.990000   0.000271   -0.015006
 0.995000   0.000199   -0.014451
 1.000000   0.000126   -0.014766
201 psinorm pb(KPa) dpb/dpsiN
 0.000000   41.915324   15.822753
 0.005000   41.900959   -21.568912
 0.010000   41.699635   -53.740517
 0.015000   41.363554   -76.932450
 0.020000   40.930311   -95.584846
 0.025000   40.407705   -111.926846
 0.030000   39.811042   -126.121740
 0.035000   39.146488   -137.849982
 0.040000   38.432543   -146.551000
 0.045000   37.680978   -153.120405
 0.050000   36.901339   -157.867955
 0.055000   36.102298   -161.239708
 0.060000   35.288941   -163.570859
 0.065000   34.466590   -164.896416
 0.070000   33.639977   -165.317040
 0.075000   32.813419   -165.069516
 0.080000   31.989282   -164.086347
 0.085000   31.172556   -162.317315
 0.090000   30.366109   -160.067339
 0.095000   29.571883   -157.423391
 0.100000   28.791875   -154.262013
 0.105000   28.029263   -150.707180
 0.110000   27.284803   -147.026323
 0.115000   26.558999   -143.200948
 0.120000   25.852794   -139.204909
 0.125000   25.166950   -135.079234
 0.130000   24.502001   -130.857205
 0.135000   23.858378   -126.568854
 0.140000   23.236313   -122.192193
 0.145000   22.636456   -117.799600
 0.150000   22.058317   -113.492312
 0.155000   21.501533   -109.248042
 0.160000   20.965836   -105.065979
 0.165000   20.450873   -100.964064
 0.170000   19.956196   -96.956722
 0.175000   19.481306   -93.060993
 0.180000   19.025586   -89.304054
 0.185000   18.588266   -85.675586
 0.190000   18.168830   -82.149554
 0.195000   17.766770   -78.741820
 0.200000   17.381412   -75.467667
 0.205000   17.012093   -72.327596
 0.210000   16.658136   -69.242347
 0.215000   16.319670   -66.163116
 0.220000   15.996505   -63.303696
 0.225000   15.686633   -60.705117
 0.230000   15.389454   -58.236005
 0.235000   15.104273   -55.903336
 0.240000   14.830420   -53.697814
 0.245000   14.567295   -51.553789
 0.250000   14.314882   -49.376501
 0.255000   14.073530   -47.383512
 0.260000   13.841047   -45.660133
 0.265000   13.616928   -44.035441
 0.270000   13.400693   -42.506772
 0.275000   13.191861   -40.996363
 0.280000   12.990729   -39.498203
 0.285000   12.796879   -38.170358
 0.290000   12.609026   -37.004916
 0.295000   12.426829   -35.906406
 0.300000   12.249962   -34.821294
 0.305000   12.078617   -33.717210
 0.310000   11.912789   -32.742176
 0.315000   11.751195   -31.921315
 0.320000   11.593576   -31.150093
 0.325000   11.439694   -30.362535
 0.330000   11.289951   -29.564180
 0.335000   11.144052   -28.881335
 0.340000   11.001138   -28.305518
 0.345000   10.860997   -27.764269
 0.350000   10.723495   -27.178185
 0.355000   10.589215   -26.636356
 0.360000   10.457131   -26.208609
 0.365000   10.327129   -25.803098
 0.370000   10.199100   -25.376500
 0.375000   10.073364   -24.956287
 0.380000   9.949537   -24.604589
 0.385000   9.827318   -24.291400
 0.390000   9.706623   -23.976730
 0.395000   9.587551   -23.651506
 0.400000   9.470108   -23.359214
 0.405000   9.353959   -23.104423
 0.410000   9.239064   -22.847118
 0.415000   9.125487   -22.566541
 0.420000   9.013399   -22.303549
 0.425000   8.902452   -22.076672
 0.430000   8.792632   -21.847656
 0.435000   8.683975   -21.585105
 0.440000   8.576781   -21.331372
 0.445000   8.470662   -21.117583
 0.450000   8.365605   -20.904294
 0.455000   8.261619   -20.654930
 0.460000   8.159056   -20.413033
 0.465000   8.057488   -20.216446
 0.470000   7.956891   -20.024731
 0.475000   7.857241   -19.806717
 0.480000   7.758824   -19.596295
 0.485000   7.661278   -19.424893
 0.490000   7.564575   -19.258435
 0.495000   7.468694   -19.073464
 0.500000   7.373841   -18.894396
 0.505000   7.279750   -18.745460
 0.510000   7.186386   -18.601407
 0.515000   7.093736   -18.441316
 0.520000   7.001973   -18.282311
 0.525000   6.910913   -18.146413
 0.530000   6.820509   -18.016023
 0.535000   6.730752   -17.872244
 0.540000   6.641786   -17.727804
 0.545000   6.553474   -17.602221
 0.550000   6.465764   -17.482232
 0.555000   6.378652   -17.353231
 0.560000   6.292232   -17.221233
 0.565000   6.206440   -17.103548
 0.570000   6.121196   -16.994855
 0.575000   6.036491   -16.883716
 0.580000   5.952359   -16.768167
 0.585000   5.868809   -16.663034
 0.590000   5.785729   -16.570377
 0.595000   5.703106   -16.478951
 0.600000   5.620939   -16.380357
 0.605000   5.539302   -16.288432
 0.610000   5.458055   -16.212916
 0.615000   5.377173   -16.142336
 0.620000   5.296632   -16.075419
 0.625000   5.216419   -16.012602
 0.630000   5.136506   -15.957047
 0.635000   5.056848   -15.908205
 0.640000   4.977424   -15.863890
 0.645000   4.898209   -15.826025
 0.650000   4.819163   -15.793971
 0.655000   4.740270   -15.764515
 0.660000   4.661518   -15.737194
 0.665000   4.582898   -15.714686
 0.670000   4.504371   -15.696354
 0.675000   4.425934   -15.678495
 0.680000   4.347586   -15.662002
 0.685000   4.269314   -15.647978
 0.690000   4.191107   -15.639472
 0.695000   4.112920   -15.635444
 0.700000   4.034752   -15.631531
 0.705000   3.956604   -15.628634
 0.710000   3.878466   -15.627446
 0.715000   3.800330   -15.632366
 0.720000   3.722142   -15.643619
 0.725000   3.643894   -15.652656
 0.730000   3.565616   -15.658871
 0.735000   3.487305   -15.665478
 0.740000   3.408961   -15.672034
 0.745000   3.330584   -15.684284
 0.750000   3.252118   -15.692288
 0.755000   3.173662   -15.688716
 0.760000   3.095231   -15.681096
 0.765000   3.016851   -15.668149
 0.770000   2.938549   -15.650612
 0.775000   2.860345   -15.630360
 0.780000   2.782246   -15.603821
 0.785000   2.704306   -15.569474
 0.790000   2.626551   -15.529842
 0.795000   2.549008   -15.484080
 0.800000   2.471710   -15.431191
 0.805000   2.394696   -15.368946
 0.810000   2.318021   -15.296053
 0.815000   2.241735   -15.213758
 0.820000   2.165883   -15.122194
 0.825000   2.090514   -15.020428
 0.830000   2.015679   -14.907797
 0.835000   1.941436   -14.783568
 0.840000   1.867843   -14.647118
 0.845000   1.794964   -14.488679
 0.850000   1.722956   -14.316380
 0.855000   1.651801   -14.139310
 0.860000   1.581563   -13.950599
 0.865000   1.512295   -13.754553
 0.870000   1.444018   -13.556295
 0.875000   1.376732   -13.359576
 0.880000   1.310422   -13.166461
 0.885000   1.245067   -12.979774
 0.890000   1.180624   -12.803012
 0.895000   1.117037   -12.634731
 0.900000   1.054277   -12.483219
 0.905000   0.992205   -12.359331
 0.910000   0.930684   -12.260257
 0.915000   0.869602   -12.189253
 0.920000   0.808791   -12.151542
 0.925000   0.748087   -12.119388
 0.930000   0.687597   -12.030558
 0.935000   0.627781   -11.806691
 0.940000   0.569530   -11.368042
 0.945000   0.514101   -10.691829
 0.950000   0.462612   -9.898609
 0.955000   0.415115   -9.244837
 0.960000   0.370164   -9.013626
 0.965000   0.324978   -9.279394
 0.970000   0.277370   -9.734984
 0.975000   0.227629   -9.860071
 0.980000   0.178769   -9.449813
 0.985000   0.133130   -8.574161
 0.990000   0.093027   -7.078937
 0.995000   0.062341   -5.487144
 1.000000   0.038156   -4.186876
201 psinorm ptot(KPa) dptot/dpsiN
 0.000000   95.279011   -48.452098
 0.005000   94.963277   -77.841447
 0.010000   94.500596   -103.673667
 0.015000   93.926540   -122.966483
 0.020000   93.270931   -138.776254
 0.025000   92.538778   -152.928528
 0.030000   91.741646   -165.525235
 0.035000   90.883525   -176.251429
 0.040000   89.979132   -184.596030
 0.045000   89.037565   -191.308633
 0.050000   88.066045   -196.610550
 0.055000   87.071459   -200.864949
 0.060000   86.057396   -204.360290
 0.065000   85.027857   -207.086499
 0.070000   83.986531   -209.098150
 0.075000   82.936875   -210.586676
 0.080000   81.880664   -211.482593
 0.085000   80.822049   -211.716814
 0.090000   79.763496   -211.534503
 0.095000   78.706704   -211.004043
 0.100000   77.653456   -210.015960
 0.105000   76.606545   -208.661521
 0.110000   75.566840   -207.149453
 0.115000   74.535050   -205.458488
 0.120000   73.512256   -203.563330
 0.125000   72.499417   -201.495971
 0.130000   71.497296   -199.289799
 0.135000   70.506519   -196.968310
 0.140000   69.527613   -194.489495
 0.145000   68.561624   -191.902592
 0.150000   67.608587   -189.291552
 0.155000   66.668708   -186.628084
 0.160000   65.742306   -183.905526
 0.165000   64.829653   -181.128316
 0.170000   63.931023   -178.299365
 0.175000   63.046659   -175.432120
 0.180000   62.176702   -172.550733
 0.185000   61.321152   -169.646047
 0.190000   60.480241   -166.689567
 0.195000   59.654256   -163.693164
 0.200000   58.843310   -160.696167
 0.205000   58.047295   -157.722639
 0.210000   57.266083   -154.716322
 0.215000   56.500131   -151.652445
 0.220000   55.749559   -148.720113
 0.225000   55.012930   -145.970756
 0.230000   54.289851   -143.305494
 0.235000   53.579875   -140.726017
 0.240000   52.882591   -138.224029
 0.245000   52.197635   -135.745589
 0.250000   51.525135   -133.213640
 0.255000   50.865499   -130.816086
 0.260000   50.216974   -128.584816
 0.265000   49.579650   -126.351472
 0.270000   48.953460   -124.131885
 0.275000   48.338332   -121.861674
 0.280000   47.734843   -119.536791
 0.285000   47.142964   -117.289810
 0.290000   46.561945   -115.111844
 0.295000   45.991845   -112.929802
 0.300000   45.432647   -110.706399
 0.305000   44.884781   -108.414851
 0.310000   44.348498   -106.186731
 0.315000   43.822914   -104.039347
 0.320000   43.308105   -101.946810
 0.325000   42.803446   -99.906131
 0.330000   42.309043   -97.904126
 0.335000   41.824405   -96.052516
 0.340000   41.348518   -94.346579
 0.345000   40.880939   -92.732305
 0.350000   40.421195   -91.140460
 0.355000   39.969534   -89.633691
 0.360000   39.524858   -88.265951
 0.365000   39.086875   -86.953900
 0.370000   38.655319   -85.655238
 0.375000   38.230322   -84.407494
 0.380000   37.811244   -83.239133
 0.385000   37.397931   -82.079268
 0.390000   36.990452   -80.892356
 0.395000   36.589007   -79.672247
 0.400000   36.193729   -78.458307
 0.405000   35.804424   -77.250606
 0.410000   35.421223   -76.017137
 0.415000   35.044253   -74.765570
 0.420000   34.673567   -73.551156
 0.425000   34.308741   -72.395644
 0.430000   33.949611   -71.270456
 0.435000   33.596037   -70.138479
 0.440000   33.248226   -69.043328
 0.445000   32.905604   -68.038479
 0.450000   32.567841   -67.088598
 0.455000   32.234718   -66.152268
 0.460000   31.906319   -65.268839
 0.465000   31.582029   -64.467946
 0.470000   31.261639   -63.717896
 0.475000   30.944850   -63.002064
 0.480000   30.631619   -62.344674
 0.485000   30.321404   -61.763455
 0.490000   30.013984   -61.222764
 0.495000   29.709176   -60.693808
 0.500000   29.407046   -60.184694
 0.505000   29.107329   -59.707796
 0.510000   28.809968   -59.243324
 0.515000   28.514896   -58.775949
 0.520000   28.222209   -58.320951
 0.525000   27.931686   -57.897327
 0.530000   27.643235   -57.489035
 0.535000   27.356796   -57.078318
 0.540000   27.072452   -56.675498
 0.545000   26.790041   -56.296997
 0.550000   26.509482   -55.929784
 0.555000   26.230743   -55.559926
 0.560000   25.953883   -55.192174
 0.565000   25.678821   -54.839806
 0.570000   25.405485   -54.496115
 0.575000   25.133860   -54.150423
 0.580000   24.863981   -53.799989
 0.585000   24.595860   -53.457338
 0.590000   24.329407   -53.123946
 0.595000   24.064621   -52.790206
 0.600000   23.801505   -52.449871
 0.605000   23.540122   -52.116331
 0.610000   23.280342   -51.798171
 0.615000   23.022140   -51.484049
 0.620000   22.765501   -51.173656
 0.625000   22.510404   -50.863285
 0.630000   22.256868   -50.551808
 0.635000   22.004886   -50.240035
 0.640000   21.754468   -49.925378
 0.645000   21.505632   -49.609176
 0.650000   21.258376   -49.292984
 0.655000   21.012702   -48.977182
 0.660000   20.768605   -48.665112
 0.665000   20.526051   -48.361799
 0.670000   20.284987   -48.064717
 0.675000   20.045404   -47.765761
 0.680000   19.807329   -47.458923
 0.685000   19.570815   -47.129156
 0.690000   19.336037   -46.770650
 0.695000   19.103108   -46.389331
 0.700000   18.872144   -45.987309
 0.705000   18.643235   -45.571044
 0.710000   18.416434   -45.139789
 0.715000   18.191837   -44.705028
 0.720000   17.969383   -44.284203
 0.725000   17.748995   -43.874642
 0.730000   17.530637   -43.478478
 0.735000   17.314210   -43.104470
 0.740000   17.099592   -42.754617
 0.745000   16.886664   -42.442923
 0.750000   16.675163   -42.171732
 0.755000   16.464947   -41.935758
 0.760000   16.255805   -41.741766
 0.765000   16.047529   -41.588515
 0.770000   15.839920   -41.478322
 0.775000   15.632746   -41.402682
 0.780000   15.425893   -41.326799
 0.785000   15.219478   -41.234801
 0.790000   15.013545   -41.131900
 0.795000   14.808159   -41.015297
 0.800000   14.603392   -40.883881
 0.805000   14.399320   -40.737646
 0.810000   14.196016   -40.583881
 0.815000   13.993481   -40.435976
 0.820000   13.791656   -40.301583
 0.825000   13.590466   -40.182513
 0.830000   13.389831   -40.079511
 0.835000   13.189670   -39.992405
 0.840000   12.989907   -39.907750
 0.845000   12.790593   -39.814528
 0.850000   12.591762   -39.732462
 0.855000   12.393268   -39.669158
 0.860000   12.195070   -39.613209
 0.865000   11.997136   -39.578220
 0.870000   11.799288   -39.503685
 0.875000   11.602099   -39.319789
 0.880000   11.406090   -39.002526
 0.885000   11.212074   -38.484762
 0.890000   11.021242   -37.680266
 0.895000   10.835271   -36.530589
 0.900000   10.655937   -34.878938
 0.905000   10.486482   -32.536638
 0.910000   10.330570   -29.386976
 0.915000   10.192612   -25.340430
 0.920000   10.077166   -20.501597
 0.925000   9.987596   -15.485393
 0.930000   9.922312   -11.575181
 0.935000   9.871845   -11.524693
 0.940000   9.807065   -20.319399
 0.945000   9.668651   -44.280470
 0.950000   9.364260   -87.594543
 0.955000   8.792705   -146.251817
 0.960000   7.901742   -205.221519
 0.965000   6.740490   -245.825120
 0.970000   5.443491   -257.099145
 0.975000   4.169498   -238.439805
 0.980000   3.059093   -196.457408
 0.985000   2.204924   -144.178565
 0.990000   1.617307   -96.925175
 0.995000   1.235673   -63.665095
 1.000000   0.980656   -38.341434
201 psinorm omeg(kRad/s) domeg/dpsiN
 0.000000   61.309079   0.019943
 0.005000   61.308715   -0.165558
 0.010000   61.307423   -0.383802
 0.015000   61.304877   -0.673380
 0.020000   61.300689   -1.044632
 0.025000   61.294430   -1.505844
 0.030000   61.285631   -2.063484
 0.035000   61.273795   -2.721500
 0.040000   61.258416   -3.477310
 0.045000   61.239022   -4.326650
 0.050000   61.215149   -5.266124
 0.055000   61.186361   -6.288257
 0.060000   61.152267   -7.382699
 0.065000   61.112534   -8.535720
 0.070000   61.066909   -9.709259
 0.075000   61.015441   -10.890141
 0.080000   60.958008   -12.091411
 0.085000   60.894527   -13.303249
 0.090000   60.824976   -14.518827
 0.095000   60.749339   -15.736262
 0.100000   60.667613   -16.927495
 0.105000   60.580064   -18.095571
 0.110000   60.486657   -19.266711
 0.115000   60.387397   -20.429186
 0.120000   60.282365   -21.582903
 0.125000   60.171568   -22.747561
 0.130000   60.054890   -23.941203
 0.135000   59.932156   -25.188818
 0.140000   59.803002   -26.490862
 0.145000   59.667247   -27.819127
 0.150000   59.524810   -29.165394
 0.155000   59.375593   -30.533707
 0.160000   59.219473   -31.925699
 0.165000   59.056336   -33.333426
 0.170000   58.886139   -34.739136
 0.175000   58.708945   -36.125169
 0.180000   58.524887   -37.481739
 0.185000   58.334128   -38.804008
 0.190000   58.136847   -40.081005
 0.195000   57.933318   -41.302200
 0.200000   57.723825   -42.473152
 0.205000   57.508586   -43.572973
 0.210000   57.288096   -44.560785
 0.215000   57.062978   -45.413605
 0.220000   56.833959   -46.095193
 0.225000   56.602026   -46.556300
 0.230000   56.368396   -46.876673
 0.235000   56.133260   -47.119344
 0.240000   55.897203   -47.252912
 0.245000   55.660730   -47.294402
 0.250000   55.424259   -47.245151
 0.255000   55.188279   -47.062875
 0.260000   54.953630   -46.841174
 0.265000   54.719867   -46.645517
 0.270000   54.487175   -46.423766
 0.275000   54.255630   -46.198305
 0.280000   54.025192   -45.989067
 0.285000   53.795739   -45.808305
 0.290000   53.567109   -45.737907
 0.295000   53.338360   -45.803946
 0.300000   53.109070   -45.940154
 0.305000   52.878958   -46.113247
 0.310000   52.647937   -46.280706
 0.315000   52.416151   -46.409885
 0.320000   52.183838   -46.476846
 0.325000   51.951383   -46.479339
 0.330000   51.719045   -46.429475
 0.335000   51.487088   -46.326582
 0.340000   51.255779   -46.170341
 0.345000   51.025385   -45.951878
 0.350000   50.796260   -45.675227
 0.355000   50.568632   -45.353687
 0.360000   50.342723   -44.988337
 0.365000   50.118749   -44.581708
 0.370000   49.896906   -44.137675
 0.375000   49.677372   -43.647138
 0.380000   49.460435   -43.119359
 0.385000   49.246179   -42.566228
 0.390000   49.034773   -41.974487
 0.395000   48.826434   -41.340382
 0.400000   48.621369   -40.667577
 0.405000   48.419758   -39.944687
 0.410000   48.221922   -39.236316
 0.415000   48.027395   -38.692892
 0.420000   47.834993   -38.414228
 0.425000   47.643253   -38.441046
 0.430000   47.450583   -38.781362
 0.435000   47.255439   -39.526414
 0.440000   47.055318   -40.641855
 0.445000   46.849020   -41.851149
 0.450000   46.636807   -43.054152
 0.455000   46.418479   -44.267976
 0.460000   46.194127   -45.435025
 0.465000   45.964129   -46.603746
 0.470000   45.728090   -47.701582
 0.475000   45.487113   -48.423467
 0.480000   45.243855   -48.734251
 0.485000   44.999770   -48.749470
 0.490000   44.756360   -48.464893
 0.495000   44.515121   -47.897083
 0.500000   44.277389   -47.031400
 0.505000   44.044807   -45.907262
 0.510000   43.818317   -44.687957
 0.515000   43.597928   -43.491283
 0.520000   43.383404   -42.358771
 0.525000   43.174340   -41.313536
 0.530000   42.970269   -40.363141
 0.535000   42.770709   -39.546935
 0.540000   42.574799   -38.900182
 0.545000   42.381707   -38.427039
 0.550000   42.190529   -38.140082
 0.555000   42.000306   -38.046303
 0.560000   41.810066   -38.143326
 0.565000   41.618873   -38.467287
 0.570000   41.425393   -39.040236
 0.575000   41.228470   -39.847322
 0.580000   41.026920   -40.893896
 0.585000   40.819531   -42.184741
 0.590000   40.605072   -43.719371
 0.595000   40.382338   -45.447348
 0.600000   40.150599   -47.300250
 0.605000   39.909335   -49.241980
 0.610000   39.658179   -51.242122
 0.615000   39.396914   -53.271487
 0.620000   39.125464   -55.238809
 0.625000   38.844526   -57.158456
 0.630000   38.553880   -59.081284
 0.635000   38.253713   -60.957332
 0.640000   37.944306   -62.773064
 0.645000   37.625982   -64.523448
 0.650000   37.299072   -66.171863
 0.655000   36.964264   -67.893462
 0.660000   36.620137   -69.893956
 0.665000   36.265324   -72.179344
 0.670000   35.898344   -74.775854
 0.675000   35.517566   -77.699751
 0.680000   35.121346   -81.077538
 0.685000   34.706790   -84.643944
 0.690000   34.274907   -87.907173
 0.695000   33.827719   -90.790086
 0.700000   33.367006   -93.296494
 0.705000   32.894754   -95.390240
 0.710000   32.413104   -97.072789
 0.715000   31.924026   -98.218393
 0.720000   31.430920   -98.695473
 0.725000   30.937071   -98.542471
 0.730000   30.445495   -97.787679
 0.735000   29.959194   -96.442206
 0.740000   29.481073   -94.487027
 0.745000   29.014324   -91.954922
 0.750000   28.561524   -89.069702
 0.755000   28.123627   -86.070299
 0.760000   27.700821   -83.104161
 0.765000   27.292585   -80.280069
 0.770000   26.898020   -77.677507
 0.775000   26.515810   -75.248303
 0.780000   26.145537   -72.734698
 0.785000   25.788463   -70.027205
 0.790000   25.445265   -67.212012
 0.795000   25.116343   -64.356761
 0.800000   24.801697   -61.573376
 0.805000   24.500609   -59.031529
 0.810000   24.211382   -56.842010
 0.815000   23.932189   -55.098393
 0.820000   23.660398   -53.924852
 0.825000   23.392941   -53.412146
 0.830000   23.126277   -53.685364
 0.835000   22.856087   -54.876772
 0.840000   22.577509   -56.956358
 0.845000   22.286524   -60.061972
 0.850000   21.976889   -64.522905
 0.855000   21.641295   -70.543428
 0.860000   21.271455   -78.338376
 0.865000   20.857911   -88.339380
 0.870000   20.388061   -100.310397
 0.875000   19.854807   -113.845380
 0.880000   19.249607   -128.926404
 0.885000   18.565543   -145.134122
 0.890000   17.798266   -161.868295
 0.895000   16.946860   -178.813158
 0.900000   16.010135   -194.433966
 0.905000   15.002520   -207.131499
 0.910000   13.938820   -216.345630
 0.915000   12.839064   -221.129573
 0.920000   11.727524   -220.800815
 0.925000   10.631056   -215.074640
 0.930000   9.576777   -203.809793
 0.935000   8.592958   -187.585677
 0.940000   7.700921   -167.837354
 0.945000   6.914584   -146.178302
 0.950000   6.239138   -124.349533
 0.955000   5.671089   -103.635757
 0.960000   5.202780   -85.538504
 0.965000   4.815704   -71.157242
 0.970000   4.491208   -60.372696
 0.975000   4.211977   -52.828246
 0.980000   3.962925   -47.992403
 0.985000   3.732053   -45.017885
 0.990000   3.512746   -43.352484
 0.995000   3.298528   -42.697619
 1.000000   3.085770   -42.405534
201 psinorm omegp(kRad/s) domegp/dpsiN
 0.000000   -0.007659   136.995865
 0.005000   0.547726   85.158135
 0.010000   0.843922   57.462221
 0.015000   1.122348   55.456288
 0.020000   1.398485   55.011159
 0.025000   1.672460   54.033006
 0.030000   1.938815   51.817790
 0.035000   2.190638   49.109821
 0.040000   2.429914   46.326277
 0.045000   2.653901   43.305018
 0.050000   2.862964   40.544758
 0.055000   3.059348   38.306421
 0.060000   3.246028   36.524978
 0.065000   3.424598   35.058725
 0.070000   3.596615   33.819810
 0.075000   3.762796   32.525080
 0.080000   3.921866   31.057557
 0.085000   4.073372   29.445049
 0.090000   4.216316   27.657964
 0.095000   4.349951   25.895701
 0.100000   4.475273   24.171180
 0.105000   4.591663   22.556316
 0.110000   4.700837   21.150573
 0.115000   4.803169   19.876773
 0.120000   4.899604   18.790655
 0.125000   4.991075   17.875353
 0.130000   5.078358   17.041084
 0.135000   5.161486   16.205451
 0.140000   5.240412   15.340861
 0.145000   5.314895   14.423948
 0.150000   5.384652   13.382620
 0.155000   5.448721   12.318852
 0.160000   5.507840   11.218960
 0.165000   5.560911   10.171009
 0.170000   5.609550   9.094589
 0.175000   5.651856   7.973552
 0.180000   5.689286   6.850755
 0.185000   5.720364   5.566779
 0.190000   5.744954   4.291893
 0.195000   5.763283   2.914733
 0.200000   5.774101   1.590349
 0.205000   5.779186   0.265427
 0.210000   5.776755   -1.116025
 0.215000   5.768026   -2.319612
 0.220000   5.753559   -3.578232
 0.225000   5.732244   -4.783941
 0.230000   5.705720   -5.964842
 0.235000   5.672595   -7.278972
 0.240000   5.632930   -8.476026
 0.245000   5.587835   -9.691491
 0.250000   5.536015   -10.923488
 0.255000   5.478600   -12.023577
 0.260000   5.415779   -13.169922
 0.265000   5.346901   -14.226741
 0.270000   5.273512   -15.199810
 0.275000   5.194903   -16.296947
 0.280000   5.110543   -17.338589
 0.285000   5.021517   -18.439169
 0.290000   4.926151   -19.811687
 0.295000   4.823400   -21.243801
 0.300000   4.713713   -22.860515
 0.305000   4.594795   -24.766134
 0.310000   4.466052   -26.703045
 0.315000   4.327765   -28.804635
 0.320000   4.178005   -31.156335
 0.325000   4.016201   -33.389104
 0.330000   3.844114   -35.423878
 0.335000   3.661962   -37.284585
 0.340000   3.471268   -38.713742
 0.345000   3.274825   -39.752423
 0.350000   3.073744   -40.297062
 0.355000   2.871854   -40.227274
 0.360000   2.671471   -39.876890
 0.365000   2.473085   -39.364576
 0.370000   2.277826   -38.631672
 0.375000   2.086769   -37.822851
 0.380000   1.899597   -37.051165
 0.385000   1.716257   -36.563236
 0.390000   1.533965   -36.498371
 0.395000   1.351273   -36.666363
 0.400000   1.167301   -36.938300
 0.405000   0.981890   -37.207311
 0.410000   0.795228   -37.705485
 0.415000   0.604836   -39.083774
 0.420000   0.404390   -41.912278
 0.425000   0.185713   -46.432887
 0.430000   -0.059939   -52.668899
 0.435000   -0.340976   -60.732275
 0.440000   -0.667261   -71.149077
 0.445000   -1.052467   -82.197492
 0.450000   -1.489236   -92.304233
 0.455000   -1.975509   -101.632262
 0.460000   -2.505559   -109.419658
 0.465000   -3.069706   -115.029327
 0.470000   -3.655852   -117.415664
 0.475000   -4.243863   -115.548146
 0.480000   -4.811334   -109.851905
 0.485000   -5.342382   -101.381177
 0.490000   -5.825145   -90.806152
 0.495000   -6.250443   -78.360062
 0.500000   -6.608746   -65.049298
 0.505000   -6.900936   -52.944016
 0.510000   -7.138186   -42.675749
 0.515000   -7.327694   -33.978300
 0.520000   -7.477969   -27.124497
 0.525000   -7.598939   -21.980194
 0.530000   -7.697771   -18.614251
 0.535000   -7.785081   -16.785688
 0.540000   -7.865628   -15.551835
 0.545000   -7.940599   -14.412620
 0.550000   -8.009754   -13.239257
 0.555000   -8.072992   -12.140772
 0.560000   -8.131162   -10.974043
 0.565000   -8.182732   -9.609407
 0.570000   -8.227256   -8.204602
 0.575000   -8.264778   -6.788525
 0.580000   -8.295141   -5.294239
 0.585000   -8.317721   -3.738962
 0.590000   -8.332531   -2.266266
 0.595000   -8.340383   -0.843072
 0.600000   -8.340962   0.563680
 0.605000   -8.334747   1.848809
 0.610000   -8.322474   2.998874
 0.615000   -8.304758   4.050748
 0.620000   -8.281966   5.016295
 0.625000   -8.254595   5.845319
 0.630000   -8.223513   6.581064
 0.635000   -8.188784   7.280788
 0.640000   -8.150705   7.922562
 0.645000   -8.109559   8.501178
 0.650000   -8.065693   9.038685
 0.655000   -8.019172   9.549281
 0.660000   -7.970200   9.997912
 0.665000   -7.919193   10.389464
 0.670000   -7.866306   10.762007
 0.675000   -7.811573   11.195729
 0.680000   -7.754348   11.761470
 0.685000   -7.693958   12.479321
 0.690000   -7.629555   13.348524
 0.695000   -7.560473   14.320290
 0.700000   -7.486352   15.392679
 0.705000   -7.406546   16.458029
 0.710000   -7.321772   17.230254
 0.715000   -7.234243   17.573479
 0.720000   -7.146037   17.453762
 0.725000   -7.059706   16.794221
 0.730000   -6.978095   15.556960
 0.735000   -6.904136   13.749267
 0.740000   -6.840602   11.513852
 0.745000   -6.788998   9.076302
 0.750000   -6.749839   6.606637
 0.755000   -6.722931   4.268264
 0.760000   -6.707157   2.217303
 0.765000   -6.700758   0.472044
 0.770000   -6.702436   -1.163364
 0.775000   -6.712392   -2.928958
 0.780000   -6.731726   -5.056064
 0.785000   -6.762953   -7.820490
 0.790000   -6.809931   -11.770148
 0.795000   -6.880654   -16.864871
 0.800000   -6.978579   -22.650997
 0.805000   -7.107164   -28.981190
 0.810000   -7.268391   -35.482672
 0.815000   -7.461991   -41.651383
 0.820000   -7.684905   -47.216228
 0.825000   -7.934153   -51.406876
 0.830000   -8.198974   -53.312891
 0.835000   -8.467282   -52.508875
 0.840000   -8.724063   -48.607862
 0.845000   -8.953361   -41.656797
 0.850000   -9.140631   -31.808004
 0.855000   -9.271441   -19.686315
 0.860000   -9.337494   -6.444992
 0.865000   -9.335890   6.738736
 0.870000   -9.270107   19.184598
 0.875000   -9.144044   30.333928
 0.880000   -8.966767   39.424892
 0.885000   -8.749796   46.166778
 0.890000   -8.505099   50.634026
 0.895000   -8.243455   52.926042
 0.900000   -7.975839   53.206515
 0.905000   -7.711390   51.925692
 0.910000   -7.456582   50.421540
 0.915000   -7.207175   50.000617
 0.920000   -6.956576   50.942175
 0.925000   -6.697753   53.753647
 0.930000   -6.419039   58.931602
 0.935000   -6.108437   67.050110
 0.940000   -5.748538   76.604149
 0.945000   -5.342395   80.658680
 0.950000   -4.941952   74.846142
 0.955000   -4.593934   60.927932
 0.960000   -4.332672   45.579008
 0.965000   -4.138144   40.974687
 0.970000   -3.922925   64.565072
 0.975000   -3.492493   130.284706
 0.980000   -2.620078   231.904397
 0.985000   -1.173449   339.989893
 0.990000   0.779821   410.726421
 0.995000   2.933815   406.156573
 1.000000   4.841386   356.872003
201 psinorm omgvb(kRad/s) domgvb/dpsiN
 0.000000   61.301420   137.015808
 0.005000   61.856441   84.992576
 0.010000   62.151345   57.078419
 0.015000   62.427225   54.782909
 0.020000   62.699174   53.966528
 0.025000   62.966890   52.527162
 0.030000   63.224446   49.754307
 0.035000   63.464433   46.388320
 0.040000   63.688329   42.848967
 0.045000   63.892923   38.978368
 0.050000   64.078113   35.278634
 0.055000   64.245709   32.018164
 0.060000   64.398295   29.142279
 0.065000   64.537132   26.523005
 0.070000   64.663525   24.110551
 0.075000   64.778237   21.634940
 0.080000   64.879874   18.966146
 0.085000   64.967899   16.141800
 0.090000   65.041292   13.139137
 0.095000   65.099290   10.159440
 0.100000   65.142886   7.243685
 0.105000   65.171727   4.460744
 0.110000   65.187494   1.883862
 0.115000   65.190566   -0.552414
 0.120000   65.181970   -2.792247
 0.125000   65.162643   -4.872209
 0.130000   65.133248   -6.900119
 0.135000   65.093642   -8.983367
 0.140000   65.043414   -11.150001
 0.145000   64.982142   -13.395179
 0.150000   64.909462   -15.782774
 0.155000   64.824314   -18.214855
 0.160000   64.727314   -20.706739
 0.165000   64.617247   -23.162417
 0.170000   64.495690   -25.644547
 0.175000   64.360801   -28.151617
 0.180000   64.214173   -30.630984
 0.185000   64.054492   -33.237230
 0.190000   63.881801   -35.789112
 0.195000   63.696600   -38.387466
 0.200000   63.497926   -40.882803
 0.205000   63.287772   -43.307546
 0.210000   63.064851   -45.676810
 0.215000   62.831004   -47.733217
 0.220000   62.587519   -49.673425
 0.225000   62.334270   -51.340241
 0.230000   62.074116   -52.841515
 0.235000   61.805855   -54.398317
 0.240000   61.530133   -55.728938
 0.245000   61.248566   -56.985893
 0.250000   60.960274   -58.168639
 0.255000   60.666879   -59.086452
 0.260000   60.369410   -60.011096
 0.265000   60.066768   -60.872258
 0.270000   59.760687   -61.623576
 0.275000   59.450532   -62.495253
 0.280000   59.135735   -63.327656
 0.285000   58.817256   -64.247474
 0.290000   58.493260   -65.549595
 0.295000   58.161760   -67.047747
 0.300000   57.822782   -68.800669
 0.305000   57.473753   -70.879381
 0.310000   57.113989   -72.983751
 0.315000   56.743916   -75.214520
 0.320000   56.361843   -77.633181
 0.325000   55.967584   -79.868443
 0.330000   55.563159   -81.853352
 0.335000   55.149050   -83.611168
 0.340000   54.727047   -84.884083
 0.345000   54.300210   -85.704301
 0.350000   53.870004   -85.972289
 0.355000   53.440487   -85.580961
 0.360000   53.014195   -84.865227
 0.365000   52.591834   -83.946284
 0.370000   52.174732   -82.769346
 0.375000   51.764141   -81.469989
 0.380000   51.360032   -80.170524
 0.385000   50.962436   -79.129465
 0.390000   50.568737   -78.472858
 0.395000   50.177707   -78.006744
 0.400000   49.788670   -77.605876
 0.405000   49.401648   -77.151998
 0.410000   49.017150   -76.941801
 0.415000   48.632230   -77.776665
 0.420000   48.239383   -80.326506
 0.425000   47.828965   -84.873933
 0.430000   47.390644   -91.450261
 0.435000   46.914463   -100.258688
 0.440000   46.388057   -111.790932
 0.445000   45.796553   -124.048641
 0.450000   45.147571   -135.358384
 0.455000   44.442970   -145.900238
 0.460000   43.688568   -154.854683
 0.465000   42.894423   -161.633073
 0.470000   42.072237   -165.117246
 0.475000   41.243250   -163.971613
 0.480000   40.432521   -158.586156
 0.485000   39.657389   -150.130647
 0.490000   38.931215   -139.271045
 0.495000   38.264678   -126.257146
 0.500000   37.668643   -112.080699
 0.505000   37.143871   -98.851278
 0.510000   36.680131   -87.363706
 0.515000   36.270234   -77.469582
 0.520000   35.905435   -69.483268
 0.525000   35.575402   -63.293730
 0.530000   35.272498   -58.977392
 0.535000   34.985628   -56.332623
 0.540000   34.709171   -54.452017
 0.545000   34.441107   -52.839658
 0.550000   34.180775   -51.379339
 0.555000   33.927314   -50.187074
 0.560000   33.678904   -49.117369
 0.565000   33.436140   -48.076694
 0.570000   33.198137   -47.244838
 0.575000   32.963692   -46.635847
 0.580000   32.731779   -46.188136
 0.585000   32.501811   -45.923704
 0.590000   32.272541   -45.985637
 0.595000   32.041954   -46.290420
 0.600000   31.809637   -46.736570
 0.605000   31.574589   -47.393171
 0.610000   31.335706   -48.243248
 0.615000   31.092156   -49.220740
 0.620000   30.843498   -50.222514
 0.625000   30.589931   -51.313138
 0.630000   30.330367   -52.500220
 0.635000   30.064929   -53.676544
 0.640000   29.793601   -54.850501
 0.645000   29.516424   -56.022270
 0.650000   29.233379   -57.133178
 0.655000   28.945092   -58.344181
 0.660000   28.649937   -59.896044
 0.665000   28.346132   -61.789880
 0.670000   28.032038   -64.013848
 0.675000   27.705993   -66.504023
 0.680000   27.366998   -69.316067
 0.685000   27.012832   -72.164623
 0.690000   26.645352   -74.558649
 0.695000   26.267246   -76.469797
 0.700000   25.880654   -77.903815
 0.705000   25.488208   -78.932211
 0.710000   25.091332   -79.842535
 0.715000   24.689782   -80.644914
 0.720000   24.284882   -81.241711
 0.725000   23.877365   -81.748250
 0.730000   23.467400   -82.230719
 0.735000   23.055058   -82.692939
 0.740000   22.640470   -82.973175
 0.745000   22.225326   -82.878620
 0.750000   21.811684   -82.463065
 0.755000   21.400696   -81.802034
 0.760000   20.993664   -80.886858
 0.765000   20.591827   -79.808025
 0.770000   20.195584   -78.840871
 0.775000   19.803418   -78.177261
 0.780000   19.413811   -77.790762
 0.785000   19.025511   -77.847694
 0.790000   18.635334   -78.982160
 0.795000   18.235689   -81.221632
 0.800000   17.823118   -84.224374
 0.805000   17.393445   -88.012719
 0.810000   16.942991   -92.324683
 0.815000   16.470199   -96.749777
 0.820000   15.975493   -101.141080
 0.825000   15.458788   -104.819022
 0.830000   14.927303   -106.998254
 0.835000   14.388805   -107.385647
 0.840000   13.853446   -105.564220
 0.845000   13.333163   -101.718769
 0.850000   12.836258   -96.330909
 0.855000   12.369854   -90.229743
 0.860000   11.933961   -84.783368
 0.865000   11.522020   -81.600644
 0.870000   11.117955   -81.125800
 0.875000   10.710762   -83.511452
 0.880000   10.282840   -89.501512
 0.885000   9.815747   -98.967343
 0.890000   9.293167   -111.234269
 0.895000   8.703404   -125.887116
 0.900000   8.034295   -141.227451
 0.905000   7.291130   -155.205807
 0.910000   6.482237   -165.924090
 0.915000   5.631889   -171.128956
 0.920000   4.770948   -169.858640
 0.925000   3.933303   -161.320993
 0.930000   3.157738   -144.878191
 0.935000   2.484521   -120.535567
 0.940000   1.952382   -91.233204
 0.945000   1.572189   -65.519622
 0.950000   1.297186   -49.503392
 0.955000   1.077155   -42.707826
 0.960000   0.870108   -39.959497
 0.965000   0.677560   -30.182555
 0.970000   0.568282   4.192376
 0.975000   0.719484   77.456460
 0.980000   1.342847   183.911995
 0.985000   2.558604   294.972008
 0.990000   4.292567   367.373936
 0.995000   6.232343   363.458954
 1.000000   7.927156   314.466469
201 psinorm omgpp(kRad/s) domgpp/dpsiN
 0.000000   -0.054771   -27.343204
 0.005000   -0.222123   -39.597638
 0.010000   -0.450747   -46.338728
 0.015000   -0.685510   -47.493134
 0.020000   -0.925678   -48.478637
 0.025000   -1.170296   -49.265899
 0.030000   -1.418337   -49.867047
 0.035000   -1.668967   -50.274284
 0.040000   -1.921080   -50.464217
 0.045000   -2.173609   -50.440094
 0.050000   -2.425481   -50.173046
 0.055000   -2.675340   -49.651473
 0.060000   -2.921996   -48.987825
 0.065000   -3.165218   -48.115986
 0.070000   -3.403156   -46.958690
 0.075000   -3.634805   -45.633358
 0.080000   -3.859489   -44.164186
 0.085000   -4.076447   -42.583689
 0.090000   -4.285326   -41.193212
 0.095000   -4.488379   -39.822774
 0.100000   -4.683554   -38.204818
 0.105000   -4.870427   -36.499034
 0.110000   -5.048544   -34.694237
 0.115000   -5.217369   -32.800766
 0.120000   -5.376552   -31.151800
 0.125000   -5.528887   -29.717325
 0.130000   -5.673725   -28.174195
 0.135000   -5.810629   -26.506700
 0.140000   -5.938792   -24.642966
 0.145000   -6.057059   -22.630999
 0.150000   -6.165102   -20.396310
 0.155000   -6.261022   -18.010646
 0.160000   -6.345209   -15.603876
 0.165000   -6.417061   -13.079181
 0.170000   -6.476001   -10.445833
 0.175000   -6.521519   -7.513811
 0.180000   -6.551139   -4.632509
 0.185000   -6.567844   -2.020079
 0.190000   -6.571339   0.590401
 0.195000   -6.561940   3.090739
 0.200000   -6.540432   5.395757
 0.205000   -6.507983   7.583283
 0.210000   -6.464599   8.926955
 0.215000   -6.418713   9.573751
 0.220000   -6.368862   10.340941
 0.225000   -6.315304   11.014956
 0.230000   -6.258712   11.569482
 0.235000   -6.199609   11.681835
 0.240000   -6.141894   11.783582
 0.245000   -6.081773   12.470082
 0.250000   -6.017193   13.409795
 0.255000   -5.947675   14.528376
 0.260000   -5.871909   15.893721
 0.265000   -5.788738   17.222068
 0.270000   -5.699688   18.923984
 0.275000   -5.599498   21.062571
 0.280000   -5.489063   22.910686
 0.285000   -5.370391   24.514875
 0.290000   -5.243914   26.026054
 0.295000   -5.110131   27.621348
 0.300000   -4.967701   29.465051
 0.305000   -4.815480   31.002931
 0.310000   -4.657671   31.832616
 0.315000   -4.497154   32.020319
 0.320000   -4.337468   31.554703
 0.325000   -4.181607   30.692421
 0.330000   -4.030544   29.383181
 0.335000   -3.887775   27.695595
 0.340000   -3.753588   26.204691
 0.345000   -3.625728   24.970630
 0.350000   -3.503882   23.809559
 0.355000   -3.387633   22.578516
 0.360000   -3.278096   21.178541
 0.365000   -3.175847   20.400064
 0.370000   -3.074096   20.094213
 0.375000   -2.974905   19.692575
 0.380000   -2.877170   19.530220
 0.385000   -2.779603   19.604922
 0.390000   -2.681121   20.087795
 0.395000   -2.578725   21.057779
 0.400000   -2.470543   21.757342
 0.405000   -2.361151   21.865169
 0.410000   -2.251891   21.693608
 0.415000   -2.144215   21.278538
 0.420000   -2.039106   20.958910
 0.425000   -1.934626   19.919980
 0.430000   -1.839906   18.328484
 0.435000   -1.751341   17.087533
 0.440000   -1.669031   15.826374
 0.445000   -1.593078   14.552953
 0.450000   -1.523501   13.671779
 0.455000   -1.456360   12.218220
 0.460000   -1.401319   10.289558
 0.465000   -1.353464   8.847099
 0.470000   -1.312848   7.386061
 0.475000   -1.279604   5.894150
 0.480000   -1.253907   4.338446
 0.485000   -1.236219   2.639164
 0.490000   -1.227515   1.197221
 0.495000   -1.224247   0.237047
 0.500000   -1.225144   -0.537493
 0.505000   -1.229622   -1.241738
 0.510000   -1.237562   -1.978174
 0.515000   -1.249404   -2.735424
 0.520000   -1.264916   -3.432181
 0.525000   -1.283725   -4.059852
 0.530000   -1.305515   -4.621487
 0.535000   -1.329940   -5.117011
 0.540000   -1.356685   -5.554039
 0.545000   -1.385481   -5.925238
 0.550000   -1.415937   -6.240781
 0.555000   -1.447889   -6.527191
 0.560000   -1.481209   -6.789436
 0.565000   -1.515783   -7.030224
 0.570000   -1.551511   -7.259915
 0.575000   -1.588382   -7.459240
 0.580000   -1.626104   -7.591391
 0.585000   -1.664296   -7.671027
 0.590000   -1.702814   -7.728214
 0.595000   -1.741578   -7.776934
 0.600000   -1.780583   -7.855973
 0.605000   -1.820138   -7.980932
 0.610000   -1.860393   -8.093683
 0.615000   -1.901075   -8.209087
 0.620000   -1.942483   -8.362186
 0.625000   -1.984697   -8.520889
 0.630000   -2.027692   -8.766515
 0.635000   -2.072362   -9.061163
 0.640000   -2.118304   -9.038259
 0.645000   -2.162744   -8.852554
 0.650000   -2.206830   -8.779766
 0.655000   -2.250542   -8.701063
 0.660000   -2.293840   -8.712516
 0.665000   -2.337667   -8.977650
 0.670000   -2.383617   -9.275355
 0.675000   -2.430421   -9.842785
 0.680000   -2.482045   -10.828082
 0.685000   -2.538701   -11.800129
 0.690000   -2.600046   -12.854637
 0.695000   -2.667248   -14.455248
 0.700000   -2.744598   -14.675799
 0.705000   -2.814006   -13.752127
 0.710000   -2.882120   -13.335368
 0.715000   -2.947359   -12.576725
 0.720000   -3.007887   -11.489526
 0.725000   -3.062255   -10.245619
 0.730000   -3.110343   -7.461438
 0.735000   -3.136869   -3.825025
 0.740000   -3.148593   -0.766221
 0.745000   -3.144531   2.435221
 0.750000   -3.124241   5.656299
 0.755000   -3.087968   9.781915
 0.760000   -3.026422   13.007450
 0.765000   -2.957894   14.529179
 0.770000   -2.881130   15.834915
 0.775000   -2.799545   16.464386
 0.780000   -2.716486   16.453967
 0.785000   -2.635005   16.577458
 0.790000   -2.550712   15.188865
 0.795000   -2.483116   12.512897
 0.800000   -2.425583   10.491743
 0.805000   -2.378199   8.436283
 0.810000   -2.341220   6.417704
 0.815000   -2.314022   4.501127
 0.820000   -2.296209   3.402163
 0.825000   -2.280000   3.164354
 0.830000   -2.264565   2.944803
 0.835000   -2.250552   2.588746
 0.840000   -2.238678   2.023763
 0.845000   -2.230315   0.707091
 0.850000   -2.231607   -1.374226
 0.855000   -2.244057   -3.602574
 0.860000   -2.267632   -6.092234
 0.865000   -2.304979   -8.946142
 0.870000   -2.357094   -11.952763
 0.875000   -2.424507   -15.958581
 0.880000   -2.516680   -19.821930
 0.885000   -2.622726   -22.009816
 0.890000   -2.736778   -24.666725
 0.895000   -2.869393   -28.736455
 0.900000   -3.024142   -33.533192
 0.905000   -3.204725   -40.909733
 0.910000   -3.433240   -50.989677
 0.915000   -3.714622   -59.986531
 0.920000   -4.033105   -70.142286
 0.925000   -4.416045   -84.632016
 0.930000   -4.879425   -103.110891
 0.935000   -5.447154   -131.591732
 0.940000   -6.195342   -172.937817
 0.945000   -7.176532   -212.810306
 0.950000   -8.323446   -255.014091
 0.955000   -9.726673   -306.328995
 0.960000   -11.386735   -351.347970
 0.965000   -13.240153   -380.325155
 0.970000   -15.189987   -378.086273
 0.975000   -17.021015   -302.038535
 0.980000   -18.210372   -167.144385
 0.985000   -18.692459   -18.435558
 0.990000   -18.394728   129.832108
 0.995000   -17.394138   247.307169
 1.000000   -15.921656   341.685566
201 psinorm omgeb(kRad/s) domgeb/dpsiN
 0.000000   61.246649   109.672603
 0.005000   61.634318   45.394938
 0.010000   61.700598   10.739691
 0.015000   61.741715   7.289774
 0.020000   61.773496   5.487891
 0.025000   61.796594   3.261263
 0.030000   61.806109   -0.112740
 0.035000   61.795466   -3.885963
 0.040000   61.767249   -7.615250
 0.045000   61.719314   -11.461726
 0.050000   61.652632   -14.894412
 0.055000   61.570370   -17.633309
 0.060000   61.476299   -19.845546
 0.065000   61.371914   -21.592981
 0.070000   61.260369   -22.848139
 0.075000   61.143433   -23.998418
 0.080000   61.020385   -25.198039
 0.085000   60.891452   -26.441889
 0.090000   60.755966   -28.054075
 0.095000   60.610912   -29.663335
 0.100000   60.459332   -30.961133
 0.105000   60.301300   -32.038290
 0.110000   60.138950   -32.810375
 0.115000   59.973196   -33.353180
 0.120000   59.805418   -33.944047
 0.125000   59.633756   -34.589534
 0.130000   59.459522   -35.074314
 0.135000   59.283013   -35.490066
 0.140000   59.104622   -35.792967
 0.145000   58.925083   -36.026178
 0.150000   58.744360   -36.179084
 0.155000   58.563292   -36.225501
 0.160000   58.382105   -36.310614
 0.165000   58.200186   -36.241598
 0.170000   58.019689   -36.090380
 0.175000   57.839282   -35.665428
 0.180000   57.663035   -35.263493
 0.185000   57.486647   -35.257308
 0.190000   57.310462   -35.198711
 0.195000   57.134660   -35.296727
 0.200000   56.957494   -35.487046
 0.205000   56.779790   -35.724263
 0.210000   56.600252   -36.749855
 0.215000   56.412291   -38.159467
 0.220000   56.218657   -39.332484
 0.225000   56.018967   -40.325286
 0.230000   55.815404   -41.272032
 0.235000   55.606246   -42.716482
 0.240000   55.388239   -43.945356
 0.245000   55.166793   -44.515811
 0.250000   54.943081   -44.758844
 0.255000   54.719204   -44.558076
 0.260000   54.497501   -44.117375
 0.265000   54.278030   -43.650190
 0.270000   54.060999   -42.699593
 0.275000   53.851035   -41.432681
 0.280000   53.646672   -40.416969
 0.285000   53.446865   -39.732599
 0.290000   53.249346   -39.523541
 0.295000   53.051629   -39.426399
 0.300000   52.855082   -39.335618
 0.305000   52.658273   -39.876450
 0.310000   52.456317   -41.151135
 0.315000   52.246762   -43.194201
 0.320000   52.024375   -46.078478
 0.325000   51.785977   -49.176021
 0.330000   51.532615   -52.470171
 0.335000   51.261275   -55.915573
 0.340000   50.973459   -58.679392
 0.345000   50.674481   -60.733671
 0.350000   50.366123   -62.162729
 0.355000   50.052854   -63.002445
 0.360000   49.736098   -63.686687
 0.365000   49.415987   -63.546220
 0.370000   49.100636   -62.675133
 0.375000   48.789236   -61.777414
 0.380000   48.482862   -60.640304
 0.385000   48.182833   -59.524543
 0.390000   47.887616   -58.385063
 0.395000   47.598982   -56.948965
 0.400000   47.318127   -55.848534
 0.405000   47.040497   -55.286828
 0.410000   46.765259   -55.248193
 0.415000   46.488015   -56.498127
 0.420000   46.200277   -59.367596
 0.425000   45.894339   -64.953954
 0.430000   45.550738   -73.121776
 0.435000   45.163121   -83.171155
 0.440000   44.719026   -95.964558
 0.445000   44.203476   -109.495688
 0.450000   43.624069   -121.686605
 0.455000   42.986610   -133.682017
 0.460000   42.287249   -144.565125
 0.465000   41.540958   -152.785974
 0.470000   40.759389   -157.731186
 0.475000   39.963647   -158.077464
 0.480000   39.178615   -154.247710
 0.485000   38.421170   -147.491483
 0.490000   37.703700   -138.073824
 0.495000   37.040431   -126.020099
 0.500000   36.443499   -112.618192
 0.505000   35.914249   -100.093016
 0.510000   35.442569   -89.341880
 0.515000   35.020831   -80.205007
 0.520000   34.640519   -72.915449
 0.525000   34.291676   -67.353582
 0.530000   33.966983   -63.598879
 0.535000   33.655687   -61.449634
 0.540000   33.352487   -60.006056
 0.545000   33.055627   -58.764896
 0.550000   32.764838   -57.620119
 0.555000   32.479426   -56.714266
 0.560000   32.197695   -55.906805
 0.565000   31.920357   -55.106918
 0.570000   31.646626   -54.504752
 0.575000   31.375310   -54.095087
 0.580000   31.105675   -53.779527
 0.585000   30.837515   -53.594730
 0.590000   30.569728   -53.713850
 0.595000   30.300376   -54.067354
 0.600000   30.029054   -54.592543
 0.605000   29.754451   -55.374103
 0.610000   29.475313   -56.336931
 0.615000   29.191081   -57.429827
 0.620000   28.901015   -58.584700
 0.625000   28.605234   -59.834027
 0.630000   28.302674   -61.266735
 0.635000   27.992567   -62.737707
 0.640000   27.675297   -63.888761
 0.645000   27.353679   -64.874824
 0.650000   27.026549   -65.912943
 0.655000   26.694550   -67.045243
 0.660000   26.356097   -68.608559
 0.665000   26.008464   -70.767530
 0.670000   25.648421   -73.289203
 0.675000   25.275572   -76.346807
 0.680000   24.884953   -80.144149
 0.685000   24.474131   -83.964752
 0.690000   24.045306   -87.413286
 0.695000   23.599998   -90.925045
 0.700000   23.136055   -92.579613
 0.705000   22.674202   -92.684339
 0.710000   22.209212   -93.177904
 0.715000   21.742423   -93.221639
 0.720000   21.276996   -92.731237
 0.725000   20.815111   -91.993869
 0.730000   20.357057   -89.692157
 0.735000   19.918189   -86.517964
 0.740000   19.491877   -83.739396
 0.745000   19.080795   -80.443399
 0.750000   18.687443   -76.806766
 0.755000   18.312727   -72.020119
 0.760000   17.967242   -67.879408
 0.765000   17.633933   -65.278847
 0.770000   17.314454   -63.005956
 0.775000   17.003874   -61.712876
 0.780000   16.697325   -61.336795
 0.785000   16.390506   -61.270236
 0.790000   16.084622   -63.793294
 0.795000   15.752573   -68.708734
 0.800000   15.397535   -73.732631
 0.805000   15.015246   -79.576437
 0.810000   14.601771   -85.906979
 0.815000   14.156177   -92.248650
 0.820000   13.679284   -97.738917
 0.825000   13.178788   -101.654668
 0.830000   12.662738   -104.053451
 0.835000   12.138253   -104.796901
 0.840000   11.614769   -103.540457
 0.845000   11.102848   -101.011678
 0.850000   10.604652   -97.705134
 0.855000   10.125797   -93.832317
 0.860000   9.666329   -90.875601
 0.865000   9.217041   -90.546786
 0.870000   8.760861   -93.078563
 0.875000   8.286255   -99.470032
 0.880000   7.766160   -109.323441
 0.885000   7.193021   -120.977160
 0.890000   6.556389   -135.900994
 0.895000   5.834011   -154.623571
 0.900000   5.010153   -174.760644
 0.905000   4.086405   -196.115540
 0.910000   3.048998   -216.913767
 0.915000   1.917267   -231.115486
 0.920000   0.737843   -240.000926
 0.925000   -0.482742   -245.953008
 0.930000   -1.721687   -247.989082
 0.935000   -2.962633   -252.127299
 0.940000   -4.242960   -264.171022
 0.945000   -5.604343   -278.329927
 0.950000   -7.026259   -304.517482
 0.955000   -8.649518   -349.036820
 0.960000   -10.516628   -391.307466
 0.965000   -12.562593   -410.507710
 0.970000   -14.621705   -373.893897
 0.975000   -16.301532   -224.582075
 0.980000   -16.867526   16.767610
 0.985000   -16.133856   276.536451
 0.990000   -14.102161   497.206045
 0.995000   -11.161795   610.766123
 1.000000   -7.994500   656.152036
201 psinorm er(kV/m) der/dpsiN
 0.000000   0.576757   1204.669085
 0.005000   5.357143   707.485504
 0.010000   7.651612   406.153954
 0.015000   9.418683   328.164508
 0.020000   10.933257   284.139954
 0.025000   12.260083   253.234345
 0.030000   13.465601   231.311895
 0.035000   14.573201   213.571035
 0.040000   15.601311   199.040422
 0.045000   16.563606   186.962577
 0.050000   17.470937   175.376950
 0.055000   18.317375   164.547043
 0.060000   19.116407   155.639369
 0.065000   19.873769   149.724849
 0.070000   20.613656   143.189443
 0.075000   21.305663   134.143235
 0.080000   21.955088   130.338033
 0.085000   22.609044   124.811138
 0.090000   23.203199   118.305359
 0.095000   23.792097   115.199457
 0.100000   24.355194   107.865520
 0.105000   24.870752   105.762482
 0.110000   25.412819   99.577352
 0.115000   25.866526   96.967437
 0.120000   26.382493   92.832781
 0.125000   26.794854   89.609981
 0.130000   27.278593   85.827995
 0.135000   27.653134   82.924047
 0.140000   28.107833   79.618410
 0.145000   28.449318   76.100669
 0.150000   28.868840   74.925315
 0.155000   29.198571   70.313032
 0.160000   29.571970   70.316100
 0.165000   29.901732   65.055839
 0.170000   30.222529   65.683778
 0.175000   30.558570   60.556841
 0.180000   30.828097   60.912980
 0.185000   31.167700   57.378485
 0.190000   31.401882   53.756873
 0.195000   31.705268   56.771352
 0.200000   31.969596   49.659535
 0.205000   32.201864   51.582285
 0.210000   32.485418   45.818707
 0.215000   32.660051   42.015849
 0.220000   32.905577   45.592820
 0.225000   33.115979   37.446105
 0.230000   33.280038   37.863062
 0.235000   33.494610   35.341700
 0.240000   33.633455   29.826709
 0.245000   33.792877   33.745099
 0.250000   33.970906   26.499769
 0.255000   34.057874   24.544628
 0.260000   34.216352   29.652280
 0.265000   34.354397   22.436403
 0.270000   34.440716   22.832372
 0.275000   34.582721   25.529005
 0.280000   34.696006   20.206871
 0.285000   34.784790   21.612931
 0.290000   34.912136   21.741215
 0.295000   35.002202   16.979408
 0.300000   35.081930   18.590998
 0.305000   35.188112   17.165323
 0.310000   35.253583   12.278696
 0.315000   35.310899   12.534678
 0.320000   35.378930   9.201345
 0.325000   35.402912   3.468402
 0.330000   35.413614   2.472383
 0.335000   35.427636   -1.012370
 0.340000   35.403490   -6.399368
 0.345000   35.363642   -7.156064
 0.350000   35.331929   -8.628845
 0.355000   35.277354   -12.652393
 0.360000   35.205405   -13.102706
 0.365000   35.146327   -12.766978
 0.370000   35.077736   -15.460506
 0.375000   34.991722   -15.301746
 0.380000   34.924718   -13.609834
 0.385000   34.855623   -15.979988
 0.390000   34.764918   -16.115614
 0.395000   34.694467   -13.720528
 0.400000   34.627713   -15.738721
 0.405000   34.537080   -16.704150
 0.410000   34.460672   -15.532695
 0.415000   34.381753   -18.105070
 0.420000   34.279621   -21.936417
 0.425000   34.162389   -25.950851
 0.430000   34.020112   -32.498105
 0.435000   33.837408   -41.942296
 0.440000   33.600689   -52.238874
 0.445000   33.315019   -62.307685
 0.450000   32.977613   -73.448917
 0.455000   32.580530   -83.730269
 0.460000   32.140310   -91.915845
 0.465000   31.661371   -99.603991
 0.470000   31.144270   -104.894192
 0.475000   30.612430   -105.618723
 0.480000   30.088083   -103.310772
 0.485000   29.579322   -99.675623
 0.490000   29.091326   -93.239190
 0.495000   28.646930   -83.961200
 0.500000   28.251714   -74.887994
 0.505000   27.898050   -66.073627
 0.510000   27.590978   -57.619089
 0.515000   27.321859   -51.056420
 0.520000   27.080414   -46.387846
 0.525000   26.857981   -42.339760
 0.530000   26.657016   -39.252066
 0.535000   26.465460   -38.594963
 0.540000   26.271067   -37.980737
 0.545000   26.085653   -36.671184
 0.550000   25.904355   -36.307048
 0.555000   25.722582   -36.368493
 0.560000   25.540670   -35.788758
 0.565000   25.364695   -35.003852
 0.570000   25.190631   -35.467158
 0.575000   25.010023   -35.501952
 0.580000   24.835612   -34.816267
 0.585000   24.661860   -35.165163
 0.590000   24.483960   -35.939126
 0.595000   24.302469   -36.163825
 0.600000   24.122322   -36.343442
 0.605000   23.939035   -37.906855
 0.610000   23.743254   -38.973445
 0.615000   23.549300   -39.303120
 0.620000   23.350222   -40.664882
 0.625000   23.142651   -42.362127
 0.630000   22.926601   -43.429374
 0.635000   22.708358   -44.284322
 0.640000   22.483758   -46.070789
 0.645000   22.247650   -47.210765
 0.650000   22.011650   -47.526850
 0.655000   21.772381   -48.660752
 0.660000   21.525043   -50.771995
 0.665000   21.264661   -52.503406
 0.670000   21.000009   -54.042365
 0.675000   20.724238   -57.287479
 0.680000   20.427134   -60.933559
 0.685000   20.114902   -63.656412
 0.690000   19.790570   -66.307911
 0.695000   19.451823   -70.403059
 0.700000   19.086539   -71.950880
 0.705000   18.732314   -71.184699
 0.710000   18.374692   -72.169920
 0.715000   18.010615   -73.140883
 0.720000   17.643283   -72.528126
 0.725000   17.285334   -71.352483
 0.730000   16.929758   -70.456384
 0.735000   16.580770   -68.385888
 0.740000   16.245900   -65.421617
 0.745000   15.926554   -62.492734
 0.750000   15.620972   -60.814056
 0.755000   15.318413   -56.980666
 0.760000   15.051166   -52.513175
 0.765000   14.793281   -50.847077
 0.770000   14.542695   -49.865460
 0.775000   14.294627   -48.609375
 0.780000   14.056601   -47.704319
 0.785000   13.817584   -48.383613
 0.790000   13.572765   -51.104306
 0.795000   13.306540   -54.888432
 0.800000   13.023881   -58.913196
 0.805000   12.717409   -64.781095
 0.810000   12.376070   -70.519857
 0.815000   12.012210   -75.409055
 0.820000   11.621979   -80.232573
 0.825000   11.209884   -84.475434
 0.830000   10.777225   -86.739482
 0.835000   10.342489   -86.948342
 0.840000   9.907741   -86.280243
 0.845000   9.479687   -84.837944
 0.850000   9.059362   -82.088971
 0.855000   8.658797   -78.516289
 0.860000   8.274199   -76.452203
 0.865000   7.894275   -76.694529
 0.870000   7.507254   -78.807447
 0.875000   7.106201   -84.155344
 0.880000   6.665700   -93.124818
 0.885000   6.174953   -103.505517
 0.890000   5.630645   -116.174826
 0.895000   5.013204   -132.265911
 0.900000   4.307986   -150.051010
 0.905000   3.512694   -168.670614
 0.910000   2.621280   -186.391806
 0.915000   1.648776   -198.575434
 0.920000   0.635526   -206.199917
 0.925000   -0.413223   -211.439888
 0.930000   -1.478873   -213.309223
 0.935000   -2.546315   -216.642528
 0.940000   -3.645299   -226.019558
 0.945000   -4.806511   -237.703189
 0.950000   -6.022331   -260.366338
 0.955000   -7.410174   -312.340313
 0.960000   -9.145734   -360.821489
 0.965000   -11.018389   -368.256939
 0.970000   -12.828303   -328.353317
 0.975000   -14.301922   -221.473502
 0.980000   -15.043038   -17.262224
 0.985000   -14.474545   237.346815
 0.990000   -12.669570   443.461818
 0.995000   -10.039926   548.226565
 1.000000   -7.187304   592.822253
201 psinorm ommvb() dommvb/dpsiN
 0.000000   35.372511   17528.193232
 0.005000   112.924408   13492.565438
 0.010000   170.298166   10479.492148
 0.015000   217.719329   8669.759109
 0.020000   256.995757   7477.263615
 0.025000   292.491966   6787.221725
 0.030000   324.867974   6178.421339
 0.035000   354.276179   5289.029955
 0.040000   377.758274   4370.107143
 0.045000   397.977250   3716.205645
 0.050000   414.920330   3229.912858
 0.055000   430.276379   2849.741230
 0.060000   443.417742   2514.293784
 0.065000   455.419317   2206.068000
 0.070000   465.478422   1892.848837
 0.075000   474.347805   1676.674967
 0.080000   482.245172   1397.339681
 0.085000   488.321202   1047.464747
 0.090000   492.719819   761.437747
 0.095000   495.935579   583.632915
 0.100000   498.556149   423.484816
 0.105000   500.170428   225.657490
 0.110000   500.812723   41.904226
 0.115000   500.589470   -207.279814
 0.120000   498.739925   -405.228280
 0.125000   496.537187   -484.452176
 0.130000   493.895404   -600.441550
 0.135000   490.532772   -751.457531
 0.140000   486.380828   -912.817447
 0.145000   481.404597   -1011.046614
 0.150000   476.270362   -1073.920345
 0.155000   470.665394   -1165.112257
 0.160000   464.619240   -1247.310474
 0.165000   458.192289   -1317.224492
 0.170000   451.446995   -1375.848797
 0.175000   444.433801   -1416.244395
 0.180000   437.284551   -1429.795134
 0.185000   430.135850   -1602.975104
 0.190000   421.254800   -1679.002154
 0.195000   413.345828   -1570.583009
 0.200000   405.548970   -1558.022047
 0.205000   397.765608   -1552.013191
 0.210000   390.028838   -1541.724039
 0.215000   382.348367   -1528.629803
 0.220000   374.742540   -1510.525409
 0.225000   367.243113   -1507.038865
 0.230000   359.672151   -1686.994929
 0.235000   350.373164   -1616.801964
 0.240000   343.504131   -1352.021583
 0.245000   336.852948   -1308.963187
 0.250000   330.414499   -1267.187637
 0.255000   324.181072   -1222.176247
 0.260000   318.192737   -1350.247519
 0.265000   310.678596   -1335.184676
 0.270000   304.840890   -1072.935132
 0.275000   299.949245   -957.663268
 0.280000   295.264258   -922.470353
 0.285000   290.724542   -964.925902
 0.290000   285.614999   -1040.461870
 0.295000   280.319923   -898.124001
 0.300000   276.633759   -716.611191
 0.305000   273.153811   -677.004648
 0.310000   269.863712   -710.433122
 0.315000   266.049480   -751.829745
 0.320000   262.345415   -618.999722
 0.325000   259.859483   -494.474134
 0.330000   257.400673   -488.745284
 0.335000   254.972030   -551.866322
 0.340000   251.882010   -509.553038
 0.345000   249.876499   -356.949372
 0.350000   248.312516   -302.194064
 0.355000   246.854559   -316.203394
 0.360000   245.150482   -354.845994
 0.365000   243.306099   -279.804295
 0.370000   242.352439   -181.965802
 0.375000   241.486441   -166.007077
 0.380000   240.692369   -230.081508
 0.385000   239.185626   -190.918659
 0.390000   238.783182   -75.988534
 0.395000   238.425740   -67.214870
 0.400000   238.111033   -120.138060
 0.405000   237.224360   -118.994235
 0.410000   236.921091   -43.881495
 0.415000   236.785545   -26.422188
 0.420000   236.656869   -74.970851
 0.425000   236.035836   -100.104557
 0.430000   235.655824   -57.702766
 0.435000   235.458809   -45.370006
 0.440000   235.202123   -97.858532
 0.445000   234.480223   -137.160970
 0.450000   233.830514   -106.951272
 0.455000   233.410711   -89.430365
 0.460000   232.936210   -129.099180
 0.465000   232.119719   -156.211088
 0.470000   231.374099   -113.718680
 0.475000   230.982532   -74.643720
 0.480000   230.627662   -90.943390
 0.485000   230.073098   -102.960867
 0.490000   229.598053   -51.782122
 0.495000   229.555277   1.361060
 0.500000   229.611664   3.065072
 0.505000   229.585928   -3.686248
 0.510000   229.574802   36.325848
 0.515000   229.949186   81.302607
 0.520000   230.387828   81.153598
 0.525000   230.760722   65.137921
 0.530000   231.039207   89.199846
 0.535000   231.652720   127.042817
 0.540000   232.309635   130.847145
 0.545000   232.961192   107.552560
 0.550000   233.385161   120.912495
 0.555000   234.170317   161.531643
 0.560000   235.000477   171.302555
 0.565000   235.883342   149.144113
 0.570000   236.491918   162.344667
 0.575000   237.506789   208.124209
 0.580000   238.573160   218.712473
 0.585000   239.693914   216.569552
 0.590000   240.738856   227.720529
 0.595000   241.971119   257.200072
 0.600000   243.310856   274.869248
 0.605000   244.719812   288.475296
 0.610000   246.195609   309.281512
 0.615000   247.812627   345.274046
 0.620000   249.648350   375.257131
 0.625000   251.565198   391.236057
 0.630000   253.560710   416.066794
 0.635000   255.725866   450.668231
 0.640000   258.067393   480.835779
 0.645000   260.534224   506.684779
 0.650000   263.134241   538.658819
 0.655000   265.920812   575.486231
 0.660000   268.889103   602.169072
 0.665000   271.942503   621.985101
 0.670000   275.108954   645.885779
 0.675000   278.401360   686.445982
 0.680000   281.973414   731.394034
 0.685000   285.715301   756.089177
 0.690000   289.534305   780.913035
 0.695000   293.524431   817.173812
 0.700000   297.706044   878.943343
 0.705000   302.313865   940.602094
 0.710000   307.112065   976.092473
 0.715000   312.074789   1018.541016
 0.720000   317.297475   1071.840126
 0.725000   322.793191   1138.341531
 0.730000   328.680890   1221.976853
 0.735000   335.012959   1274.621474
 0.740000   341.427105   1314.527102
 0.745000   348.158230   1377.288181
 0.750000   355.199987   1437.522473
 0.755000   362.533455   1515.511952
 0.760000   370.355106   1578.586722
 0.765000   378.319322   1619.633084
 0.770000   386.551437   1683.804069
 0.775000   395.157363   1760.256652
 0.780000   404.154003   1838.937438
 0.785000   413.546737   1921.244411
 0.790000   423.366448   1996.769757
 0.795000   433.514435   2065.634279
 0.800000   444.022790   2144.635994
 0.805000   454.960795   2231.725865
 0.810000   466.340049   2320.160351
 0.815000   478.162398   2409.054972
 0.820000   490.430599   2479.612525
 0.825000   502.958523   2545.245724
 0.830000   515.883056   2651.369064
 0.835000   529.472214   2775.359339
 0.840000   543.636649   2893.429156
 0.845000   558.406506   3015.653263
 0.850000   573.793182   3142.907443
 0.855000   589.835580   3277.766622
 0.860000   606.570848   3435.386209
 0.865000   624.189442   3547.223562
 0.870000   642.043084   3842.572180
 0.875000   662.615164   4307.294307
 0.880000   685.116027   4744.449779
 0.885000   710.059662   5290.205883
 0.890000   738.018086   5963.252237
 0.895000   769.692184   6804.399643
 0.900000   806.062082   7864.723782
 0.905000   848.339422   9180.038758
 0.910000   897.862470   10824.557796
 0.915000   956.585000   12978.154476
 0.920000   1027.644014   15622.733393
 0.925000   1112.812334   18118.622842
 0.930000   1208.830243   19678.867283
 0.935000   1309.601007   19435.831593
 0.940000   1403.188559   16768.174549
 0.945000   1477.282752   13493.157711
 0.950000   1538.120136   15550.384319
 0.955000   1632.786595   30595.984230
 0.960000   1844.079978   64194.781854
 0.965000   2274.734414   110632.479130
 0.970000   2950.404770   148001.810860
 0.975000   3754.752522   156252.575921
 0.980000   4512.930529   139310.415200
 0.985000   5147.856674   99829.600312
 0.990000   5511.226532   20837.653312
 0.995000   5356.233208   231969.575974
 1.000000   7830.922292   757906.057650
201 psinorm ommpp() dommpp/dpsiN
 0.000000   25.874138   -17418.520628
 0.005000   -51.290090   -13447.170500
 0.010000   -108.597567   -10468.752457
 0.015000   -155.977615   -8662.469335
 0.020000   -195.222261   -7471.775724
 0.025000   -230.695372   -6783.960462
 0.030000   -263.061865   -6178.534079
 0.035000   -292.480713   -5292.915918
 0.040000   -315.991024   -4377.722393
 0.045000   -336.257937   -3727.667372
 0.050000   -353.267698   -3244.807270
 0.055000   -368.706009   -2867.374539
 0.060000   -381.941444   -2534.139330
 0.065000   -394.047403   -2227.660981
 0.070000   -404.218053   -1915.696976
 0.075000   -413.204372   -1700.673385
 0.080000   -421.224787   -1422.537720
 0.085000   -427.429750   -1073.906637
 0.090000   -431.963854   -789.491822
 0.095000   -435.324668   -613.296250
 0.100000   -438.096816   -454.445949
 0.105000   -439.869127   -257.695780
 0.110000   -440.673774   -74.714600
 0.115000   -440.616273   173.926634
 0.120000   -438.934508   371.284233
 0.125000   -436.903431   449.862642
 0.130000   -434.435881   565.367236
 0.135000   -431.249759   715.967465
 0.140000   -427.276206   877.024480
 0.145000   -422.479514   975.020436
 0.150000   -417.526002   1037.741261
 0.155000   -412.102101   1128.886756
 0.160000   -406.237135   1210.999860
 0.165000   -399.992103   1280.982894
 0.170000   -393.427306   1339.758416
 0.175000   -386.594518   1380.578967
 0.180000   -379.621516   1394.531641
 0.185000   -372.649202   1567.717795
 0.190000   -363.944338   1643.803443
 0.195000   -356.211168   1535.286282
 0.200000   -348.591475   1522.535000
 0.205000   -340.985818   1516.288928
 0.210000   -333.428586   1504.974185
 0.215000   -325.936076   1490.470336
 0.220000   -318.523883   1471.192925
 0.225000   -311.224147   1466.713579
 0.230000   -303.856747   1645.722897
 0.235000   -294.766918   1574.085482
 0.240000   -288.115892   1308.076227
 0.245000   -281.686155   1264.447376
 0.250000   -275.471418   1222.428793
 0.255000   -269.461867   1177.618171
 0.260000   -263.695236   1306.130145
 0.265000   -256.400566   1291.534486
 0.270000   -250.779892   1030.235539
 0.275000   -246.098211   916.230587
 0.280000   -241.617586   882.053384
 0.285000   -237.277677   925.193303
 0.290000   -232.365653   1000.938329
 0.295000   -227.268293   858.697602
 0.300000   -223.778677   677.275574
 0.305000   -220.495538   637.128198
 0.310000   -217.407395   669.281987
 0.315000   -213.802718   708.635544
 0.320000   -210.321039   572.921244
 0.325000   -208.073505   445.298113
 0.330000   -205.868058   436.275112
 0.335000   -203.710754   495.950750
 0.340000   -200.908551   450.873646
 0.345000   -199.202018   296.215701
 0.350000   -197.946394   240.031335
 0.355000   -196.801704   253.200949
 0.360000   -195.414384   291.159308
 0.365000   -193.890111   216.258075
 0.370000   -193.251803   119.290669
 0.375000   -192.697205   104.229663
 0.380000   -192.209507   169.441205
 0.385000   -191.002793   131.394116
 0.390000   -190.895566   17.603472
 0.395000   -190.826758   10.265905
 0.400000   -190.792907   64.289526
 0.405000   -190.183863   63.707406
 0.410000   -190.155832   -11.366698
 0.415000   -190.297530   -30.075939
 0.420000   -190.456592   15.603254
 0.425000   -190.141497   35.150604
 0.430000   -190.105086   -15.419010
 0.435000   -190.295687   -37.801149
 0.440000   -190.483097   1.893974
 0.445000   -190.276747   27.665282
 0.450000   -190.206445   -14.735333
 0.455000   -190.424101   -44.251652
 0.460000   -190.648961   -15.465945
 0.465000   -190.578760   3.425114
 0.470000   -190.614710   -44.012506
 0.475000   -191.018885   -83.433743
 0.480000   -191.449047   -63.304320
 0.485000   -191.651929   -44.530616
 0.490000   -191.894353   -86.291702
 0.495000   -192.514846   -127.381159
 0.500000   -193.168165   -115.683264
 0.505000   -193.671678   -96.406768
 0.510000   -194.132233   -125.667729
 0.515000   -194.928355   -161.507614
 0.520000   -195.747309   -154.069047
 0.525000   -196.469046   -132.491503
 0.530000   -197.072224   -152.798724
 0.535000   -197.997033   -188.492452
 0.540000   -198.957148   -190.853202
 0.545000   -199.905565   -166.317456
 0.550000   -200.620323   -178.532615
 0.555000   -201.690891   -218.245909
 0.560000   -202.802782   -227.209360
 0.565000   -203.962985   -204.251032
 0.570000   -204.845292   -216.849419
 0.575000   -206.131479   -262.219296
 0.580000   -207.467485   -272.492000
 0.585000   -208.856399   -270.164282
 0.590000   -210.169128   -281.434379
 0.595000   -211.670743   -311.267427
 0.600000   -213.281802   -329.461791
 0.605000   -214.965361   -343.849399
 0.610000   -216.720296   -365.618443
 0.615000   -218.621545   -402.703873
 0.620000   -220.747335   -433.841831
 0.625000   -222.959964   -451.070084
 0.630000   -225.258036   -477.333529
 0.635000   -227.733299   -513.405938
 0.640000   -230.392095   -544.724540
 0.645000   -233.180544   -571.559603
 0.650000   -236.107691   -604.571762
 0.655000   -239.226262   -642.531474
 0.660000   -242.533006   -670.777632
 0.665000   -245.934038   -692.752631
 0.670000   -249.460532   -719.174982
 0.675000   -253.125788   -762.792790
 0.680000   -257.088460   -811.538183
 0.685000   -261.241170   -840.053929
 0.690000   -265.489000   -868.326322
 0.695000   -269.924433   -908.098857
 0.700000   -274.569988   -971.522956
 0.705000   -279.639663   -1033.286433
 0.710000   -284.902853   -1069.270377
 0.715000   -290.332366   -1111.762656
 0.720000   -296.020479   -1164.571363
 0.725000   -301.978080   -1230.335399
 0.730000   -308.323833   -1311.669009
 0.735000   -315.094770   -1361.139438
 0.740000   -321.935228   -1398.266498
 0.745000   -329.077435   -1457.731580
 0.750000   -336.512543   -1514.329240
 0.755000   -344.220727   -1587.532071
 0.760000   -352.387864   -1646.466130
 0.765000   -360.685389   -1684.911930
 0.770000   -369.236983   -1746.810026
 0.775000   -378.153489   -1821.969528
 0.780000   -387.456679   -1900.274234
 0.785000   -397.156231   -1982.514647
 0.790000   -407.281825   -2060.563052
 0.795000   -417.761862   -2134.343013
 0.800000   -428.625255   -2218.368625
 0.805000   -439.945548   -2311.302302
 0.810000   -451.738278   -2406.067330
 0.815000   -464.006221   -2501.303622
 0.820000   -476.751314   -2577.351442
 0.825000   -489.779736   -2646.900393
 0.830000   -503.220318   -2755.422515
 0.835000   -517.333961   -2880.156241
 0.840000   -532.021881   -2996.969613
 0.845000   -547.303657   -3116.664941
 0.850000   -563.188530   -3240.612577
 0.855000   -579.709783   -3371.598938
 0.860000   -596.904520   -3526.261811
 0.865000   -614.972401   -3637.770348
 0.870000   -633.282223   -3935.650743
 0.875000   -654.328908   -4406.764339
 0.880000   -677.349866   -4853.773220
 0.885000   -702.866641   -5411.183042
 0.890000   -731.461697   -6099.153232
 0.895000   -763.858173   -6959.023214
 0.900000   -801.051929   -8039.484426
 0.905000   -844.253017   -9376.154299
 0.910000   -894.813472   -11041.471563
 0.915000   -954.667733   -13209.269962
 0.920000   -1026.906172   -15862.734318
 0.925000   -1113.295076   -18364.575850
 0.930000   -1210.551930   -19926.856365
 0.935000   -1312.563640   -19687.958892
 0.940000   -1407.431519   -17032.345571
 0.945000   -1482.887095   -13771.487639
 0.950000   -1545.146395   -15854.901801
 0.955000   -1641.436113   -30945.021051
 0.960000   -1854.596606   -64586.089320
 0.965000   -2287.297007   -111042.986840
 0.970000   -2965.026474   -148375.704757
 0.975000   -3771.054054   -156477.157996
 0.980000   -4529.798054   -139293.647590
 0.985000   -5163.990530   -99553.063861
 0.990000   -5525.328693   -20340.447268
 0.995000   -5367.395003   -231358.809852
 1.000000   -7838.916791   -757249.905615
201 psinorm omevb() domevb/dpsiN
 0.000000   45.792531   104.852536
 0.005000   46.150493   38.332310
 0.010000   46.175854   2.663739
 0.015000   46.177131   -0.570147
 0.020000   46.170153   -2.155775
 0.025000   46.155573   -4.165956
 0.030000   46.128493   -7.323352
 0.035000   46.082339   -10.879839
 0.040000   46.019695   -14.392292
 0.045000   45.938416   -18.021869
 0.050000   45.839476   -21.237621
 0.055000   45.726040   -23.759580
 0.060000   45.601880   -25.754907
 0.065000   45.468491   -27.285490
 0.070000   45.329025   -28.323886
 0.075000   45.185252   -29.257522
 0.080000   45.036450   -30.240652
 0.085000   44.882846   -31.268191
 0.090000   44.723768   -32.664278
 0.095000   44.556203   -34.057679
 0.100000   44.383191   -35.139891
 0.105000   44.204804   -36.001763
 0.110000   44.023174   -36.558893
 0.115000   43.839215   -36.887105
 0.120000   43.654303   -37.263768
 0.125000   43.466577   -37.695469
 0.130000   43.277348   -37.966912
 0.135000   43.086908   -38.169803
 0.140000   42.895650   -38.260347
 0.145000   42.704305   -38.281735
 0.150000   42.512833   -38.223379
 0.155000   42.322071   -38.059124
 0.160000   42.132241   -37.934182
 0.165000   41.942729   -37.655754
 0.170000   41.755684   -37.295797
 0.175000   41.569771   -36.662804
 0.180000   41.389056   -36.053553
 0.185000   41.209236   -35.840804
 0.190000   41.030648   -35.576420
 0.195000   40.853472   -35.469454
 0.200000   40.675953   -35.455620
 0.205000   40.498915   -35.489539
 0.210000   40.321058   -36.312712
 0.215000   40.135788   -37.520811
 0.220000   39.945850   -38.493245
 0.225000   39.750856   -39.286417
 0.230000   39.552986   -40.034512
 0.235000   39.350511   -41.281311
 0.240000   39.140173   -42.313561
 0.245000   38.927375   -42.688439
 0.250000   38.713288   -42.736966
 0.255000   38.500005   -42.342786
 0.260000   38.289860   -41.709789
 0.265000   38.082907   -41.051446
 0.270000   37.879346   -39.910850
 0.275000   37.683799   -38.455120
 0.280000   37.494795   -37.251792
 0.285000   37.311281   -36.381027
 0.290000   37.130984   -35.986817
 0.295000   36.951413   -35.705786
 0.300000   36.773926   -35.432399
 0.305000   36.597089   -35.791925
 0.310000   36.416007   -36.886626
 0.315000   36.228223   -38.751047
 0.320000   36.028497   -41.458036
 0.325000   35.813642   -44.379667
 0.330000   35.584700   -47.499298
 0.335000   35.338649   -50.771590
 0.340000   35.076984   -53.363728
 0.345000   34.805012   -55.247770
 0.350000   34.524506   -56.508050
 0.355000   34.239932   -57.180464
 0.360000   33.952702   -57.698895
 0.365000   33.662943   -57.394125
 0.370000   33.378761   -56.360256
 0.375000   33.099340   -55.301291
 0.380000   32.825748   -54.004483
 0.385000   32.559295   -52.730590
 0.390000   32.298442   -51.434554
 0.395000   32.044950   -49.843490
 0.400000   31.800007   -48.589696
 0.405000   31.559053   -47.876241
 0.410000   31.321244   -47.687484
 0.415000   31.082178   -48.788935
 0.420000   30.833355   -51.511570
 0.425000   30.567062   -56.952753
 0.430000   30.263828   -64.977073
 0.435000   29.917291   -74.884629
 0.440000   29.514981   -87.537900
 0.445000   29.041912   -100.930597
 0.450000   28.505675   -112.984791
 0.455000   27.912064   -124.845197
 0.460000   27.257223   -135.595024
 0.465000   26.556114   -143.684326
 0.470000   25.820380   -148.499733
 0.475000   25.071117   -148.717953
 0.480000   24.333201   -144.761897
 0.485000   23.623498   -137.881129
 0.490000   22.954389   -128.340696
 0.495000   22.340091   -116.165972
 0.500000   21.792730   -102.644843
 0.505000   21.313643   -90.002229
 0.510000   20.892707   -79.135445
 0.515000   20.522288   -69.884715
 0.520000   20.193860   -62.483097
 0.525000   19.897457   -56.810971
 0.530000   19.625750   -52.947811
 0.535000   19.367979   -50.691917
 0.540000   19.118831   -49.143499
 0.545000   18.876544   -47.799310
 0.550000   18.640838   -46.553317
 0.555000   18.411011   -45.548062
 0.560000   18.185358   -44.643016
 0.565000   17.964581   -43.747361
 0.570000   17.747884   -43.051244
 0.575000   17.534068   -42.549445
 0.580000   17.322389   -42.143570
 0.585000   17.112633   -41.870274
 0.590000   16.903687   -41.902712
 0.595000   16.693605   -42.171349
 0.600000   16.481973   -42.613485
 0.605000   16.267471   -43.313805
 0.610000   16.048835   -44.197201
 0.615000   15.825499   -45.212475
 0.620000   15.596710   -46.291531
 0.625000   15.362583   -47.466843
 0.630000   15.122042   -48.827335
 0.635000   14.874310   -50.227887
 0.640000   14.619763   -51.310312
 0.645000   14.361207   -52.229535
 0.650000   14.097468   -53.202597
 0.655000   13.829181   -54.271618
 0.660000   13.554752   -55.773429
 0.665000   13.271447   -57.872662
 0.670000   12.976025   -60.336361
 0.675000   12.668083   -63.337747
 0.680000   12.342648   -67.080621
 0.685000   11.997277   -70.848499
 0.690000   11.634163   -74.246045
 0.695000   11.254816   -77.708542
 0.700000   10.857077   -79.315570
 0.705000   10.461661   -79.374463
 0.710000   10.063332   -79.823895
 0.715000   9.663422   -79.825183
 0.720000   9.265081   -79.294002
 0.725000   8.870482   -78.517504
 0.730000   8.479906   -76.178284
 0.735000   8.108699   -72.968174
 0.740000   7.750224   -70.155228
 0.745000   7.407147   -66.826329
 0.750000   7.081961   -63.158175
 0.755000   6.775565   -58.341255
 0.760000   6.498548   -54.171326
 0.765000   6.233851   -51.542320
 0.770000   5.983125   -49.241350
 0.775000   5.741438   -47.919954
 0.780000   5.503925   -47.514446
 0.785000   5.266294   -47.416060
 0.790000   5.029765   -49.903006
 0.795000   4.767263   -54.775286
 0.800000   4.482012   -59.744929
 0.805000   4.169814   -65.517469
 0.810000   3.826837   -71.751094
 0.815000   3.452303   -77.957598
 0.820000   3.047261   -83.256117
 0.825000   2.619742   -86.896933
 0.830000   2.178292   -88.899078
 0.835000   1.730751   -89.068608
 0.840000   1.287606   -86.981064
 0.845000   0.860941   -83.249637
 0.850000   0.455109   -78.206048
 0.855000   0.078880   -71.831345
 0.860000   -0.263204   -65.284300
 0.865000   -0.573963   -59.826611
 0.870000   -0.861470   -55.072556
 0.875000   -1.124688   -51.185245
 0.880000   -1.373323   -46.661845
 0.885000   -1.591307   -38.426914
 0.890000   -1.757592   -26.232315
 0.895000   -1.853630   -8.701765
 0.900000   -1.844609   18.273958
 0.905000   -1.670890   55.556193
 0.910000   -1.289048   102.647908
 0.915000   -0.644411   156.698107
 0.920000   0.277934   194.269883
 0.925000   1.298288   166.964206
 0.930000   1.947576   -7.266130
 0.935000   1.225626   -460.747889
 0.940000   -2.659903   -1342.670765
 0.945000   -12.201081   -2713.278912
 0.950000   -29.792692   -4418.886567
 0.955000   -56.389947   -6002.494717
 0.960000   -89.817640   -6860.912902
 0.965000   -124.999076   -6528.107080
 0.970000   -155.098710   -4578.727231
 0.975000   -170.786348   -642.175593
 0.980000   -161.520466   4328.616761
 0.985000   -127.500181   7621.774647
 0.990000   -85.302720   7587.483908
 0.995000   -51.625342   5494.558166
 1.000000   -30.357138   3012.723273
201 psinorm omepp() domepp/dpsiN
 0.000000   15.454118   4.820067
 0.005000   15.483825   7.062628
 0.010000   15.524744   8.075953
 0.015000   15.564584   7.859921
 0.020000   15.603343   7.643666
 0.025000   15.641021   7.427219
 0.030000   15.677616   7.210612
 0.035000   15.713127   6.993876
 0.040000   15.747554   6.777042
 0.045000   15.780897   6.560143
 0.050000   15.813156   6.343209
 0.055000   15.844329   6.126271
 0.060000   15.874418   5.909361
 0.065000   15.903423   5.692509
 0.070000   15.931343   5.475747
 0.075000   15.958180   5.259104
 0.080000   15.983935   5.042613
 0.085000   16.008607   4.826302
 0.090000   16.032198   4.610202
 0.095000   16.054709   4.394345
 0.100000   16.076141   4.178758
 0.105000   16.096496   3.963473
 0.110000   16.115776   3.748519
 0.115000   16.133981   3.533925
 0.120000   16.151115   3.319721
 0.125000   16.167179   3.105935
 0.130000   16.182174   2.892598
 0.135000   16.196105   2.679736
 0.140000   16.208972   2.467380
 0.145000   16.220778   2.255557
 0.150000   16.231527   2.044296
 0.155000   16.241221   1.833623
 0.160000   16.249864   1.623568
 0.165000   16.257457   1.414157
 0.170000   16.264005   1.205417
 0.175000   16.269511   0.997376
 0.180000   16.273979   0.790060
 0.185000   16.277412   0.583496
 0.190000   16.279814   0.377709
 0.195000   16.281189   0.172727
 0.200000   16.281541   -0.031426
 0.205000   16.280875   -0.234724
 0.210000   16.279194   -0.437142
 0.215000   16.276503   -0.638655
 0.220000   16.272807   -0.839239
 0.225000   16.268111   -1.038869
 0.230000   16.262419   -1.237520
 0.235000   16.255736   -1.435170
 0.240000   16.248067   -1.631795
 0.245000   16.239418   -1.827372
 0.250000   16.229793   -2.021878
 0.255000   16.219199   -2.215290
 0.260000   16.207640   -2.407586
 0.265000   16.195123   -2.598744
 0.270000   16.181653   -2.788743
 0.275000   16.167236   -2.977561
 0.280000   16.151877   -3.165178
 0.285000   16.135584   -3.351572
 0.290000   16.118361   -3.536723
 0.295000   16.100217   -3.720612
 0.300000   16.081155   -3.903219
 0.305000   16.061184   -4.084524
 0.310000   16.040310   -4.264509
 0.315000   16.018539   -4.443154
 0.320000   15.995879   -4.620442
 0.325000   15.972335   -4.796354
 0.330000   15.947915   -4.970874
 0.335000   15.922626   -5.143982
 0.340000   15.896475   -5.315664
 0.345000   15.869469   -5.485902
 0.350000   15.841616   -5.654679
 0.355000   15.812923   -5.821981
 0.360000   15.783396   -5.987791
 0.365000   15.753045   -6.152095
 0.370000   15.721875   -6.314877
 0.375000   15.689896   -6.476123
 0.380000   15.657114   -6.635820
 0.385000   15.623538   -6.793953
 0.390000   15.589175   -6.950509
 0.395000   15.554033   -7.105475
 0.400000   15.518120   -7.258838
 0.405000   15.481444   -7.410587
 0.410000   15.444014   -7.560709
 0.415000   15.405837   -7.709192
 0.420000   15.366922   -7.856027
 0.425000   15.327277   -8.001201
 0.430000   15.286910   -8.144704
 0.435000   15.245830   -8.286526
 0.440000   15.204045   -8.426658
 0.445000   15.161563   -8.565091
 0.450000   15.118394   -8.701814
 0.455000   15.074545   -8.836820
 0.460000   15.030026   -8.970100
 0.465000   14.984844   -9.101647
 0.470000   14.939009   -9.231453
 0.475000   14.892530   -9.359511
 0.480000   14.845414   -9.485813
 0.485000   14.797672   -9.610354
 0.490000   14.749311   -9.733127
 0.495000   14.700340   -9.854127
 0.500000   14.650769   -9.973349
 0.505000   14.600607   -10.090786
 0.510000   14.549861   -10.206435
 0.515000   14.498542   -10.320292
 0.520000   14.446659   -10.432352
 0.525000   14.394219   -10.542611
 0.530000   14.341232   -10.651067
 0.535000   14.287708   -10.757717
 0.540000   14.233655   -10.862557
 0.545000   14.179083   -10.965586
 0.550000   14.123999   -11.066802
 0.555000   14.068415   -11.166204
 0.560000   14.012337   -11.263789
 0.565000   13.955777   -11.359557
 0.570000   13.898742   -11.453508
 0.575000   13.841242   -11.545642
 0.580000   13.783285   -11.635957
 0.585000   13.724882   -11.724456
 0.590000   13.666041   -11.811138
 0.595000   13.606771   -11.896005
 0.600000   13.547081   -11.979058
 0.605000   13.486980   -12.060299
 0.610000   13.426478   -12.139729
 0.615000   13.365583   -12.217352
 0.620000   13.304304   -12.293169
 0.625000   13.242651   -12.367184
 0.630000   13.180632   -12.439400
 0.635000   13.118257   -12.509820
 0.640000   13.055534   -12.578448
 0.645000   12.992473   -12.645289
 0.650000   12.929081   -12.710346
 0.655000   12.865369   -12.773625
 0.660000   12.801345   -12.835131
 0.665000   12.737018   -12.894868
 0.670000   12.672396   -12.952842
 0.675000   12.607489   -13.009060
 0.680000   12.542306   -13.063528
 0.685000   12.476854   -13.116253
 0.690000   12.411143   -13.167242
 0.695000   12.345182   -13.216502
 0.700000   12.278978   -13.264044
 0.705000   12.212541   -13.309875
 0.710000   12.145880   -13.354008
 0.715000   12.079001   -13.396457
 0.720000   12.011915   -13.437235
 0.725000   11.944629   -13.476365
 0.730000   11.877151   -13.513872
 0.735000   11.809490   -13.549790
 0.740000   11.741653   -13.584168
 0.745000   11.673648   -13.617070
 0.750000   11.605483   -13.648591
 0.755000   11.537163   -13.678864
 0.760000   11.468694   -13.708082
 0.765000   11.400082   -13.736527
 0.770000   11.331329   -13.764607
 0.775000   11.262436   -13.792922
 0.780000   11.193400   -13.822350
 0.785000   11.124212   -13.854177
 0.790000   11.054858   -13.890288
 0.795000   10.985309   -13.933448
 0.800000   10.915523   -13.987702
 0.805000   10.845432   -14.058967
 0.810000   10.774934   -14.155884
 0.815000   10.703873   -14.291052
 0.820000   10.632023   -14.482800
 0.825000   10.559045   -14.757735
 0.830000   10.484446   -15.154374
 0.835000   10.407502   -15.728293
 0.840000   10.327163   -16.559394
 0.845000   10.241908   -17.762041
 0.850000   10.149542   -19.499086
 0.855000   10.046917   -22.000971
 0.860000   9.929533   -25.591301
 0.865000   9.791004   -30.720175
 0.870000   9.622331   -38.006007
 0.875000   9.410944   -48.284787
 0.880000   9.139483   -62.661597
 0.885000   8.784328   -82.550246
 0.890000   8.313981   -109.668679
 0.895000   7.687641   -145.921806
 0.900000   6.854763   -193.034602
 0.905000   5.757295   -251.671733
 0.910000   4.338045   -319.561674
 0.915000   2.561678   -387.813594
 0.920000   0.459909   -434.270809
 0.925000   -1.781030   -412.917214
 0.930000   -3.669263   -240.722952
 0.935000   -4.188259   208.620590
 0.940000   -1.583057   1078.499743
 0.945000   6.596738   2434.948984
 0.950000   22.766433   4114.369085
 0.955000   47.740429   5653.457896
 0.960000   79.301012   6469.605436
 0.965000   112.436483   6117.599370
 0.970000   140.477006   4204.833333
 0.975000   154.484817   417.593518
 0.980000   144.652941   -4311.849151
 0.985000   111.366325   -7345.238196
 0.990000   71.200559   -7090.277863
 0.995000   40.463547   -4883.792044
 1.000000   22.362638   -2356.571237
201 psinorm kpol(km/s/T) dkpol/dpsiN
 0.000000   -0.007532   138.552345
 0.005000   0.559916   88.427049
 0.010000   0.876738   62.040216
 0.015000   1.180319   60.891882
 0.020000   1.485657   61.202372
 0.025000   1.792342   60.863190
 0.030000   2.094289   59.118583
 0.035000   2.383528   56.725948
 0.040000   2.661549   54.156730
 0.045000   2.925095   51.263149
 0.050000   3.174180   48.578539
 0.055000   3.410881   46.402425
 0.060000   3.638204   44.697558
 0.065000   3.857856   43.323024
 0.070000   4.071435   42.164254
 0.075000   4.279499   40.913333
 0.080000   4.480568   39.451449
 0.085000   4.674013   37.797727
 0.090000   4.858545   35.909334
 0.095000   5.033107   34.022847
 0.100000   5.198774   32.163746
 0.105000   5.354744   30.404174
 0.110000   5.502815   28.863764
 0.115000   5.643382   27.467147
 0.120000   5.777487   26.277007
 0.125000   5.906152   25.271417
 0.130000   6.030201   24.351616
 0.135000   6.149668   23.424627
 0.140000   6.264447   22.453244
 0.145000   6.374201   21.407557
 0.150000   6.478523   20.203700
 0.155000   6.576238   18.962496
 0.160000   6.668148   17.664579
 0.165000   6.752883   16.418080
 0.170000   6.832329   15.130239
 0.175000   6.904186   13.778301
 0.180000   6.970112   12.407822
 0.185000   7.028264   10.832396
 0.190000   7.078436   9.256519
 0.195000   7.120829   7.541565
 0.200000   7.153851   5.876607
 0.205000   7.179595   4.200797
 0.210000   7.195859   2.447317
 0.215000   7.204068   0.897621
 0.220000   7.204836   -0.728730
 0.225000   7.196781   -2.297689
 0.230000   7.181859   -3.848610
 0.235000   7.158295   -5.574572
 0.240000   7.126113   -7.165226
 0.245000   7.086643   -8.787109
 0.250000   7.038242   -10.440022
 0.255000   6.982243   -11.937557
 0.260000   6.918866   -13.497852
 0.265000   6.847264   -14.954076
 0.270000   6.769325   -16.313947
 0.275000   6.684125   -17.836890
 0.280000   6.590957   -19.298540
 0.285000   6.491139   -20.846055
 0.290000   6.382496   -22.750016
 0.295000   6.263639   -24.744741
 0.300000   6.135049   -26.991862
 0.305000   5.993720   -29.626316
 0.310000   5.838785   -32.320698
 0.315000   5.670513   -35.244688
 0.320000   5.486339   -38.510938
 0.325000   5.285404   -41.642942
 0.330000   5.069909   -44.530967
 0.335000   4.840094   -47.201222
 0.340000   4.597897   -49.316657
 0.345000   4.346928   -50.923504
 0.350000   4.088662   -51.876224
 0.355000   3.828166   -52.015905
 0.360000   3.568503   -51.778644
 0.365000   3.310379   -51.316980
 0.370000   3.055333   -50.555423
 0.375000   2.804825   -49.685819
 0.380000   2.558475   -48.856624
 0.385000   2.316259   -48.403835
 0.390000   2.074437   -48.519565
 0.395000   1.831063   -48.948999
 0.400000   1.584947   -49.519837
 0.405000   1.335865   -50.088393
 0.410000   1.084063   -50.971353
 0.415000   0.826151   -53.061162
 0.420000   0.553451   -57.148453
 0.425000   0.254667   -63.580515
 0.430000   -0.082354   -72.407225
 0.435000   -0.469406   -83.801344
 0.440000   -0.920368   -98.508877
 0.445000   -1.454494   -114.169858
 0.450000   -2.062066   -128.613190
 0.455000   -2.740626   -142.053568
 0.460000   -3.482602   -153.423417
 0.465000   -4.274861   -161.818382
 0.470000   -5.100786   -165.751994
 0.475000   -5.932380   -163.751241
 0.480000   -6.738298   -156.370800
 0.485000   -7.496088   -145.045346
 0.490000   -8.188752   -130.690459
 0.495000   -8.802993   -113.617787
 0.500000   -9.324929   -95.226103
 0.505000   -9.755254   -78.432559
 0.510000   -10.109255   -64.149903
 0.515000   -10.396753   -52.021836
 0.520000   -10.629473   -42.441879
 0.525000   -10.821172   -35.244456
 0.530000   -10.981918   -30.554055
 0.535000   -11.126712   -28.031545
 0.540000   -11.262233   -26.343433
 0.545000   -11.390147   -24.785950
 0.550000   -11.510093   -23.172862
 0.555000   -11.621875   -21.652216
 0.560000   -11.726615   -20.024751
 0.565000   -11.822123   -18.108494
 0.570000   -11.907700   -16.120469
 0.575000   -11.983328   -14.101816
 0.580000   -12.048718   -11.961711
 0.585000   -12.102945   -9.725505
 0.590000   -12.145973   -7.590467
 0.595000   -12.178849   -5.516059
 0.600000   -12.201134   -3.462710
 0.605000   -12.213477   -1.573221
 0.610000   -12.216866   0.131433
 0.615000   -12.212162   1.696921
 0.620000   -12.199897   3.139787
 0.625000   -12.180764   4.394007
 0.630000   -12.155957   5.517607
 0.635000   -12.125588   6.587528
 0.640000   -12.090081   7.577384
 0.645000   -12.049814   8.483669
 0.650000   -12.005245   9.330932
 0.655000   -11.956505   10.136895
 0.660000   -11.903876   10.859400
 0.665000   -11.847911   11.501362
 0.670000   -11.788862   12.113292
 0.675000   -11.726778   12.818865
 0.680000   -11.660674   13.731886
 0.685000   -11.589459   14.878481
 0.690000   -11.511889   16.252898
 0.695000   -11.426930   17.792040
 0.700000   -11.333968   19.494700
 0.705000   -11.231983   21.191210
 0.710000   -11.122056   22.447215
 0.715000   -11.007511   23.060459
 0.720000   -10.891452   22.970990
 0.725000   -10.777801   22.051230
 0.730000   -10.670939   20.241660
 0.735000   -10.575385   17.553424
 0.740000   -10.495405   14.193647
 0.745000   -10.433448   10.501144
 0.750000   -10.390394   6.743755
 0.755000   -10.366011   3.172682
 0.760000   -10.358667   0.025773
 0.765000   -10.365753   -2.666344
 0.770000   -10.385330   -5.197484
 0.775000   -10.417728   -7.942074
 0.780000   -10.464751   -11.267114
 0.785000   -10.530399   -15.602065
 0.790000   -10.620772   -21.803686
 0.795000   -10.748436   -29.825352
 0.800000   -10.919025   -38.973131
 0.805000   -11.138167   -49.016351
 0.810000   -11.409189   -59.372268
 0.815000   -11.731890   -69.255645
 0.820000   -12.101745   -78.237456
 0.825000   -12.514264   -85.087936
 0.830000   -12.952625   -88.355622
 0.835000   -13.397820   -87.348983
 0.840000   -13.826114   -81.427188
 0.845000   -14.212092   -70.625214
 0.850000   -14.532366   -55.159315
 0.855000   -14.763686   -36.002868
 0.860000   -14.892395   -14.969623
 0.865000   -14.913382   6.076880
 0.870000   -14.831626   26.041400
 0.875000   -14.652968   44.013023
 0.880000   -14.391496   58.764246
 0.885000   -14.065325   69.809597
 0.890000   -13.693400   77.239113
 0.895000   -13.292934   81.187064
 0.900000   -12.881530   81.903691
 0.905000   -12.473897   80.098573
 0.910000   -12.080544   77.920597
 0.915000   -11.694691   77.488211
 0.920000   -11.305662   79.272506
 0.925000   -10.901966   84.111628
 0.930000   -10.464545   92.828381
 0.935000   -9.973682   106.387119
 0.940000   -9.400674   122.358307
 0.945000   -8.750099   129.385145
 0.950000   -8.106823   120.247991
 0.955000   -7.547619   97.744793
 0.960000   -7.129375   72.793496
 0.965000   -6.819684   65.455813
 0.970000   -6.474817   104.660785
 0.975000   -5.773077   213.735125
 0.980000   -4.337465   382.757742
 0.985000   -1.945499   563.226854
 0.990000   1.294803   682.396099
 0.995000   4.878462   676.752109
 1.000000   8.062324   596.792856
201 psinorm omghb() domghb/dpsiN
 0.000000   -0.000055   0.029628
 0.005000   -0.000045   -0.025653
 0.010000   -0.000311   -0.030148
 0.015000   -0.000346   -0.000814
 0.020000   -0.000320   0.013263
 0.025000   -0.000214   0.029903
 0.030000   -0.000020   0.059457
 0.035000   0.000381   0.094109
 0.040000   0.000921   0.128446
 0.045000   0.001665   0.149630
 0.050000   0.002417   0.149006
 0.055000   0.003155   0.144854
 0.060000   0.003865   0.134824
 0.065000   0.004504   0.123792
 0.070000   0.005103   0.135591
 0.075000   0.005860   0.151581
 0.080000   0.006619   0.156742
 0.085000   0.007427   0.166876
 0.090000   0.008288   0.179488
 0.095000   0.009222   0.180559
 0.100000   0.010094   0.189879
 0.105000   0.011121   0.193368
 0.110000   0.012027   0.162148
 0.115000   0.012742   0.147404
 0.120000   0.013501   0.147921
 0.125000   0.014221   0.169734
 0.130000   0.015199   0.171692
 0.135000   0.015938   0.148291
 0.140000   0.016682   0.135155
 0.145000   0.017290   0.135635
 0.150000   0.018038   0.134740
 0.155000   0.018637   0.132845
 0.160000   0.019366   0.121245
 0.165000   0.019850   0.092655
 0.170000   0.020293   0.093675
 0.175000   0.020786   0.085255
 0.180000   0.021145   0.094570
 0.185000   0.021732   0.080507
 0.190000   0.021950   0.068760
 0.195000   0.022420   0.149646
 0.200000   0.023447   0.198589
 0.205000   0.024406   0.217778
 0.210000   0.025625   0.232933
 0.215000   0.026735   0.255118
 0.220000   0.028176   0.314253
 0.225000   0.029877   0.315183
 0.230000   0.031328   0.294475
 0.235000   0.032822   0.262192
 0.240000   0.033950   0.231931
 0.245000   0.035141   0.256374
 0.250000   0.036513   0.248684
 0.255000   0.037628   0.050845
 0.260000   0.037022   -0.061921
 0.265000   0.037009   -0.038738
 0.270000   0.036634   -0.051440
 0.275000   0.036495   -0.027362
 0.280000   0.036361   -0.030604
 0.285000   0.036189   -0.017683
 0.290000   0.036184   0.050338
 0.295000   0.036692   0.124249
 0.300000   0.037427   0.194676
 0.305000   0.038639   0.272973
 0.310000   0.040156   0.260531
 0.315000   0.041244   0.595178
 0.320000   0.046108   0.878620
 0.325000   0.050030   0.785444
 0.330000   0.053962   0.780133
 0.335000   0.057832   0.712851
 0.340000   0.061091   0.655782
 0.345000   0.064389   0.573697
 0.350000   0.066828   0.398601
 0.355000   0.068375   0.249576
 0.360000   0.069324   0.130034
 0.365000   0.069676   0.016041
 0.370000   0.069484   0.069943
 0.375000   0.070375   -0.033274
 0.380000   0.069151   -0.246919
 0.385000   0.067906   -0.217761
 0.390000   0.066974   -0.155417
 0.395000   0.066352   -0.092200
 0.400000   0.066052   -0.103808
 0.405000   0.065314   -0.060429
 0.410000   0.065447   0.220144
 0.415000   0.067515   0.595808
 0.420000   0.071406   1.198784
 0.425000   0.079503   1.956762
 0.430000   0.090973   2.404458
 0.435000   0.103548   2.791301
 0.440000   0.118886   3.245546
 0.445000   0.136003   3.430638
 0.450000   0.153193   3.660737
 0.455000   0.172611   3.412145
 0.460000   0.187314   2.506854
 0.465000   0.197679   1.733093
 0.470000   0.204645   0.954239
 0.475000   0.207221   -0.021808
 0.480000   0.204427   -1.173625
 0.485000   0.195485   -2.150716
 0.490000   0.182920   -2.745903
 0.495000   0.168026   -3.099737
 0.500000   0.151922   -3.161590
 0.505000   0.136410   -2.998164
 0.510000   0.121941   -2.839476
 0.515000   0.108015   -2.283590
 0.520000   0.099105   -1.531055
 0.525000   0.092705   -1.084891
 0.530000   0.088256   -0.729554
 0.535000   0.085409   -0.431389
 0.540000   0.083942   -0.279909
 0.545000   0.082610   -0.259396
 0.550000   0.081348   -0.221906
 0.555000   0.080391   -0.177652
 0.560000   0.079571   -0.159666
 0.565000   0.078795   -0.135135
 0.570000   0.078220   -0.076858
 0.575000   0.078026   -0.041385
 0.580000   0.077806   -0.013805
 0.585000   0.077888   0.054755
 0.590000   0.078354   0.130870
 0.595000   0.079197   0.193679
 0.600000   0.080291   0.244897
 0.605000   0.081646   0.305407
 0.610000   0.083345   0.353602
 0.615000   0.085182   0.443446
 0.620000   0.087779   0.469168
 0.625000   0.089873   0.442548
 0.630000   0.092205   0.449676
 0.635000   0.094370   0.415723
 0.640000   0.096362   0.408721
 0.645000   0.098457   0.485627
 0.650000   0.101218   0.441913
 0.655000   0.102876   0.400553
 0.660000   0.105224   0.546055
 0.665000   0.108337   0.740501
 0.670000   0.112629   0.968428
 0.675000   0.118021   1.390735
 0.680000   0.126536   1.435732
 0.685000   0.132379   1.026502
 0.690000   0.136801   0.882734
 0.695000   0.141206   0.810938
 0.700000   0.144910   0.608224
 0.705000   0.147288   0.591755
 0.710000   0.150828   0.250563
 0.715000   0.149794   -0.319065
 0.720000   0.147637   -0.350197
 0.725000   0.146292   -0.358654
 0.730000   0.144051   -0.542271
 0.735000   0.140869   -0.752632
 0.740000   0.136525   -1.073306
 0.745000   0.130136   -1.189073
 0.750000   0.124634   -1.127259
 0.755000   0.118863   -1.158064
 0.760000   0.113053   -1.072348
 0.765000   0.108140   -1.059451
 0.770000   0.102459   -0.840240
 0.775000   0.099738   -0.037300
 0.780000   0.102086   0.427956
 0.785000   0.104017   0.615582
 0.790000   0.108241   1.035313
 0.795000   0.114370   1.411486
 0.800000   0.122356   2.003886
 0.805000   0.134409   2.483355
 0.810000   0.147190   2.285314
 0.815000   0.157262   1.925603
 0.820000   0.166446   1.656249
 0.825000   0.173825   1.280650
 0.830000   0.179252   0.774298
 0.835000   0.181568   -0.024670
 0.840000   0.179006   -0.699530
 0.845000   0.174572   -1.018611
 0.850000   0.168820   -1.204309
 0.855000   0.162529   -1.086845
 0.860000   0.157951   -0.204249
 0.865000   0.160487   0.476699
 0.870000   0.162718   1.176859
 0.875000   0.172255   2.582750
 0.880000   0.188546   3.877454
 0.885000   0.211030   4.941705
 0.890000   0.237963   7.011718
 0.895000   0.281147   7.296789
 0.900000   0.310931   6.523282
 0.905000   0.346380   6.771238
 0.910000   0.378643   5.893030
 0.915000   0.405310   4.630225
 0.920000   0.424945   5.338432
 0.925000   0.458695   2.017965
 0.930000   0.445125   -1.372228
 0.935000   0.444972   0.765271
 0.940000   0.452778   3.520281
 0.945000   0.480175   8.537384
 0.950000   0.538151   19.563962
 0.955000   0.675815   19.943052
 0.960000   0.737582   8.808493
 0.965000   0.763900   -5.675359
 0.970000   0.680828   -33.833301
 0.975000   0.425567   -68.557855
 0.980000   -0.004750   -92.091635
 0.985000   -0.495350   -98.698948
 0.990000   -0.991740   -74.302870
 0.995000   -1.238378   -21.903548
 1.000000   -1.210775   32.944813
201 psinorm nz1(10^20/m^3) dnz1/dpsiN
 0.000000   0.016482   0.000001
 0.005000   0.016482   -0.000111
 0.010000   0.016481   -0.000223
 0.015000   0.016479   -0.000337
 0.020000   0.016477   -0.000451
 0.025000   0.016475   -0.000565
 0.030000   0.016472   -0.000680
 0.035000   0.016468   -0.000796
 0.040000   0.016464   -0.000912
 0.045000   0.016459   -0.001027
 0.050000   0.016454   -0.001143
 0.055000   0.016448   -0.001258
 0.060000   0.016441   -0.001372
 0.065000   0.016434   -0.001485
 0.070000   0.016426   -0.001596
 0.075000   0.016418   -0.001704
 0.080000   0.016409   -0.001810
 0.085000   0.016400   -0.001914
 0.090000   0.016390   -0.002015
 0.095000   0.016380   -0.002113
 0.100000   0.016369   -0.002207
 0.105000   0.016358   -0.002298
 0.110000   0.016346   -0.002387
 0.115000   0.016334   -0.002473
 0.120000   0.016321   -0.002556
 0.125000   0.016308   -0.002634
 0.130000   0.016295   -0.002709
 0.135000   0.016281   -0.002778
 0.140000   0.016267   -0.002844
 0.145000   0.016253   -0.002905
 0.150000   0.016238   -0.002962
 0.155000   0.016223   -0.003014
 0.160000   0.016208   -0.003061
 0.165000   0.016192   -0.003104
 0.170000   0.016177   -0.003142
 0.175000   0.016161   -0.003176
 0.180000   0.016145   -0.003205
 0.185000   0.016129   -0.003229
 0.190000   0.016113   -0.003247
 0.195000   0.016096   -0.003260
 0.200000   0.016080   -0.003266
 0.205000   0.016064   -0.003266
 0.210000   0.016047   -0.003259
 0.215000   0.016031   -0.003246
 0.220000   0.016015   -0.003226
 0.225000   0.015999   -0.003201
 0.230000   0.015983   -0.003172
 0.235000   0.015967   -0.003139
 0.240000   0.015952   -0.003102
 0.245000   0.015936   -0.003059
 0.250000   0.015921   -0.003012
 0.255000   0.015906   -0.002960
 0.260000   0.015891   -0.002900
 0.265000   0.015877   -0.002831
 0.270000   0.015863   -0.002754
 0.275000   0.015849   -0.002668
 0.280000   0.015836   -0.002573
 0.285000   0.015824   -0.002469
 0.290000   0.015812   -0.002355
 0.295000   0.015800   -0.002230
 0.300000   0.015789   -0.002095
 0.305000   0.015779   -0.001952
 0.310000   0.015770   -0.001802
 0.315000   0.015761   -0.001644
 0.320000   0.015753   -0.001480
 0.325000   0.015746   -0.001314
 0.330000   0.015740   -0.001145
 0.335000   0.015735   -0.000975
 0.340000   0.015731   -0.000806
 0.345000   0.015727   -0.000636
 0.350000   0.015724   -0.000466
 0.355000   0.015722   -0.000295
 0.360000   0.015721   -0.000121
 0.365000   0.015721   0.000056
 0.370000   0.015722   0.000236
 0.375000   0.015723   0.000419
 0.380000   0.015726   0.000604
 0.385000   0.015729   0.000788
 0.390000   0.015734   0.000970
 0.395000   0.015739   0.001147
 0.400000   0.015745   0.001318
 0.405000   0.015752   0.001480
 0.410000   0.015760   0.001630
 0.415000   0.015769   0.001766
 0.420000   0.015778   0.001887
 0.425000   0.015788   0.001992
 0.430000   0.015798   0.002081
 0.435000   0.015808   0.002152
 0.440000   0.015819   0.002207
 0.445000   0.015830   0.002252
 0.450000   0.015842   0.002286
 0.455000   0.015853   0.002309
 0.460000   0.015865   0.002321
 0.465000   0.015876   0.002323
 0.470000   0.015888   0.002314
 0.475000   0.015900   0.002291
 0.480000   0.015911   0.002248
 0.485000   0.015922   0.002184
 0.490000   0.015933   0.002096
 0.495000   0.015943   0.001983
 0.500000   0.015953   0.001844
 0.505000   0.015961   0.001678
 0.510000   0.015969   0.001487
 0.515000   0.015976   0.001272
 0.520000   0.015982   0.001034
 0.525000   0.015987   0.000776
 0.530000   0.015990   0.000500
 0.535000   0.015992   0.000208
 0.540000   0.015992   -0.000097
 0.545000   0.015991   -0.000414
 0.550000   0.015988   -0.000743
 0.555000   0.015983   -0.001082
 0.560000   0.015977   -0.001431
 0.565000   0.015969   -0.001793
 0.570000   0.015959   -0.002168
 0.575000   0.015947   -0.002557
 0.580000   0.015934   -0.002960
 0.585000   0.015918   -0.003374
 0.590000   0.015900   -0.003798
 0.595000   0.015880   -0.004231
 0.600000   0.015857   -0.004672
 0.605000   0.015833   -0.005120
 0.610000   0.015806   -0.005575
 0.615000   0.015777   -0.006040
 0.620000   0.015746   -0.006524
 0.625000   0.015712   -0.007032
 0.630000   0.015676   -0.007559
 0.635000   0.015636   -0.008107
 0.640000   0.015594   -0.008674
 0.645000   0.015550   -0.009258
 0.650000   0.015502   -0.009866
 0.655000   0.015451   -0.010482
 0.660000   0.015397   -0.011085
 0.665000   0.015340   -0.011682
 0.670000   0.015280   -0.012284
 0.675000   0.015217   -0.012916
 0.680000   0.015151   -0.013647
 0.685000   0.015081   -0.014510
 0.690000   0.015006   -0.015461
 0.695000   0.014926   -0.016485
 0.700000   0.014841   -0.017571
 0.705000   0.014751   -0.018699
 0.710000   0.014654   -0.019888
 0.715000   0.014552   -0.021080
 0.720000   0.014443   -0.022156
 0.725000   0.014330   -0.023103
 0.730000   0.014212   -0.023911
 0.735000   0.014091   -0.024546
 0.740000   0.013967   -0.024976
 0.745000   0.013841   -0.025146
 0.750000   0.013715   -0.025033
 0.755000   0.013591   -0.024670
 0.760000   0.013469   -0.024074
 0.765000   0.013350   -0.023270
 0.770000   0.013236   -0.022256
 0.775000   0.013128   -0.021082
 0.780000   0.013025   -0.019919
 0.785000   0.012928   -0.018840
 0.790000   0.012837   -0.017828
 0.795000   0.012750   -0.016903
 0.800000   0.012668   -0.016079
 0.805000   0.012589   -0.015386
 0.810000   0.012514   -0.014839
 0.815000   0.012441   -0.014377
 0.820000   0.012370   -0.013933
 0.825000   0.012302   -0.013475
 0.830000   0.012235   -0.012991
 0.835000   0.012172   -0.012474
 0.840000   0.012111   -0.011932
 0.845000   0.012052   -0.011382
 0.850000   0.011997   -0.010835
 0.855000   0.011944   -0.010300
 0.860000   0.011894   -0.009790
 0.865000   0.011846   -0.009329
 0.870000   0.011801   -0.008965
 0.875000   0.011757   -0.008709
 0.880000   0.011713   -0.008546
 0.885000   0.011671   -0.008479
 0.890000   0.011629   -0.008517
 0.895000   0.011586   -0.008750
 0.900000   0.011541   -0.009189
 0.905000   0.011494   -0.009820
 0.910000   0.011443   -0.010752
 0.915000   0.011386   -0.012116
 0.920000   0.011322   -0.014097
 0.925000   0.011245   -0.017230
 0.930000   0.011150   -0.021796
 0.935000   0.011028   -0.028138
 0.940000   0.010868   -0.037191
 0.945000   0.010656   -0.049875
 0.950000   0.010369   -0.067007
 0.955000   0.009986   -0.089967
 0.960000   0.009470   -0.117524
 0.965000   0.008810   -0.145733
 0.970000   0.008012   -0.170455
 0.975000   0.007106   -0.186699
 0.980000   0.006145   -0.190601
 0.985000   0.005200   -0.181722
 0.990000   0.004328   -0.162076
 0.995000   0.003579   -0.136323
 1.000000   0.002965   -0.109277
201 psinorm vtor1(km/s) dvtor1/dpsiN
 0.000000   107.173928   540.130185
 0.005000   109.268626   297.748874
 0.010000   110.151417   155.299031
 0.015000   110.821616   122.392731
 0.020000   111.375344   103.130109
 0.025000   111.852917   90.468159
 0.030000   112.280026   81.321393
 0.035000   112.666131   73.370941
 0.040000   113.013735   66.505681
 0.045000   113.331188   60.759521
 0.050000   113.621330   55.392779
 0.055000   113.885116   50.181279
 0.060000   114.123143   45.328200
 0.065000   114.338398   40.861095
 0.070000   114.531754   36.455512
 0.075000   114.702953   32.180880
 0.080000   114.853563   28.163254
 0.085000   114.984585   24.295671
 0.090000   115.096520   20.430734
 0.095000   115.188893   16.683767
 0.100000   115.263357   13.187355
 0.105000   115.320766   9.739562
 0.110000   115.360753   6.324830
 0.115000   115.384015   3.047715
 0.120000   115.391230   -0.146087
 0.125000   115.382554   -3.364789
 0.130000   115.357582   -6.593226
 0.135000   115.316621   -9.849065
 0.140000   115.259092   -13.186304
 0.145000   115.184758   -16.558345
 0.150000   115.093508   -19.933770
 0.155000   114.985421   -23.315237
 0.160000   114.860356   -26.749221
 0.165000   114.717928   -30.190988
 0.170000   114.558446   -33.578092
 0.175000   114.382148   -36.920668
 0.180000   114.189239   -40.220092
 0.185000   113.979947   -43.430537
 0.190000   113.754934   -46.517345
 0.195000   113.514773   -49.508298
 0.200000   113.259851   -52.400501
 0.205000   112.990768   -55.120805
 0.210000   112.708643   -57.605934
 0.215000   112.414709   -59.839327
 0.220000   112.110249   -61.723345
 0.225000   111.797475   -63.140053
 0.230000   111.478849   -64.280187
 0.235000   111.154673   -65.264216
 0.240000   110.826207   -66.007748
 0.245000   110.494596   -66.548416
 0.250000   110.160723   -66.916353
 0.255000   109.825432   -67.007437
 0.260000   109.490648   -66.989452
 0.265000   109.155538   -67.019372
 0.270000   108.820455   -66.996572
 0.275000   108.485572   -66.954296
 0.280000   108.150912   -66.926925
 0.285000   107.816303   -66.953395
 0.290000   107.481378   -67.191352
 0.295000   107.144389   -67.683418
 0.300000   106.804543   -68.312310
 0.305000   106.461266   -69.025542
 0.310000   106.114288   -69.720849
 0.315000   105.764058   -70.317650
 0.320000   105.411112   -70.788099
 0.325000   105.056177   -71.126598
 0.330000   104.699846   -71.352654
 0.335000   104.342650   -71.466513
 0.340000   103.985180   -71.467174
 0.345000   103.627979   -71.330453
 0.350000   103.271876   -71.066263
 0.355000   102.917316   -70.715147
 0.360000   102.564724   -70.267133
 0.365000   102.214645   -69.717610
 0.370000   101.867548   -69.085481
 0.375000   101.523790   -68.365567
 0.380000   101.183893   -67.558448
 0.385000   100.848205   -66.678611
 0.390000   100.517107   -65.721809
 0.395000   100.190987   -64.678686
 0.400000   99.870320   -63.539990
 0.405000   99.555587   -62.283944
 0.410000   99.247480   -61.064592
 0.415000   98.944941   -60.178570
 0.420000   98.645695   -59.818949
 0.425000   98.346752   -60.092126
 0.430000   98.044773   -61.018240
 0.435000   97.736570   -62.774576
 0.440000   97.417028   -65.295866
 0.445000   97.083611   -68.024915
 0.450000   96.736778   -70.744503
 0.455000   96.376166   -73.484521
 0.460000   96.001933   -76.137330
 0.465000   95.614793   -78.801011
 0.470000   95.213923   -81.316812
 0.475000   94.801624   -83.054115
 0.480000   94.383382   -83.938176
 0.485000   93.962243   -84.202240
 0.490000   93.541359   -83.838830
 0.495000   93.123854   -82.878739
 0.500000   92.712572   -81.289044
 0.505000   92.310964   -79.153527
 0.510000   91.921037   -76.808173
 0.515000   91.542882   -74.499187
 0.520000   91.176045   -72.322005
 0.525000   90.819662   -70.319773
 0.530000   90.472847   -68.504099
 0.535000   90.134621   -66.971405
 0.540000   89.803133   -65.790320
 0.545000   89.476718   -64.965640
 0.550000   89.153477   -64.534656
 0.555000   88.831371   -64.509963
 0.560000   88.508377   -64.886161
 0.565000   88.182510   -65.744151
 0.570000   87.850936   -67.130742
 0.575000   87.511202   -69.017344
 0.580000   87.160762   -71.417219
 0.585000   86.797030   -74.339048
 0.590000   86.417372   -77.789778
 0.595000   86.019132   -81.660797
 0.600000   85.600764   -85.802830
 0.605000   85.161104   -90.147814
 0.610000   84.699286   -94.627728
 0.615000   84.214827   -99.178579
 0.620000   83.707500   -103.608590
 0.625000   83.178741   -107.946669
 0.630000   82.628033   -112.301999
 0.635000   82.055721   -116.566470
 0.640000   81.462368   -120.709751
 0.645000   80.848623   -124.725160
 0.650000   80.215117   -128.529124
 0.655000   79.563332   -132.497089
 0.660000   78.890146   -137.078152
 0.665000   78.192551   -142.282851
 0.670000   77.467317   -148.170746
 0.675000   76.710843   -154.780319
 0.680000   75.919514   -162.386599
 0.685000   75.086977   -170.420152
 0.690000   74.215313   -177.813789
 0.695000   73.308839   -184.401106
 0.700000   72.371302   -190.187867
 0.705000   71.406961   -195.088930
 0.710000   70.420412   -199.108227
 0.715000   69.415878   -201.968214
 0.720000   68.400730   -203.377831
 0.725000   67.382100   -203.416456
 0.730000   66.366566   -202.140341
 0.735000   65.360697   -199.572203
 0.740000   64.370844   -195.663124
 0.745000   63.404065   -190.480520
 0.750000   62.466038   -184.513118
 0.755000   61.558934   -178.278233
 0.760000   60.683256   -172.099465
 0.765000   59.837940   -166.215586
 0.770000   59.021100   -160.802765
 0.775000   58.229912   -155.756287
 0.780000   57.463537   -150.508986
 0.785000   56.724822   -144.822717
 0.790000   56.015310   -138.883822
 0.795000   55.335984   -132.840221
 0.800000   54.686908   -126.939913
 0.805000   54.066585   -121.557420
 0.810000   53.471334   -116.939892
 0.815000   52.897186   -113.294939
 0.820000   52.338384   -110.902865
 0.825000   51.788157   -109.967798
 0.830000   51.238706   -110.770477
 0.835000   50.680452   -113.611541
 0.840000   50.102591   -118.429781
 0.845000   49.496155   -125.538918
 0.850000   48.847202   -135.676702
 0.855000   48.139388   -149.308562
 0.860000   47.354116   -166.923791
 0.865000   46.470150   -189.495765
 0.870000   45.459159   -216.514017
 0.875000   44.305009   -247.085904
 0.880000   42.988299   -281.182562
 0.885000   41.493184   -317.876237
 0.890000   39.809537   -355.831910
 0.895000   37.934865   -394.346617
 0.900000   35.866071   -429.980384
 0.905000   33.635061   -459.139323
 0.910000   31.274678   -480.545499
 0.915000   28.829606   -492.048200
 0.920000   26.354196   -492.081726
 0.925000   23.908789   -479.968955
 0.930000   21.554506   -455.353572
 0.935000   19.355253   -419.503231
 0.940000   17.359474   -375.621074
 0.945000   15.599042   -327.326282
 0.950000   14.086211   -278.540340
 0.955000   12.813639   -232.163278
 0.960000   11.764578   -191.599659
 0.965000   10.897642   -159.353802
 0.970000   10.171040   -135.177882
 0.975000   9.545863   -118.289885
 0.980000   8.988141   -107.506003
 0.985000   8.470803   -100.920850
 0.990000   7.978933   -97.292105
 0.995000   7.497882   -95.950054
 1.000000   7.019432   -95.429947
201 psinorm vpol1(km/s) dvpol1/dpsiN
 0.000000   -0.000047   4.824805
 0.005000   0.027125   6.043945
 0.010000   0.060393   7.260156
 0.015000   0.099727   8.441406
 0.020000   0.144807   9.520703
 0.025000   0.194934   10.435352
 0.030000   0.249160   11.097852
 0.035000   0.305912   11.536133
 0.040000   0.364521   11.830664
 0.045000   0.424219   11.998047
 0.050000   0.484502   12.091992
 0.055000   0.545139   12.170703
 0.060000   0.606209   12.275195
 0.065000   0.667891   12.404102
 0.070000   0.730250   12.512109
 0.075000   0.793012   12.565430
 0.080000   0.855904   12.562305
 0.085000   0.918635   12.480664
 0.090000   0.980711   12.312891
 0.095000   1.041764   12.104102
 0.100000   1.101752   11.877930
 0.105000   1.160543   11.640234
 0.110000   1.218154   11.412500
 0.115000   1.274668   11.204687
 0.120000   1.330201   11.020898
 0.125000   1.384877   10.858789
 0.130000   1.438789   10.701758
 0.135000   1.491895   10.533398
 0.140000   1.544123   10.343164
 0.145000   1.595326   10.114453
 0.150000   1.645268   9.840820
 0.155000   1.693734   9.535156
 0.160000   1.740619   9.210352
 0.165000   1.785838   8.870508
 0.170000   1.829324   8.514648
 0.175000   1.870984   8.137500
 0.180000   1.910699   7.723047
 0.185000   1.948215   7.264062
 0.190000   1.983340   6.768945
 0.195000   2.015904   6.243750
 0.200000   2.045777   5.695117
 0.205000   2.072855   5.128906
 0.210000   2.097066   4.564063
 0.215000   2.118496   4.007617
 0.220000   2.137143   3.448437
 0.225000   2.152980   2.879492
 0.230000   2.165938   2.293555
 0.235000   2.175916   1.690625
 0.240000   2.182844   1.075000
 0.245000   2.186666   0.456445
 0.250000   2.187408   -0.159570
 0.255000   2.185070   -0.770703
 0.260000   2.179701   -1.371680
 0.265000   2.171354   -1.961133
 0.270000   2.160090   -2.545703
 0.275000   2.145896   -3.138281
 0.280000   2.128707   -3.756055
 0.285000   2.108336   -4.414258
 0.290000   2.084564   -5.136523
 0.295000   2.056971   -5.949414
 0.300000   2.025070   -6.852148
 0.305000   1.988449   -7.835938
 0.310000   1.946711   -8.902734
 0.315000   1.899422   -10.049805
 0.320000   1.846213   -11.274023
 0.325000   1.786682   -12.511328
 0.330000   1.721100   -13.670117
 0.335000   1.649980   -14.718164
 0.340000   1.573918   -15.625391
 0.345000   1.493727   -16.358398
 0.350000   1.410334   -16.825781
 0.355000   1.325469   -17.045703
 0.360000   1.239877   -17.130859
 0.365000   1.154160   -17.099023
 0.370000   1.068887   -16.978320
 0.375000   0.984377   -16.817187
 0.380000   0.900715   -16.641211
 0.385000   0.817965   -16.601172
 0.390000   0.734703   -16.763867
 0.395000   0.650326   -17.022070
 0.400000   0.564482   -17.328516
 0.405000   0.477041   -17.638672
 0.410000   0.388096   -18.053906
 0.415000   0.296502   -18.897852
 0.420000   0.199117   -20.467383
 0.425000   0.091828   -22.887891
 0.430000   -0.029762   -26.184180
 0.435000   -0.170014   -30.425977
 0.440000   -0.334021   -35.890234
 0.445000   -0.528916   -41.731445
 0.450000   -0.751336   -47.151367
 0.455000   -1.000430   -52.217578
 0.460000   -1.273512   -56.552734
 0.465000   -1.565957   -59.818164
 0.470000   -1.871693   -61.425000
 0.475000   -2.180207   -60.850977
 0.480000   -2.480203   -58.315234
 0.485000   -2.763359   -54.268945
 0.490000   -3.022893   -49.066602
 0.495000   -3.254025   -42.870117
 0.500000   -3.451594   -36.146289
 0.505000   -3.615488   -29.950195
 0.510000   -3.751096   -24.680957
 0.515000   -3.862298   -20.227246
 0.520000   -3.953368   -16.650586
 0.525000   -4.028804   -13.944922
 0.530000   -4.092817   -12.219141
 0.535000   -4.150995   -11.272852
 0.540000   -4.205546   -10.607520
 0.545000   -4.257070   -10.014648
 0.550000   -4.305692   -9.425488
 0.555000   -4.351325   -8.821680
 0.560000   -4.393909   -8.176074
 0.565000   -4.433086   -7.467578
 0.570000   -4.468585   -6.709766
 0.575000   -4.500184   -5.917969
 0.580000   -4.527765   -5.099219
 0.585000   -4.551176   -4.263184
 0.590000   -4.570396   -3.430762
 0.595000   -4.585483   -2.618750
 0.600000   -4.596584   -1.845996
 0.605000   -4.603943   -1.123340
 0.610000   -4.607817   -0.454980
 0.615000   -4.608493   0.150879
 0.620000   -4.606309   0.697168
 0.625000   -4.601521   1.188281
 0.630000   -4.594426   1.632910
 0.635000   -4.585192   2.042480
 0.640000   -4.574001   2.423242
 0.645000   -4.560960   2.780664
 0.650000   -4.546194   3.112891
 0.655000   -4.529831   3.422070
 0.660000   -4.511974   3.703906
 0.665000   -4.492792   3.957129
 0.670000   -4.472402   4.195410
 0.675000   -4.450838   4.468018
 0.680000   -4.427722   4.821045
 0.685000   -4.402627   5.263184
 0.690000   -4.375090   5.791113
 0.695000   -4.344716   6.382080
 0.700000   -4.311270   7.035693
 0.705000   -4.274359   7.688037
 0.710000   -4.234389   8.173877
 0.715000   -4.192621   8.414941
 0.720000   -4.150240   8.388330
 0.725000   -4.108737   8.045605
 0.730000   -4.069784   7.363257
 0.735000   -4.035105   6.345874
 0.740000   -4.006325   5.070508
 0.745000   -3.984400   3.665173
 0.750000   -3.969673   2.235681
 0.755000   -3.962043   0.878363
 0.760000   -3.960890   -0.320886
 0.765000   -3.965252   -1.350504
 0.770000   -3.974395   -2.311285
 0.775000   -3.988365   -3.352229
 0.780000   -4.007917   -4.625275
 0.785000   -4.034617   -6.288637
 0.790000   -4.070803   -8.650610
 0.795000   -4.121123   -11.713531
 0.800000   -4.187939   -15.230115
 0.805000   -4.273425   -19.083875
 0.810000   -4.378777   -23.038257
 0.815000   -4.503807   -26.823047
 0.820000   -4.647008   -30.286084
 0.825000   -4.806668   -32.904004
 0.830000   -4.976048   -34.122119
 0.835000   -5.147889   -33.724023
 0.840000   -5.313288   -31.458447
 0.845000   -5.462474   -27.253613
 0.850000   -5.585824   -21.236230
 0.855000   -5.674836   -13.858496
 0.860000   -5.724409   -5.771191
 0.865000   -5.732548   2.421680
 0.870000   -5.700192   10.193652
 0.875000   -5.630611   17.095605
 0.880000   -5.529236   22.786914
 0.885000   -5.402742   27.141211
 0.890000   -5.257824   30.067773
 0.895000   -5.102064   31.559570
 0.900000   -4.942229   31.870898
 0.905000   -4.783355   31.282812
 0.910000   -4.629400   30.483398
 0.915000   -4.478521   30.277344
 0.920000   -4.326627   30.987109
 0.925000   -4.168650   32.892188
 0.930000   -3.997705   36.198242
 0.935000   -3.806668   41.305664
 0.940000   -3.584648   46.491602
 0.945000   -3.341752   48.252344
 0.950000   -3.102125   44.799805
 0.955000   -2.893754   36.292383
 0.960000   -2.739201   26.111133
 0.965000   -2.632643   22.796680
 0.970000   -2.511234   38.319336
 0.975000   -2.249449   81.431641
 0.980000   -1.696918   148.698828
 0.985000   -0.762461   220.525000
 0.990000   0.508332   268.104687
 0.995000   1.918586   266.514062
 1.000000   3.173473   235.440625
3 N Z A of ION SPECIES
 6.000000   6.000000   12.010700
 1.000000   1.000000   2.000000
 1.000000   1.000000   2.000000
