201 psinorm ne(10^20/m^3) dne/dpsiN
 0.000000   0.761784   -0.277796
 0.005000   0.760396   -0.277507
 0.010000   0.759009   -0.277217
 0.015000   0.757624   -0.276927
 0.020000   0.756240   -0.276637
 0.025000   0.754858   -0.276347
 0.030000   0.753477   -0.276056
 0.035000   0.752097   -0.275765
 0.040000   0.750719   -0.275474
 0.045000   0.749342   -0.275183
 0.050000   0.747967   -0.274891
 0.055000   0.746593   -0.274599
 0.060000   0.745221   -0.274307
 0.065000   0.743850   -0.274015
 0.070000   0.742481   -0.273722
 0.075000   0.741113   -0.273429
 0.080000   0.739747   -0.273136
 0.085000   0.738382   -0.272843
 0.090000   0.737018   -0.272549
 0.095000   0.735656   -0.272255
 0.100000   0.734296   -0.271961
 0.105000   0.732937   -0.271667
 0.110000   0.731579   -0.271372
 0.115000   0.730223   -0.271078
 0.120000   0.728868   -0.270783
 0.125000   0.727515   -0.270488
 0.130000   0.726163   -0.270192
 0.135000   0.724813   -0.269897
 0.140000   0.723464   -0.269601
 0.145000   0.722117   -0.269305
 0.150000   0.720771   -0.269008
 0.155000   0.719427   -0.268712
 0.160000   0.718084   -0.268415
 0.165000   0.716743   -0.268118
 0.170000   0.715403   -0.267821
 0.175000   0.714065   -0.267524
 0.180000   0.712728   -0.267226
 0.185000   0.711392   -0.266928
 0.190000   0.710059   -0.266631
 0.195000   0.708726   -0.266332
 0.200000   0.707395   -0.266034
 0.205000   0.706066   -0.265735
 0.210000   0.704738   -0.265437
 0.215000   0.703411   -0.265138
 0.220000   0.702087   -0.264839
 0.225000   0.700763   -0.264539
 0.230000   0.699441   -0.264240
 0.235000   0.698121   -0.263940
 0.240000   0.696802   -0.263640
 0.245000   0.695484   -0.263340
 0.250000   0.694168   -0.263040
 0.255000   0.692854   -0.262739
 0.260000   0.691541   -0.262439
 0.265000   0.690229   -0.262138
 0.270000   0.688920   -0.261837
 0.275000   0.687611   -0.261536
 0.280000   0.686304   -0.261235
 0.285000   0.684999   -0.260933
 0.290000   0.683695   -0.260631
 0.295000   0.682392   -0.260330
 0.300000   0.681092   -0.260028
 0.305000   0.679792   -0.259726
 0.310000   0.678494   -0.259423
 0.315000   0.677198   -0.259121
 0.320000   0.675903   -0.258818
 0.325000   0.674610   -0.258515
 0.330000   0.673318   -0.258212
 0.335000   0.672028   -0.257909
 0.340000   0.670739   -0.257606
 0.345000   0.669452   -0.257302
 0.350000   0.668166   -0.256999
 0.355000   0.666882   -0.256695
 0.360000   0.665599   -0.256391
 0.365000   0.664318   -0.256087
 0.370000   0.663038   -0.255783
 0.375000   0.661760   -0.255479
 0.380000   0.660483   -0.255174
 0.385000   0.659208   -0.254870
 0.390000   0.657935   -0.254565
 0.395000   0.656662   -0.254260
 0.400000   0.655392   -0.253955
 0.405000   0.654123   -0.253650
 0.410000   0.652855   -0.253345
 0.415000   0.651589   -0.253039
 0.420000   0.650325   -0.252734
 0.425000   0.649062   -0.252428
 0.430000   0.647801   -0.252123
 0.435000   0.646541   -0.251817
 0.440000   0.645283   -0.251511
 0.445000   0.644026   -0.251204
 0.450000   0.642771   -0.250898
 0.455000   0.641517   -0.250592
 0.460000   0.640265   -0.250285
 0.465000   0.639014   -0.249979
 0.470000   0.637765   -0.249672
 0.475000   0.636517   -0.249365
 0.480000   0.635271   -0.249058
 0.485000   0.634027   -0.248751
 0.490000   0.632784   -0.248444
 0.495000   0.631542   -0.248137
 0.500000   0.630302   -0.247829
 0.505000   0.629064   -0.247522
 0.510000   0.627827   -0.247214
 0.515000   0.626592   -0.246907
 0.520000   0.625358   -0.246599
 0.525000   0.624126   -0.246291
 0.530000   0.622895   -0.245983
 0.535000   0.621666   -0.245675
 0.540000   0.620438   -0.245367
 0.545000   0.619212   -0.245059
 0.550000   0.617988   -0.244750
 0.555000   0.616765   -0.244442
 0.560000   0.615543   -0.244133
 0.565000   0.614323   -0.243825
 0.570000   0.613105   -0.243516
 0.575000   0.611888   -0.243207
 0.580000   0.610673   -0.242899
 0.585000   0.609459   -0.242590
 0.590000   0.608247   -0.242281
 0.595000   0.607036   -0.241972
 0.600000   0.605827   -0.241662
 0.605000   0.604620   -0.241353
 0.610000   0.603414   -0.241044
 0.615000   0.602209   -0.240734
 0.620000   0.601007   -0.240425
 0.625000   0.599805   -0.240115
 0.630000   0.598605   -0.239805
 0.635000   0.597407   -0.239495
 0.640000   0.596210   -0.239185
 0.645000   0.595015   -0.238875
 0.650000   0.593822   -0.238565
 0.655000   0.592630   -0.238254
 0.660000   0.591439   -0.237943
 0.665000   0.590250   -0.237631
 0.670000   0.589063   -0.237319
 0.675000   0.587877   -0.237007
 0.680000   0.586693   -0.236693
 0.685000   0.585510   -0.236378
 0.690000   0.584329   -0.236062
 0.695000   0.583149   -0.235744
 0.700000   0.581972   -0.235423
 0.705000   0.580795   -0.235100
 0.710000   0.579621   -0.234771
 0.715000   0.578448   -0.234438
 0.720000   0.577276   -0.234097
 0.725000   0.576107   -0.233746
 0.730000   0.574939   -0.233383
 0.735000   0.573773   -0.233004
 0.740000   0.572609   -0.232603
 0.745000   0.571447   -0.232175
 0.750000   0.570287   -0.231711
 0.755000   0.569130   -0.231199
 0.760000   0.567975   -0.230627
 0.765000   0.566823   -0.229974
 0.770000   0.565675   -0.229219
 0.775000   0.564531   -0.228329
 0.780000   0.563392   -0.227265
 0.785000   0.562258   -0.225976
 0.790000   0.561132   -0.224397
 0.795000   0.560015   -0.222443
 0.800000   0.558908   -0.220007
 0.805000   0.557814   -0.216952
 0.810000   0.556738   -0.213105
 0.815000   0.555683   -0.208247
 0.820000   0.554656   -0.202101
 0.825000   0.553662   -0.194322
 0.830000   0.552712   -0.184480
 0.835000   0.551818   -0.172045
 0.840000   0.550992   -0.156371
 0.845000   0.550254   -0.136674
 0.850000   0.549625   -0.112024
 0.855000   0.549134   -0.081336
 0.860000   0.548812   -0.043381
 0.865000   0.548700   0.003174
 0.870000   0.548844   0.059681
 0.875000   0.549297   0.127339
 0.880000   0.550117   0.206884
 0.885000   0.551365   0.298073
 0.890000   0.553098   0.398833
 0.895000   0.555354   0.503904
 0.900000   0.558137   0.602780
 0.905000   0.561382   0.676712
 0.910000   0.564904   0.694683
 0.915000   0.568328   0.608723
 0.920000   0.570991   0.350063
 0.925000   0.571829   -0.170174
 0.930000   0.569289   -1.049033
 0.935000   0.561339   -2.360051
 0.940000   0.545689   -4.098712
 0.945000   0.520352   -6.121194
 0.950000   0.484477   -8.121481
 0.955000   0.439137   -9.699065
 0.960000   0.387486   -10.516129
 0.965000   0.333976   -10.453089
 0.970000   0.282955   -9.647451
 0.975000   0.237501   -8.394501
 0.980000   0.199010   -6.999344
 0.985000   0.167508   -5.679220
 0.990000   0.142218   -4.543427
 0.995000   0.122073   -3.620313
 1.000000   0.106015   -2.802957
201 psinorm te(KeV) dte/dpsiN
 0.000000   3.891543   -2.440847
 0.005000   3.879273   -2.467145
 0.010000   3.866871   -2.493291
 0.015000   3.854340   -2.519135
 0.020000   3.841680   -2.544673
 0.025000   3.828893   -2.569903
 0.030000   3.815981   -2.594822
 0.035000   3.802945   -2.619429
 0.040000   3.789787   -2.643721
 0.045000   3.776508   -2.667697
 0.050000   3.763110   -2.691353
 0.055000   3.749594   -2.714688
 0.060000   3.735963   -2.737701
 0.065000   3.722217   -2.760389
 0.070000   3.708359   -2.782751
 0.075000   3.694390   -2.804784
 0.080000   3.680311   -2.826487
 0.085000   3.666125   -2.847859
 0.090000   3.651833   -2.868898
 0.095000   3.637436   -2.889603
 0.100000   3.622936   -2.909972
 0.105000   3.608336   -2.930003
 0.110000   3.593636   -2.949696
 0.115000   3.578839   -2.969049
 0.120000   3.563946   -2.988061
 0.125000   3.548959   -3.006731
 0.130000   3.533879   -3.025059
 0.135000   3.518708   -3.043042
 0.140000   3.503448   -3.060680
 0.145000   3.488101   -3.077973
 0.150000   3.472669   -3.094920
 0.155000   3.457152   -3.111519
 0.160000   3.441553   -3.127770
 0.165000   3.425874   -3.143673
 0.170000   3.410117   -3.159228
 0.175000   3.394282   -3.174433
 0.180000   3.378372   -3.189288
 0.185000   3.362389   -3.203793
 0.190000   3.346334   -3.217948
 0.195000   3.330210   -3.231753
 0.200000   3.314017   -3.245207
 0.205000   3.297758   -3.258310
 0.210000   3.281434   -3.271063
 0.215000   3.265047   -3.283465
 0.220000   3.248599   -3.295517
 0.225000   3.232092   -3.307219
 0.230000   3.215527   -3.318570
 0.235000   3.198906   -3.329572
 0.240000   3.182231   -3.340224
 0.245000   3.165504   -3.350527
 0.250000   3.148726   -3.360482
 0.255000   3.131899   -3.370089
 0.260000   3.115025   -3.379348
 0.265000   3.098106   -3.388261
 0.270000   3.081142   -3.396828
 0.275000   3.064137   -3.405050
 0.280000   3.047092   -3.412927
 0.285000   3.030008   -3.420460
 0.290000   3.012887   -3.427651
 0.295000   2.995731   -3.434501
 0.300000   2.978542   -3.441009
 0.305000   2.961321   -3.447179
 0.310000   2.944070   -3.453010
 0.315000   2.926791   -3.458504
 0.320000   2.909485   -3.463662
 0.325000   2.892155   -3.468485
 0.330000   2.874801   -3.472976
 0.335000   2.857425   -3.477134
 0.340000   2.840029   -3.480962
 0.345000   2.822615   -3.484462
 0.350000   2.805185   -3.487634
 0.355000   2.787739   -3.490480
 0.360000   2.770280   -3.493003
 0.365000   2.752809   -3.495203
 0.370000   2.735328   -3.497082
 0.375000   2.717838   -3.498643
 0.380000   2.700341   -3.499887
 0.385000   2.682839   -3.500816
 0.390000   2.665333   -3.501431
 0.395000   2.647825   -3.501736
 0.400000   2.630316   -3.501731
 0.405000   2.612808   -3.501419
 0.410000   2.595302   -3.500802
 0.415000   2.577800   -3.499882
 0.420000   2.560303   -3.498661
 0.425000   2.542813   -3.497142
 0.430000   2.525331   -3.495326
 0.435000   2.507860   -3.493217
 0.440000   2.490399   -3.490815
 0.445000   2.472952   -3.488125
 0.450000   2.455518   -3.485147
 0.455000   2.438100   -3.481885
 0.460000   2.420699   -3.478340
 0.465000   2.403317   -3.474516
 0.470000   2.385954   -3.470415
 0.475000   2.368613   -3.466039
 0.480000   2.351294   -3.461391
 0.485000   2.333999   -3.456473
 0.490000   2.316729   -3.451289
 0.495000   2.299486   -3.445841
 0.500000   2.282270   -3.440131
 0.505000   2.265084   -3.434162
 0.510000   2.247929   -3.427937
 0.515000   2.230805   -3.421460
 0.520000   2.213714   -3.414731
 0.525000   2.196658   -3.407755
 0.530000   2.179637   -3.400534
 0.535000   2.162652   -3.393071
 0.540000   2.145706   -3.385369
 0.545000   2.128799   -3.377431
 0.550000   2.111932   -3.369259
 0.555000   2.095106   -3.360857
 0.560000   2.078323   -3.352228
 0.565000   2.061584   -3.343374
 0.570000   2.044889   -3.334299
 0.575000   2.028241   -3.325005
 0.580000   2.011639   -3.315495
 0.585000   1.995086   -3.305774
 0.590000   1.978582   -3.295842
 0.595000   1.962127   -3.285705
 0.600000   1.945725   -3.275364
 0.605000   1.929374   -3.264823
 0.610000   1.913076   -3.254086
 0.615000   1.896833   -3.243154
 0.620000   1.880645   -3.232032
 0.625000   1.864513   -3.220722
 0.630000   1.848438   -3.209228
 0.635000   1.832420   -3.197553
 0.640000   1.816462   -3.185700
 0.645000   1.800563   -3.173673
 0.650000   1.784725   -3.161475
 0.655000   1.768949   -3.149109
 0.660000   1.753234   -3.136580
 0.665000   1.737583   -3.123889
 0.670000   1.721995   -3.111043
 0.675000   1.706472   -3.098043
 0.680000   1.691015   -3.084894
 0.685000   1.675623   -3.071600
 0.690000   1.660299   -3.058166
 0.695000   1.645042   -3.044597
 0.700000   1.629853   -3.030896
 0.705000   1.614733   -3.017070
 0.710000   1.599682   -3.003125
 0.715000   1.584702   -2.989066
 0.720000   1.569792   -2.974902
 0.725000   1.554953   -2.960641
 0.730000   1.540185   -2.946291
 0.735000   1.525490   -2.931865
 0.740000   1.510866   -2.917374
 0.745000   1.496316   -2.902833
 0.750000   1.481838   -2.888261
 0.755000   1.467433   -2.873678
 0.760000   1.453101   -2.859110
 0.765000   1.438842   -2.844588
 0.770000   1.424655   -2.830150
 0.775000   1.410541   -2.815842
 0.780000   1.396497   -2.801721
 0.785000   1.382523   -2.787859
 0.790000   1.368618   -2.774342
 0.795000   1.354780   -2.761282
 0.800000   1.341006   -2.748815
 0.805000   1.327292   -2.737113
 0.810000   1.313635   -2.726393
 0.815000   1.300028   -2.716928
 0.820000   1.286465   -2.709064
 0.825000   1.272937   -2.703236
 0.830000   1.259433   -2.699999
 0.835000   1.245937   -2.700058
 0.840000   1.232432   -2.704307
 0.845000   1.218894   -2.713887
 0.850000   1.205293   -2.730249
 0.855000   1.191592   -2.755244
 0.860000   1.177741   -2.791228
 0.865000   1.163680   -2.841202
 0.870000   1.149329   -2.908974
 0.875000   1.134590   -2.999373
 0.880000   1.119335   -3.118485
 0.885000   1.103405   -3.273944
 0.890000   1.086596   -3.475233
 0.895000   1.068653   -3.733995
 0.900000   1.049256   -4.064265
 0.905000   1.028010   -4.482543
 0.910000   1.004430   -5.007496
 0.915000   0.977935   -5.659002
 0.920000   0.947840   -6.456106
 0.925000   0.913374   -7.413312
 0.930000   0.873707   -8.534592
 0.935000   0.828028   -9.804741
 0.940000   0.775660   -11.178475
 0.945000   0.716243   -12.569422
 0.950000   0.649966   -13.843824
 0.955000   0.577805   -14.826563
 0.960000   0.501700   -15.327402
 0.965000   0.424531   -15.189339
 0.970000   0.349807   -14.347189
 0.975000   0.281059   -12.869214
 0.980000   0.221115   -10.952692
 0.985000   0.171532   -8.866202
 0.990000   0.132453   -6.865612
 0.995000   0.102876   -5.127682
 1.000000   0.081176   -3.552468
201 psinorm ni(10^20/m^3) dni/dpsiN
 0.000000   0.404445   -0.308562
 0.005000   0.402969   -0.281621
 0.010000   0.401629   -0.254457
 0.015000   0.400425   -0.228268
 0.020000   0.399346   -0.204280
 0.025000   0.398382   -0.182624
 0.030000   0.397520   -0.163065
 0.035000   0.396751   -0.145444
 0.040000   0.396065   -0.129930
 0.045000   0.395452   -0.115854
 0.050000   0.394907   -0.103698
 0.055000   0.394415   -0.093024
 0.060000   0.393976   -0.083416
 0.065000   0.393581   -0.075003
 0.070000   0.393226   -0.067620
 0.075000   0.392905   -0.061522
 0.080000   0.392611   -0.056233
 0.085000   0.392342   -0.051766
 0.090000   0.392094   -0.048150
 0.095000   0.391861   -0.045258
 0.100000   0.391641   -0.043032
 0.105000   0.391431   -0.041377
 0.110000   0.391227   -0.040388
 0.115000   0.391027   -0.040016
 0.120000   0.390827   -0.040087
 0.125000   0.390626   -0.040621
 0.130000   0.390421   -0.041578
 0.135000   0.390210   -0.042918
 0.140000   0.389992   -0.044612
 0.145000   0.389764   -0.046638
 0.150000   0.389525   -0.048968
 0.155000   0.389274   -0.051576
 0.160000   0.389010   -0.054437
 0.165000   0.388730   -0.057527
 0.170000   0.388434   -0.060836
 0.175000   0.388122   -0.064504
 0.180000   0.387789   -0.068370
 0.185000   0.387438   -0.072268
 0.190000   0.387067   -0.076346
 0.195000   0.386674   -0.080585
 0.200000   0.386261   -0.084936
 0.205000   0.385825   -0.089346
 0.210000   0.385367   -0.093785
 0.215000   0.384887   -0.098238
 0.220000   0.384385   -0.102965
 0.225000   0.383858   -0.107696
 0.230000   0.383308   -0.112191
 0.235000   0.382736   -0.116745
 0.240000   0.382140   -0.121386
 0.245000   0.381522   -0.126146
 0.250000   0.380879   -0.131212
 0.255000   0.380210   -0.136488
 0.260000   0.379514   -0.141763
 0.265000   0.378792   -0.147162
 0.270000   0.378042   -0.152733
 0.275000   0.377265   -0.158499
 0.280000   0.376457   -0.164563
 0.285000   0.375619   -0.170710
 0.290000   0.374750   -0.176777
 0.295000   0.373851   -0.182876
 0.300000   0.372922   -0.189003
 0.305000   0.371961   -0.195190
 0.310000   0.370970   -0.201239
 0.315000   0.369949   -0.207054
 0.320000   0.368899   -0.212736
 0.325000   0.367821   -0.218323
 0.330000   0.366716   -0.223855
 0.335000   0.365583   -0.229254
 0.340000   0.364423   -0.234546
 0.345000   0.363237   -0.239825
 0.350000   0.362025   -0.245121
 0.355000   0.360786   -0.250353
 0.360000   0.359522   -0.255460
 0.365000   0.358232   -0.260450
 0.370000   0.356917   -0.265282
 0.375000   0.355579   -0.269890
 0.380000   0.354218   -0.274202
 0.385000   0.352837   -0.278182
 0.390000   0.351436   -0.281800
 0.395000   0.350019   -0.285005
 0.400000   0.348586   -0.287788
 0.405000   0.347141   -0.290106
 0.410000   0.345685   -0.291957
 0.415000   0.344221   -0.293413
 0.420000   0.342751   -0.294521
 0.425000   0.341276   -0.295314
 0.430000   0.339798   -0.295796
 0.435000   0.338318   -0.295972
 0.440000   0.336838   -0.295882
 0.445000   0.335359   -0.295527
 0.450000   0.333883   -0.294831
 0.455000   0.332411   -0.293717
 0.460000   0.330946   -0.292100
 0.465000   0.329490   -0.289930
 0.470000   0.328047   -0.287129
 0.475000   0.326619   -0.283613
 0.480000   0.325210   -0.279370
 0.485000   0.323825   -0.274446
 0.490000   0.322466   -0.268873
 0.495000   0.321136   -0.262659
 0.500000   0.319839   -0.255835
 0.505000   0.318578   -0.248501
 0.510000   0.317354   -0.240745
 0.515000   0.316171   -0.232600
 0.520000   0.315028   -0.224108
 0.525000   0.313929   -0.215306
 0.530000   0.312875   -0.206243
 0.535000   0.311867   -0.196934
 0.540000   0.310906   -0.187353
 0.545000   0.309994   -0.177479
 0.550000   0.309131   -0.167295
 0.555000   0.308321   -0.156791
 0.560000   0.307563   -0.145973
 0.565000   0.306861   -0.134892
 0.570000   0.306214   -0.123601
 0.575000   0.305625   -0.112146
 0.580000   0.305093   -0.100575
 0.585000   0.304619   -0.088930
 0.590000   0.304204   -0.077250
 0.595000   0.303847   -0.065539
 0.600000   0.303548   -0.053802
 0.605000   0.303309   -0.042062
 0.610000   0.303128   -0.030333
 0.615000   0.303005   -0.018624
 0.620000   0.302941   -0.006932
 0.625000   0.302936   0.004672
 0.630000   0.302988   0.016114
 0.635000   0.303097   0.027365
 0.640000   0.303262   0.038391
 0.645000   0.303481   0.049115
 0.650000   0.303753   0.059460
 0.655000   0.304076   0.069454
 0.660000   0.304447   0.079584
 0.665000   0.304871   0.090714
 0.670000   0.305355   0.103535
 0.675000   0.305907   0.118474
 0.680000   0.306539   0.136850
 0.685000   0.307275   0.158091
 0.690000   0.308120   0.180028
 0.695000   0.309076   0.202278
 0.700000   0.310143   0.224504
 0.705000   0.311321   0.245980
 0.710000   0.312603   0.266894
 0.715000   0.313989   0.285427
 0.720000   0.315457   0.298933
 0.725000   0.316979   0.307456
 0.730000   0.318532   0.311116
 0.735000   0.320090   0.309607
 0.740000   0.321628   0.302368
 0.745000   0.323114   0.288990
 0.750000   0.324518   0.270863
 0.755000   0.325822   0.249589
 0.760000   0.327013   0.225979
 0.765000   0.328082   0.201092
 0.770000   0.329024   0.175327
 0.775000   0.329835   0.149780
 0.780000   0.330522   0.126942
 0.785000   0.331105   0.107314
 0.790000   0.331595   0.090242
 0.795000   0.332007   0.075852
 0.800000   0.332354   0.064163
 0.805000   0.332649   0.054993
 0.810000   0.332904   0.047556
 0.815000   0.333124   0.041227
 0.820000   0.333316   0.036168
 0.825000   0.333486   0.032776
 0.830000   0.333644   0.031558
 0.835000   0.333802   0.033114
 0.840000   0.333975   0.038101
 0.845000   0.334183   0.047330
 0.850000   0.334448   0.061840
 0.855000   0.334801   0.082838
 0.860000   0.335277   0.111728
 0.865000   0.335918   0.150224
 0.870000   0.336779   0.200044
 0.875000   0.337919   0.262497
 0.880000   0.339404   0.338498
 0.885000   0.341304   0.428121
 0.890000   0.343685   0.529698
 0.895000   0.346601   0.639558
 0.900000   0.350081   0.747910
 0.905000   0.354080   0.837338
 0.910000   0.358454   0.880796
 0.915000   0.362888   0.835755
 0.920000   0.366812   0.642510
 0.925000   0.369313   0.235170
 0.930000   0.369163   -0.459926
 0.935000   0.364714   -1.489938
 0.940000   0.354264   -2.811601
 0.945000   0.336598   -4.254489
 0.950000   0.311719   -5.521346
 0.955000   0.281384   -6.259030
 0.960000   0.249129   -6.322410
 0.965000   0.218160   -5.846726
 0.970000   0.190661   -5.092433
 0.975000   0.167236   -4.330373
 0.980000   0.147358   -3.699506
 0.985000   0.130241   -3.203670
 0.990000   0.115321   -2.793164
 0.995000   0.102309   -2.423356
 1.000000   0.091087   -2.065267
201 psinorm ti(KeV) dti/dpsiN
 0.000000   4.619793   0.006148
 0.005000   4.619298   -0.204392
 0.010000   4.617750   -0.424192
 0.015000   4.615056   -0.662018
 0.020000   4.611129   -0.916606
 0.025000   4.605890   -1.186061
 0.030000   4.599269   -1.467853
 0.035000   4.591211   -1.758919
 0.040000   4.581680   -2.054090
 0.045000   4.570670   -2.350202
 0.050000   4.558178   -2.645507
 0.055000   4.544215   -2.936366
 0.060000   4.528814   -3.220176
 0.065000   4.512014   -3.495160
 0.070000   4.493862   -3.757379
 0.075000   4.474440   -4.008499
 0.080000   4.453777   -4.251928
 0.085000   4.431921   -4.485590
 0.090000   4.408921   -4.709155
 0.095000   4.384829   -4.923129
 0.100000   4.359690   -5.126340
 0.105000   4.333566   -5.320138
 0.110000   4.306489   -5.506650
 0.115000   4.278499   -5.684547
 0.120000   4.249643   -5.852866
 0.125000   4.219970   -6.010697
 0.130000   4.189536   -6.155270
 0.135000   4.158418   -6.284342
 0.140000   4.126693   -6.398551
 0.145000   4.094432   -6.498080
 0.150000   4.061712   -6.582343
 0.155000   4.028609   -6.651310
 0.160000   3.995199   -6.703530
 0.165000   3.961573   -6.739045
 0.170000   3.927808   -6.761756
 0.175000   3.893956   -6.773410
 0.180000   3.860074   -6.774643
 0.185000   3.826209   -6.768296
 0.190000   3.792391   -6.757925
 0.195000   3.758630   -6.747635
 0.200000   3.724915   -6.737337
 0.205000   3.691257   -6.724418
 0.210000   3.657671   -6.708474
 0.215000   3.624172   -6.689510
 0.220000   3.590776   -6.668620
 0.225000   3.557486   -6.647689
 0.230000   3.524299   -6.621117
 0.235000   3.491275   -6.584462
 0.240000   3.458454   -6.539065
 0.245000   3.425884   -6.483926
 0.250000   3.393615   -6.418862
 0.255000   3.361695   -6.344087
 0.260000   3.330174   -6.256172
 0.265000   3.299134   -6.154404
 0.270000   3.268630   -6.041698
 0.275000   3.238717   -5.918530
 0.280000   3.209445   -5.785228
 0.285000   3.180864   -5.638909
 0.290000   3.153056   -5.482099
 0.295000   3.126044   -5.321016
 0.300000   3.099846   -5.157842
 0.305000   3.074465   -4.995147
 0.310000   3.049894   -4.834797
 0.315000   3.026117   -4.676155
 0.320000   3.003133   -4.523376
 0.325000   2.980883   -4.379342
 0.330000   2.959339   -4.241493
 0.335000   2.938468   -4.110049
 0.340000   2.918239   -3.985178
 0.345000   2.898617   -3.868215
 0.350000   2.879556   -3.759021
 0.355000   2.861026   -3.655485
 0.360000   2.843002   -3.556112
 0.365000   2.825465   -3.459201
 0.370000   2.808410   -3.363022
 0.375000   2.791835   -3.266031
 0.380000   2.775749   -3.166773
 0.385000   2.760167   -3.066179
 0.390000   2.745088   -2.966753
 0.395000   2.730500   -2.870065
 0.400000   2.716387   -2.777550
 0.405000   2.702724   -2.689400
 0.410000   2.689493   -2.607216
 0.415000   2.676652   -2.533054
 0.420000   2.664162   -2.466294
 0.425000   2.651989   -2.406305
 0.430000   2.640099   -2.352983
 0.435000   2.628459   -2.305955
 0.440000   2.617040   -2.265627
 0.445000   2.605803   -2.232586
 0.450000   2.594714   -2.206327
 0.455000   2.583740   -2.186408
 0.460000   2.572850   -2.172686
 0.465000   2.562013   -2.165325
 0.470000   2.551197   -2.163842
 0.475000   2.540375   -2.165919
 0.480000   2.529537   -2.169946
 0.485000   2.518675   -2.175871
 0.490000   2.507779   -2.183726
 0.495000   2.496838   -2.193536
 0.500000   2.485843   -2.205089
 0.505000   2.474787   -2.218526
 0.510000   2.463658   -2.233866
 0.515000   2.452448   -2.250687
 0.520000   2.441151   -2.268753
 0.525000   2.429761   -2.287672
 0.530000   2.418274   -2.306952
 0.535000   2.406691   -2.327150
 0.540000   2.395003   -2.348479
 0.545000   2.383207   -2.370311
 0.550000   2.371300   -2.392517
 0.555000   2.359281   -2.414939
 0.560000   2.347150   -2.437466
 0.565000   2.334907   -2.460436
 0.570000   2.322546   -2.483984
 0.575000   2.310067   -2.508120
 0.580000   2.297465   -2.533291
 0.585000   2.284734   -2.559987
 0.590000   2.271865   -2.590190
 0.595000   2.258832   -2.622620
 0.600000   2.245639   -2.654986
 0.605000   2.232282   -2.687739
 0.610000   2.218761   -2.720355
 0.615000   2.205079   -2.752262
 0.620000   2.191239   -2.785349
 0.625000   2.177225   -2.816203
 0.630000   2.163077   -2.841182
 0.635000   2.148813   -2.862156
 0.640000   2.134455   -2.878951
 0.645000   2.120024   -2.891498
 0.650000   2.105540   -2.901207
 0.655000   2.091012   -2.906665
 0.660000   2.076474   -2.905597
 0.665000   2.061956   -2.898208
 0.670000   2.047492   -2.883823
 0.675000   2.033118   -2.861942
 0.680000   2.018872   -2.830929
 0.685000   2.004808   -2.792548
 0.690000   1.990947   -2.751617
 0.695000   1.977292   -2.709746
 0.700000   1.963849   -2.667419
 0.705000   1.950618   -2.625426
 0.710000   1.937595   -2.583250
 0.715000   1.924785   -2.542707
 0.720000   1.912168   -2.506657
 0.725000   1.899719   -2.474696
 0.730000   1.887421   -2.446449
 0.735000   1.875254   -2.422334
 0.740000   1.863198   -2.403375
 0.745000   1.851221   -2.392441
 0.750000   1.839273   -2.390419
 0.755000   1.827316   -2.395062
 0.760000   1.815322   -2.404533
 0.765000   1.803271   -2.417438
 0.770000   1.791148   -2.433857
 0.775000   1.778932   -2.453281
 0.780000   1.766615   -2.472844
 0.785000   1.754204   -2.492469
 0.790000   1.741691   -2.514509
 0.795000   1.729059   -2.540768
 0.800000   1.716283   -2.574917
 0.805000   1.703310   -2.621791
 0.810000   1.690065   -2.679106
 0.815000   1.676519   -2.743811
 0.820000   1.662627   -2.816852
 0.825000   1.648350   -2.897136
 0.830000   1.633656   -2.984523
 0.835000   1.618505   -3.079949
 0.840000   1.602856   -3.178153
 0.845000   1.586723   -3.280002
 0.850000   1.570056   -3.393601
 0.855000   1.552787   -3.521458
 0.860000   1.534841   -3.666267
 0.865000   1.516125   -3.838068
 0.870000   1.496461   -4.027081
 0.875000   1.475854   -4.223232
 0.880000   1.454228   -4.435637
 0.885000   1.431498   -4.666930
 0.890000   1.407559   -4.921361
 0.895000   1.382284   -5.224902
 0.900000   1.355310   -5.561521
 0.905000   1.326669   -5.913190
 0.910000   1.296178   -6.302918
 0.915000   1.263640   -6.732351
 0.920000   1.228855   -7.199217
 0.925000   1.191647   -7.731841
 0.930000   1.151536   -8.280473
 0.935000   1.108843   -8.786027
 0.940000   1.063676   -9.263979
 0.945000   1.016203   -9.698171
 0.950000   0.966694   -10.066081
 0.955000   0.915542   -10.351611
 0.960000   0.863178   -10.507736
 0.965000   0.810465   -10.497208
 0.970000   0.758206   -10.320246
 0.975000   0.707262   -9.967854
 0.980000   0.658528   -9.439984
 0.985000   0.612862   -8.730868
 0.990000   0.571219   -7.877063
 0.995000   0.534092   -6.951903
 1.000000   0.501700   -6.004870
201 psinorm nb(10^20/m^3) dnb/dpsiN
 0.000000   0.048514   0.030738
 0.005000   0.048612   0.008464
 0.010000   0.048599   -0.013967
 0.015000   0.048473   -0.035296
 0.020000   0.048246   -0.054320
 0.025000   0.047929   -0.070934
 0.030000   0.047537   -0.085410
 0.035000   0.047075   -0.097942
 0.040000   0.046557   -0.108418
 0.045000   0.045991   -0.117535
 0.050000   0.045382   -0.124824
 0.055000   0.044743   -0.130754
 0.060000   0.044074   -0.135764
 0.065000   0.043385   -0.139743
 0.070000   0.042677   -0.142885
 0.075000   0.041956   -0.144912
 0.080000   0.041228   -0.146266
 0.085000   0.040494   -0.146956
 0.090000   0.039758   -0.146963
 0.095000   0.039024   -0.146413
 0.100000   0.038294   -0.145367
 0.105000   0.037570   -0.143911
 0.110000   0.036855   -0.141953
 0.115000   0.036151   -0.139566
 0.120000   0.035459   -0.136931
 0.125000   0.034782   -0.134027
 0.130000   0.034119   -0.130890
 0.135000   0.033473   -0.127555
 0.140000   0.032843   -0.124057
 0.145000   0.032232   -0.120432
 0.150000   0.031639   -0.116715
 0.155000   0.031065   -0.112932
 0.160000   0.030510   -0.109112
 0.165000   0.029974   -0.105280
 0.170000   0.029457   -0.101454
 0.175000   0.028959   -0.097500
 0.180000   0.028482   -0.093585
 0.185000   0.028023   -0.089877
 0.190000   0.027583   -0.086235
 0.195000   0.027161   -0.082673
 0.200000   0.026757   -0.079211
 0.205000   0.026369   -0.075859
 0.210000   0.025998   -0.072623
 0.215000   0.025643   -0.069504
 0.220000   0.025303   -0.066232
 0.225000   0.024980   -0.063055
 0.230000   0.024672   -0.060288
 0.235000   0.024378   -0.057694
 0.240000   0.024095   -0.055239
 0.245000   0.023825   -0.052914
 0.250000   0.023566   -0.050540
 0.255000   0.023320   -0.048222
 0.260000   0.023084   -0.046225
 0.265000   0.022858   -0.044443
 0.270000   0.022640   -0.042779
 0.275000   0.022430   -0.041194
 0.280000   0.022228   -0.039567
 0.285000   0.022034   -0.038104
 0.290000   0.021847   -0.036913
 0.295000   0.021665   -0.035813
 0.300000   0.021489   -0.034772
 0.305000   0.021317   -0.033715
 0.310000   0.021151   -0.032800
 0.315000   0.020989   -0.032094
 0.320000   0.020830   -0.031457
 0.325000   0.020675   -0.030845
 0.330000   0.020522   -0.030258
 0.335000   0.020372   -0.029791
 0.340000   0.020224   -0.029442
 0.345000   0.020078   -0.029144
 0.350000   0.019933   -0.028862
 0.355000   0.019789   -0.028640
 0.360000   0.019646   -0.028504
 0.365000   0.019504   -0.028402
 0.370000   0.019362   -0.028328
 0.375000   0.019221   -0.028292
 0.380000   0.019079   -0.028295
 0.385000   0.018938   -0.028323
 0.390000   0.018796   -0.028373
 0.395000   0.018654   -0.028459
 0.400000   0.018511   -0.028557
 0.405000   0.018368   -0.028648
 0.410000   0.018225   -0.028745
 0.415000   0.018081   -0.028865
 0.420000   0.017936   -0.028992
 0.425000   0.017791   -0.029100
 0.430000   0.017645   -0.029204
 0.435000   0.017499   -0.029321
 0.440000   0.017352   -0.029444
 0.445000   0.017205   -0.029550
 0.450000   0.017057   -0.029645
 0.455000   0.016908   -0.029739
 0.460000   0.016759   -0.029840
 0.465000   0.016610   -0.029934
 0.470000   0.016460   -0.030014
 0.475000   0.016310   -0.030092
 0.480000   0.016159   -0.030181
 0.485000   0.016008   -0.030267
 0.490000   0.015856   -0.030333
 0.495000   0.015704   -0.030397
 0.500000   0.015552   -0.030464
 0.505000   0.015400   -0.030526
 0.510000   0.015247   -0.030573
 0.515000   0.015094   -0.030612
 0.520000   0.014941   -0.030649
 0.525000   0.014788   -0.030691
 0.530000   0.014634   -0.030728
 0.535000   0.014480   -0.030751
 0.540000   0.014327   -0.030771
 0.545000   0.014173   -0.030790
 0.550000   0.014019   -0.030809
 0.555000   0.013865   -0.030827
 0.560000   0.013710   -0.030846
 0.565000   0.013556   -0.030867
 0.570000   0.013402   -0.030896
 0.575000   0.013247   -0.030929
 0.580000   0.013092   -0.030963
 0.585000   0.012937   -0.031002
 0.590000   0.012782   -0.031052
 0.595000   0.012627   -0.031114
 0.600000   0.012471   -0.031175
 0.605000   0.012315   -0.031239
 0.610000   0.012159   -0.031311
 0.615000   0.012002   -0.031405
 0.620000   0.011845   -0.031512
 0.625000   0.011687   -0.031614
 0.630000   0.011529   -0.031720
 0.635000   0.011370   -0.031833
 0.640000   0.011210   -0.031970
 0.645000   0.011050   -0.032118
 0.650000   0.010889   -0.032255
 0.655000   0.010728   -0.032394
 0.660000   0.010565   -0.032537
 0.665000   0.010402   -0.032696
 0.670000   0.010238   -0.032870
 0.675000   0.010073   -0.033038
 0.680000   0.009908   -0.033199
 0.685000   0.009741   -0.033365
 0.690000   0.009574   -0.033533
 0.695000   0.009406   -0.033725
 0.700000   0.009237   -0.033918
 0.705000   0.009067   -0.034086
 0.710000   0.008896   -0.034249
 0.715000   0.008724   -0.034408
 0.720000   0.008552   -0.034561
 0.725000   0.008379   -0.034718
 0.730000   0.008205   -0.034865
 0.735000   0.008030   -0.034983
 0.740000   0.007855   -0.035086
 0.745000   0.007679   -0.035177
 0.750000   0.007503   -0.035253
 0.755000   0.007327   -0.035316
 0.760000   0.007150   -0.035363
 0.765000   0.006973   -0.035396
 0.770000   0.006796   -0.035413
 0.775000   0.006619   -0.035416
 0.780000   0.006442   -0.035408
 0.785000   0.006265   -0.035389
 0.790000   0.006088   -0.035358
 0.795000   0.005911   -0.035307
 0.800000   0.005735   -0.035240
 0.805000   0.005559   -0.035159
 0.810000   0.005383   -0.035062
 0.815000   0.005208   -0.034947
 0.820000   0.005034   -0.034815
 0.825000   0.004860   -0.034666
 0.830000   0.004687   -0.034500
 0.835000   0.004515   -0.034319
 0.840000   0.004344   -0.034118
 0.845000   0.004174   -0.033898
 0.850000   0.004005   -0.033669
 0.855000   0.003837   -0.033434
 0.860000   0.003671   -0.033192
 0.865000   0.003505   -0.032946
 0.870000   0.003341   -0.032712
 0.875000   0.003178   -0.032505
 0.880000   0.003016   -0.032328
 0.885000   0.002855   -0.032178
 0.890000   0.002695   -0.032046
 0.895000   0.002535   -0.031913
 0.900000   0.002375   -0.031751
 0.905000   0.002217   -0.031521
 0.910000   0.002060   -0.031168
 0.915000   0.001905   -0.030623
 0.920000   0.001754   -0.029800
 0.925000   0.001607   -0.028623
 0.930000   0.001468   -0.027072
 0.935000   0.001337   -0.025214
 0.940000   0.001216   -0.023249
 0.945000   0.001104   -0.021526
 0.950000   0.001000   -0.020476
 0.955000   0.000899   -0.020374
 0.960000   0.000797   -0.021017
 0.965000   0.000689   -0.021679
 0.970000   0.000580   -0.021466
 0.975000   0.000475   -0.019839
 0.980000   0.000381   -0.017111
 0.985000   0.000303   -0.014371
 0.990000   0.000238   -0.012614
 0.995000   0.000177   -0.012596
 1.000000   0.000112   -0.013660
201 psinorm pb(KPa) dpb/dpsiN
 0.000000   19.858289   3.374719
 0.005000   19.853767   -5.183483
 0.010000   19.806454   -13.863283
 0.015000   19.715134   -21.889944
 0.020000   19.587555   -28.953100
 0.025000   19.425603   -35.311839
 0.030000   19.234437   -40.864123
 0.035000   19.016962   -45.627778
 0.040000   18.778159   -49.527703
 0.045000   18.521685   -52.868235
 0.050000   18.249476   -55.480886
 0.055000   17.966876   -57.555624
 0.060000   17.673920   -59.279572
 0.065000   17.374081   -60.602671
 0.070000   17.067893   -61.597626
 0.075000   16.758104   -62.131767
 0.080000   16.446576   -62.397580
 0.085000   16.134129   -62.448061
 0.090000   15.822095   -62.254176
 0.095000   15.511587   -61.850290
 0.100000   15.203592   -61.258161
 0.105000   14.899005   -60.533087
 0.110000   14.598261   -59.622290
 0.115000   14.302782   -58.528968
 0.120000   14.012972   -57.343236
 0.125000   13.729350   -56.059907
 0.130000   13.452373   -54.692785
 0.135000   13.182422   -53.257929
 0.140000   12.919793   -51.773364
 0.145000   12.664688   -50.248777
 0.150000   12.417306   -48.687541
 0.155000   12.177813   -47.102980
 0.160000   11.946276   -45.510160
 0.165000   11.722711   -43.918148
 0.170000   11.507094   -42.335159
 0.175000   11.299360   -40.708070
 0.180000   11.100014   -39.108027
 0.185000   10.908280   -37.594895
 0.190000   10.724065   -36.105136
 0.195000   10.547228   -34.650042
 0.200000   10.377564   -33.238498
 0.205000   10.214843   -31.874159
 0.210000   10.058823   -30.559119
 0.215000   9.909252   -29.294137
 0.220000   9.765881   -27.974584
 0.225000   9.629506   -26.689670
 0.230000   9.498985   -25.564305
 0.235000   9.373863   -24.516045
 0.240000   9.253824   -23.526965
 0.245000   9.138594   -22.590953
 0.250000   9.027915   -21.639931
 0.255000   8.922194   -20.713348
 0.260000   8.820781   -19.911860
 0.265000   8.723076   -19.193740
 0.270000   8.628844   -18.523500
 0.275000   8.537841   -17.889892
 0.280000   8.449945   -17.243929
 0.285000   8.365401   -16.656814
 0.290000   8.283377   -16.170903
 0.295000   8.203692   -15.720225
 0.300000   8.126174   -15.292940
 0.305000   8.050763   -14.861157
 0.310000   7.977563   -14.484636
 0.315000   7.905917   -14.187670
 0.320000   7.835686   -13.917465
 0.325000   7.766742   -13.658358
 0.330000   7.699103   -13.400704
 0.335000   7.632735   -13.187331
 0.340000   7.567229   -13.026855
 0.345000   7.502466   -12.888234
 0.350000   7.438347   -12.757983
 0.355000   7.374886   -12.650720
 0.360000   7.311840   -12.575375
 0.365000   7.249133   -12.513207
 0.370000   7.186708   -12.462395
 0.375000   7.124509   -12.427213
 0.380000   7.062436   -12.406860
 0.385000   7.000440   -12.395790
 0.390000   6.938478   -12.395681
 0.395000   6.876483   -12.411479
 0.400000   6.814363   -12.429183
 0.405000   6.752192   -12.439963
 0.410000   6.689963   -12.451976
 0.415000   6.627672   -12.473316
 0.420000   6.565230   -12.496590
 0.425000   6.502706   -12.511428
 0.430000   6.440116   -12.524410
 0.435000   6.377462   -12.542960
 0.440000   6.314686   -12.564066
 0.445000   6.251821   -12.578525
 0.450000   6.188901   -12.588570
 0.455000   6.125935   -12.597827
 0.460000   6.062923   -12.611437
 0.465000   5.999821   -12.624108
 0.470000   5.936682   -12.631593
 0.475000   5.873505   -12.639164
 0.480000   5.810290   -12.655251
 0.485000   5.746953   -12.669654
 0.490000   5.683593   -12.675051
 0.495000   5.620202   -12.682237
 0.500000   5.556771   -12.695877
 0.505000   5.493243   -12.705918
 0.510000   5.429712   -12.704616
 0.515000   5.366197   -12.700747
 0.520000   5.302704   -12.697299
 0.525000   5.239224   -12.699559
 0.530000   5.175709   -12.699934
 0.535000   5.112225   -12.692235
 0.540000   5.048787   -12.681572
 0.545000   4.985409   -12.669890
 0.550000   4.922088   -12.656329
 0.555000   4.858846   -12.640932
 0.560000   4.795678   -12.626704
 0.565000   4.732579   -12.615316
 0.570000   4.669525   -12.605210
 0.575000   4.606527   -12.592948
 0.580000   4.543596   -12.580101
 0.585000   4.480726   -12.568393
 0.590000   4.417912   -12.562435
 0.595000   4.355101   -12.560560
 0.600000   4.292306   -12.554775
 0.605000   4.229554   -12.547258
 0.610000   4.166834   -12.542567
 0.615000   4.104128   -12.547916
 0.620000   4.041354   -12.556838
 0.625000   3.978560   -12.560536
 0.630000   3.915749   -12.564192
 0.635000   3.852918   -12.568800
 0.640000   3.790061   -12.582009
 0.645000   3.727098   -12.598004
 0.650000   3.664081   -12.606910
 0.655000   3.601028   -12.614116
 0.660000   3.537940   -12.621235
 0.665000   3.474816   -12.632645
 0.670000   3.411613   -12.648197
 0.675000   3.348334   -12.658820
 0.680000   3.285025   -12.664367
 0.685000   3.221690   -12.669504
 0.690000   3.158330   -12.675033
 0.695000   3.094940   -12.688641
 0.700000   3.031444   -12.701040
 0.705000   2.967930   -12.702870
 0.710000   2.904415   -12.701876
 0.715000   2.840911   -12.698415
 0.720000   2.777431   -12.691717
 0.725000   2.713994   -12.685288
 0.730000   2.650578   -12.674194
 0.735000   2.587252   -12.652626
 0.740000   2.524052   -12.624613
 0.745000   2.461006   -12.591167
 0.750000   2.398140   -12.552305
 0.755000   2.335483   -12.507263
 0.760000   2.273067   -12.455854
 0.765000   2.210924   -12.400421
 0.770000   2.149063   -12.340697
 0.775000   2.087517   -12.275646
 0.780000   2.026307   -12.207169
 0.785000   1.965445   -12.135883
 0.790000   1.904948   -12.060796
 0.795000   1.844838   -11.979471
 0.800000   1.785153   -11.893258
 0.805000   1.725905   -11.803724
 0.810000   1.667116   -11.709460
 0.815000   1.608810   -11.610585
 0.820000   1.551010   -11.507374
 0.825000   1.493737   -11.400144
 0.830000   1.437009   -11.289403
 0.835000   1.380843   -11.175258
 0.840000   1.325256   -11.056795
 0.845000   1.270275   -10.934031
 0.850000   1.215916   -10.810217
 0.855000   1.162172   -10.686954
 0.860000   1.109046   -10.563635
 0.865000   1.056536   -10.441613
 0.870000   1.004630   -10.324926
 0.875000   0.953287   -10.217046
 0.880000   0.902460   -10.118062
 0.885000   0.852106   -10.027643
 0.890000   0.802183   -9.944167
 0.895000   0.752665   -9.863338
 0.900000   0.703550   -9.778199
 0.905000   0.654883   -9.677879
 0.910000   0.606771   -9.547904
 0.915000   0.559404   -9.368158
 0.920000   0.513089   -9.112356
 0.925000   0.468280   -8.755792
 0.930000   0.425532   -8.287718
 0.935000   0.385403   -7.720655
 0.940000   0.348325   -7.100897
 0.945000   0.314394   -6.515811
 0.950000   0.283167   -6.073797
 0.955000   0.253656   -5.850572
 0.960000   0.224661   -5.825832
 0.965000   0.195398   -5.868552
 0.970000   0.165976   -5.789302
 0.975000   0.137504   -5.443335
 0.980000   0.111542   -4.828790
 0.985000   0.089217   -4.102066
 0.990000   0.070522   -3.480133
 0.995000   0.054415   -3.295720
 1.000000   0.037564   -3.444600
201 psinorm ptot(KPa) dptot/dpsiN
 0.000000   101.100711   -66.535314
 0.005000   100.747197   -74.870234
 0.010000   100.352009   -83.369588
 0.015000   99.913501   -91.403765
 0.020000   99.437971   -98.744715
 0.025000   98.926054   -105.648446
 0.030000   98.381486   -111.977797
 0.035000   97.806276   -117.717607
 0.040000   97.204310   -122.768190
 0.045000   96.578594   -127.362756
 0.050000   95.930683   -131.355906
 0.055000   95.265035   -134.879973
 0.060000   94.581883   -138.072961
 0.065000   93.884305   -140.881906
 0.070000   93.173064   -143.339163
 0.075000   92.450914   -145.342516
 0.080000   91.719639   -147.074615
 0.085000   90.980168   -148.574010
 0.090000   90.233899   -149.810816
 0.095000   89.482060   -150.813416
 0.100000   88.725765   -151.590613
 0.105000   87.966153   -152.200130
 0.110000   87.203763   -152.610044
 0.115000   86.440053   -152.809812
 0.120000   85.675665   -152.869832
 0.125000   84.911355   -152.779302
 0.130000   84.147872   -152.529148
 0.135000   83.386063   -152.116383
 0.140000   82.626708   -151.561169
 0.145000   81.870451   -150.872380
 0.150000   81.117985   -150.046918
 0.155000   80.369982   -149.096021
 0.160000   79.627024   -148.022584
 0.165000   78.889756   -146.834352
 0.170000   78.158681   -145.566106
 0.175000   77.434095   -144.185559
 0.180000   76.716825   -142.757912
 0.185000   76.006516   -141.352717
 0.190000   75.303298   -139.940369
 0.195000   74.607113   -138.559661
 0.200000   73.917701   -137.216001
 0.205000   73.234953   -135.892070
 0.210000   72.558781   -134.585701
 0.215000   71.889096   -133.297083
 0.220000   71.225810   -131.944242
 0.225000   70.569653   -130.614255
 0.230000   69.919667   -129.378983
 0.235000   69.275863   -128.142167
 0.240000   68.638246   -126.897140
 0.245000   68.006892   -125.632858
 0.250000   67.381917   -124.290489
 0.255000   66.763987   -122.905827
 0.260000   66.152859   -121.544740
 0.265000   65.548540   -120.167862
 0.270000   64.951180   -118.763494
 0.275000   64.360905   -117.325517
 0.280000   63.777925   -115.813184
 0.285000   63.202773   -114.267899
 0.290000   62.635246   -112.742279
 0.295000   62.075350   -111.219795
 0.300000   61.523048   -109.704062
 0.305000   60.978309   -108.186948
 0.310000   60.441179   -106.731746
 0.315000   59.910992   -105.354569
 0.320000   59.387633   -104.036082
 0.325000   58.870631   -102.781886
 0.330000   58.359814   -101.566774
 0.335000   57.854963   -100.431267
 0.340000   57.355501   -99.386139
 0.345000   56.861102   -98.413190
 0.350000   56.371370   -97.499164
 0.355000   55.886110   -96.641219
 0.360000   55.404957   -95.835851
 0.365000   54.927752   -95.054058
 0.370000   54.454417   -94.281476
 0.375000   53.984937   -93.510168
 0.380000   53.519315   -92.727868
 0.385000   53.057658   -91.934426
 0.390000   52.599971   -91.146957
 0.395000   52.146189   -90.378895
 0.400000   51.696182   -89.625427
 0.405000   51.249935   -88.877673
 0.410000   50.807405   -88.153711
 0.415000   50.368397   -87.476918
 0.420000   49.932636   -86.837441
 0.425000   49.500023   -86.221975
 0.430000   49.070416   -85.636153
 0.435000   48.643662   -85.084779
 0.440000   48.219568   -84.568469
 0.445000   47.797977   -84.081421
 0.450000   47.378754   -83.619627
 0.455000   46.961781   -83.180960
 0.460000   46.546945   -82.766421
 0.465000   46.134116   -82.369836
 0.470000   45.723246   -81.981332
 0.475000   45.314303   -81.589109
 0.480000   44.907355   -81.191709
 0.485000   44.502386   -80.780502
 0.490000   44.099550   -80.349856
 0.495000   43.698887   -79.911152
 0.500000   43.300439   -79.469061
 0.505000   42.904197   -79.017996
 0.510000   42.510259   -78.553533
 0.515000   42.118661   -78.083191
 0.520000   41.729427   -77.610192
 0.525000   41.342560   -77.138876
 0.530000   40.958038   -76.660706
 0.535000   40.575952   -76.173489
 0.540000   40.196303   -75.682868
 0.545000   39.819124   -75.186759
 0.550000   39.444435   -74.683290
 0.555000   39.072291   -74.171576
 0.560000   38.702720   -73.654541
 0.565000   38.335745   -73.137675
 0.570000   37.971343   -72.622125
 0.575000   37.609524   -72.106180
 0.580000   37.250281   -71.595662
 0.585000   36.893568   -71.096528
 0.590000   36.539316   -70.625888
 0.595000   36.187309   -70.175105
 0.600000   35.837565   -69.723630
 0.605000   35.490072   -69.277061
 0.610000   35.144794   -68.837576
 0.615000   34.801697   -68.409562
 0.620000   34.460699   -67.997322
 0.625000   34.121723   -67.575198
 0.630000   33.784947   -67.130202
 0.635000   33.450421   -66.674678
 0.640000   33.118200   -66.216228
 0.645000   32.788259   -65.750805
 0.650000   32.460692   -65.278619
 0.655000   32.135473   -64.796054
 0.660000   31.812731   -64.278271
 0.665000   31.492690   -63.707149
 0.670000   31.175660   -63.060581
 0.675000   30.862084   -62.316438
 0.680000   30.552495   -61.431351
 0.685000   30.247771   -60.437145
 0.690000   29.948124   -59.421081
 0.695000   29.653560   -58.410066
 0.700000   29.364023   -57.406321
 0.705000   29.079497   -56.423585
 0.710000   28.799787   -55.460924
 0.715000   28.524888   -54.574755
 0.720000   28.254040   -53.846415
 0.725000   27.986424   -53.272667
 0.730000   27.721313   -52.840370
 0.735000   27.458020   -52.550852
 0.740000   27.195805   -52.424860
 0.745000   26.933771   -52.486949
 0.750000   26.670935   -52.704979
 0.755000   26.406721   -53.023464
 0.760000   26.140701   -53.410077
 0.765000   25.872621   -53.832061
 0.770000   25.602380   -54.279057
 0.775000   25.329830   -54.720216
 0.780000   25.055178   -55.081628
 0.785000   24.779014   -55.352606
 0.790000   24.501652   -55.562569
 0.795000   24.223388   -55.717487
 0.800000   23.944477   -55.840493
 0.805000   23.664983   -55.966074
 0.810000   23.384816   -56.096682
 0.815000   23.104016   -56.227107
 0.820000   22.822545   -56.357470
 0.825000   22.540442   -56.470272
 0.830000   22.257842   -56.551392
 0.835000   21.974928   -56.590634
 0.840000   21.691936   -56.539331
 0.845000   21.409534   -56.383452
 0.850000   21.128101   -56.151910
 0.855000   20.848015   -55.838367
 0.860000   20.569718   -55.436519
 0.865000   20.293650   -54.987756
 0.870000   20.019840   -54.431496
 0.875000   19.749335   -53.732343
 0.880000   19.482517   -53.002350
 0.885000   19.219312   -52.373901
 0.890000   18.958778   -52.083303
 0.895000   18.698479   -52.623975
 0.900000   18.432538   -54.463816
 0.905000   18.153840   -58.344186
 0.910000   17.849096   -65.600998
 0.915000   17.497831   -77.870835
 0.920000   17.070388   -97.114979
 0.925000   16.526681   -125.395773
 0.930000   15.816430   -163.669455
 0.935000   14.889986   -210.897621
 0.940000   13.707454   -262.840702
 0.945000   12.261579   -310.781916
 0.950000   10.599635   -343.165205
 0.955000   8.829927   -349.788115
 0.960000   7.101754   -328.093773
 0.965000   5.548989   -284.814316
 0.970000   4.253610   -231.514971
 0.975000   3.233840   -179.214786
 0.980000   2.461463   -134.492822
 0.985000   1.888911   -99.306138
 0.990000   1.468401   -72.988579
 0.995000   1.159026   -54.093543
 1.000000   0.927466   -38.530406
201 psinorm omeg(kRad/s) domeg/dpsiN
 0.000000   83.099794   0.012920
 0.005000   83.099434   -0.156837
 0.010000   83.098225   -0.347221
 0.015000   83.095962   -0.580908
 0.020000   83.092416   -0.861148
 0.025000   83.087350   -1.189644
 0.030000   83.080520   -1.566608
 0.035000   83.071684   -1.990567
 0.040000   83.060614   -2.455178
 0.045000   83.047132   -2.955294
 0.050000   83.031061   -3.487425
 0.055000   83.012258   -4.044959
 0.060000   82.990612   -4.622401
 0.065000   82.966034   -5.215768
 0.070000   82.938454   -5.814306
 0.075000   82.907891   -6.420083
 0.080000   82.874253   -7.039574
 0.085000   82.837495   -7.665443
 0.090000   82.797599   -8.295060
 0.095000   82.754545   -8.928978
 0.100000   82.708309   -9.561588
 0.105000   82.658929   -10.208155
 0.110000   82.606227   -10.895369
 0.115000   82.549975   -11.630499
 0.120000   82.489922   -12.419208
 0.125000   82.425783   -13.265949
 0.130000   82.357263   -14.173346
 0.135000   82.284050   -15.135203
 0.140000   82.205911   -16.140128
 0.145000   82.122648   -17.187312
 0.150000   82.034038   -18.277231
 0.155000   81.939876   -19.404035
 0.160000   81.839997   -20.560262
 0.165000   81.734273   -21.727005
 0.170000   81.622727   -22.885071
 0.175000   81.505423   -24.030957
 0.180000   81.382418   -25.162701
 0.185000   81.253796   -26.275828
 0.190000   81.119660   -27.358266
 0.195000   80.980213   -28.381762
 0.200000   80.835842   -29.337455
 0.205000   80.686839   -30.220546
 0.210000   80.533636   -31.013869
 0.215000   80.376700   -31.713126
 0.220000   80.216505   -32.298569
 0.225000   80.053714   -32.739645
 0.230000   79.889109   -33.107469
 0.235000   79.722639   -33.438858
 0.240000   79.554720   -33.691037
 0.245000   79.385729   -33.875102
 0.250000   79.215969   -33.999410
 0.255000   79.045735   -34.065507
 0.260000   78.875314   -34.187734
 0.265000   78.703858   -34.429057
 0.270000   78.531024   -34.750073
 0.275000   78.356357   -35.169125
 0.280000   78.179332   -35.695851
 0.285000   77.999398   -36.321949
 0.290000   77.816113   -36.969590
 0.295000   77.629703   -37.578157
 0.300000   77.440331   -38.155118
 0.305000   77.248151   -38.702104
 0.310000   77.053310   -39.219060
 0.315000   76.855961   -39.700983
 0.320000   76.656300   -40.142493
 0.325000   76.454536   -40.544922
 0.330000   76.250851   -40.910292
 0.335000   76.045433   -41.238334
 0.340000   75.838468   -41.529287
 0.345000   75.630140   -41.771080
 0.350000   75.420757   -41.974651
 0.355000   75.210394   -42.155909
 0.360000   74.999198   -42.299794
 0.365000   74.787396   -42.391380
 0.370000   74.575284   -42.415616
 0.375000   74.363239   -42.324650
 0.380000   74.152038   -42.128025
 0.385000   73.941959   -41.886832
 0.390000   73.733169   -41.632322
 0.395000   73.525636   -41.418655
 0.400000   73.318983   -41.317536
 0.405000   73.112461   -41.437726
 0.410000   72.904605   -41.863576
 0.415000   72.693825   -42.550793
 0.420000   72.479098   -43.436006
 0.425000   72.259465   -44.495965
 0.430000   72.034138   -45.694284
 0.435000   71.802522   -47.084784
 0.440000   71.563290   -48.608094
 0.445000   71.316441   -50.049374
 0.450000   71.062796   -51.378469
 0.455000   70.802656   -52.630689
 0.460000   70.536489   -53.772791
 0.465000   70.264928   -54.812494
 0.470000   69.988364   -55.671448
 0.475000   69.708214   -56.202283
 0.480000   69.426342   -56.445373
 0.485000   69.143760   -56.521782
 0.490000   68.861124   -56.504451
 0.495000   68.578716   -56.472944
 0.500000   68.296394   -56.485614
 0.505000   68.013860   -56.521218
 0.510000   67.731182   -56.555856
 0.515000   67.448301   -56.600727
 0.520000   67.165175   -56.651632
 0.525000   66.881785   -56.717534
 0.530000   66.598000   -56.818199
 0.535000   66.313603   -56.892842
 0.540000   66.029071   -56.908280
 0.545000   65.744520   -56.899637
 0.550000   65.460075   -56.865125
 0.555000   65.175869   -56.808727
 0.560000   64.891988   -56.743211
 0.565000   64.608437   -56.627865
 0.570000   64.325709   -56.445192
 0.575000   64.043985   -56.229394
 0.580000   63.763415   -55.987997
 0.585000   63.484105   -55.731461
 0.590000   63.206100   -55.453025
 0.595000   62.929574   -55.173178
 0.600000   62.654369   -54.923514
 0.605000   62.380339   -54.707283
 0.610000   62.107296   -54.533683
 0.615000   61.835002   -54.411563
 0.620000   61.563180   -54.321904
 0.625000   61.291783   -54.306121
 0.630000   61.020119   -54.406919
 0.635000   60.747714   -54.607623
 0.640000   60.474043   -54.925285
 0.645000   60.198461   -55.387764
 0.650000   59.920165   -56.071138
 0.655000   59.637750   -57.020218
 0.660000   59.349963   -58.153074
 0.665000   59.056219   -59.347891
 0.670000   58.756484   -60.501483
 0.675000   58.451204   -61.526578
 0.680000   58.141218   -62.317662
 0.685000   57.828028   -62.909907
 0.690000   57.512119   -63.473313
 0.695000   57.193295   -64.075829
 0.700000   56.871361   -64.725567
 0.705000   56.546039   -65.436615
 0.710000   56.216995   -66.203806
 0.715000   55.884001   -67.077497
 0.720000   55.546220   -68.107848
 0.725000   55.202922   -69.271573
 0.730000   54.853504   -70.558145
 0.735000   54.497341   -71.975960
 0.740000   54.133744   -73.621128
 0.745000   53.761130   -75.727099
 0.750000   53.376473   -78.375116
 0.755000   52.977379   -81.467297
 0.760000   52.561800   -84.905991
 0.765000   52.128319   -88.565611
 0.770000   51.676144   -92.479693
 0.775000   51.203522   -96.581540
 0.780000   50.710329   -100.410323
 0.785000   50.199418   -103.843405
 0.790000   49.671895   -107.103927
 0.795000   49.128379   -110.319571
 0.800000   48.568699   -113.858017
 0.805000   47.989799   -118.193124
 0.810000   47.386768   -122.847894
 0.815000   46.761320   -127.345274
 0.820000   46.113315   -131.773094
 0.825000   45.443589   -135.939742
 0.830000   44.753918   -139.810738
 0.835000   44.045482   -143.519263
 0.840000   43.318725   -146.470401
 0.845000   42.580778   -148.743411
 0.850000   41.831291   -151.291284
 0.855000   41.067865   -154.521037
 0.860000   40.286081   -158.930317
 0.865000   39.478562   -165.495401
 0.870000   38.631127   -173.918445
 0.875000   37.739377   -184.122057
 0.880000   36.789906   -197.250738
 0.885000   35.766870   -213.684020
 0.890000   34.653066   -233.531745
 0.895000   33.431552   -257.024624
 0.900000   32.082820   -282.446553
 0.905000   30.607087   -307.679139
 0.910000   29.006028   -331.484829
 0.915000   27.292239   -351.543999
 0.920000   25.490588   -365.417892
 0.925000   23.638060   -370.622532
 0.930000   21.784363   -365.177161
 0.935000   19.986288   -348.860778
 0.940000   18.295755   -322.991320
 0.945000   16.756375   -289.728097
 0.950000   15.398474   -252.016188
 0.955000   14.236213   -212.655824
 0.960000   13.271916   -175.354455
 0.965000   12.482668   -143.236927
 0.970000   11.839547   -117.312290
 0.975000   11.309546   -98.179792
 0.980000   10.857749   -85.884479
 0.985000   10.450701   -79.544302
 0.990000   10.062306   -78.195144
 0.995000   9.668749   -80.860027
 1.000000   9.253705   -85.157531
201 psinorm omegp(kRad/s) domegp/dpsiN
 0.000000   0.001150   143.030170
 0.005000   0.570315   84.635712
 0.010000   0.847507   52.053723
 0.015000   1.090852   47.573934
 0.020000   1.323246   45.711573
 0.025000   1.547967   44.095731
 0.030000   1.764204   42.189481
 0.035000   1.969862   40.268085
 0.040000   2.166884   38.455146
 0.045000   2.354414   36.362915
 0.050000   2.530514   34.379372
 0.055000   2.698207   32.673937
 0.060000   2.857253   30.958240
 0.065000   3.007790   29.288456
 0.070000   3.150138   27.792370
 0.075000   3.285714   26.351578
 0.080000   3.413653   24.773458
 0.085000   3.533448   23.248786
 0.090000   3.646141   21.745467
 0.095000   3.750903   20.413948
 0.100000   3.850281   19.447929
 0.105000   3.945382   18.761976
 0.110000   4.037900   18.360952
 0.115000   4.128992   18.203525
 0.120000   4.219936   18.267948
 0.125000   4.311671   18.334415
 0.130000   4.403280   18.413737
 0.135000   4.495808   18.408865
 0.140000   4.587368   18.181128
 0.145000   4.677620   17.806194
 0.150000   4.765430   17.057167
 0.155000   4.848191   15.878517
 0.160000   4.924216   14.281011
 0.165000   4.991002   12.442412
 0.170000   5.048640   10.332009
 0.175000   5.094322   7.982416
 0.180000   5.128464   5.627636
 0.185000   5.150598   3.371839
 0.190000   5.162182   1.315307
 0.195000   5.163751   -0.599431
 0.200000   5.156188   -2.176142
 0.205000   5.141990   -3.564206
 0.210000   5.120546   -4.807981
 0.215000   5.093910   -5.822792
 0.220000   5.062318   -6.920856
 0.225000   5.024701   -7.918657
 0.230000   4.983131   -8.893544
 0.235000   4.935766   -9.968967
 0.240000   4.883442   -10.965611
 0.245000   4.826110   -11.995298
 0.250000   4.763489   -12.938366
 0.255000   4.696726   -13.913907
 0.260000   4.624350   -15.058771
 0.265000   4.546138   -16.256487
 0.270000   4.461785   -17.685236
 0.275000   4.369286   -19.450321
 0.280000   4.267282   -21.332583
 0.285000   4.155960   -23.459247
 0.290000   4.032689   -25.973918
 0.295000   3.896221   -28.620275
 0.300000   3.746486   -31.345756
 0.305000   3.582763   -34.077974
 0.310000   3.405707   -36.619237
 0.315000   3.216571   -38.962939
 0.320000   3.016077   -40.880171
 0.325000   2.807769   -42.100403
 0.330000   2.595073   -42.854092
 0.335000   2.379228   -43.331637
 0.340000   2.161757   -43.552706
 0.345000   1.943701   -43.784316
 0.350000   1.723914   -44.266033
 0.355000   1.501041   -45.215074
 0.360000   1.271763   -46.811940
 0.365000   1.032922   -48.987997
 0.370000   0.781883   -51.642459
 0.375000   0.516497   -54.662623
 0.380000   0.235257   -57.884313
 0.385000   -0.062346   -60.775498
 0.390000   -0.372498   -63.270582
 0.395000   -0.695052   -65.993293
 0.400000   -1.032431   -69.454052
 0.405000   -1.389592   -74.067175
 0.410000   -1.773103   -80.732698
 0.415000   -2.196919   -88.736589
 0.420000   -2.660469   -96.885926
 0.425000   -3.165779   -105.166342
 0.430000   -3.712132   -113.054447
 0.435000   -4.296323   -120.236534
 0.440000   -4.914498   -126.173930
 0.445000   -5.558062   -129.195604
 0.450000   -6.206454   -128.693247
 0.455000   -6.844995   -125.067780
 0.460000   -7.457131   -118.218742
 0.465000   -8.027182   -108.238100
 0.470000   -8.539512   -95.353624
 0.475000   -8.980719   -81.363745
 0.480000   -9.353150   -67.939550
 0.485000   -9.660114   -55.580346
 0.490000   -9.908953   -44.609434
 0.495000   -10.106208   -34.919390
 0.500000   -10.258147   -27.207042
 0.505000   -10.378279   -22.081826
 0.510000   -10.478966   -18.749988
 0.515000   -10.565779   -16.380559
 0.520000   -10.642771   -14.760415
 0.525000   -10.713383   -13.423875
 0.530000   -10.777010   -12.060624
 0.535000   -10.833989   -10.775578
 0.540000   -10.884766   -9.515273
 0.545000   -10.929142   -8.178840
 0.550000   -10.966554   -6.763156
 0.555000   -10.996773   -5.408491
 0.560000   -11.020639   -4.031558
 0.565000   -11.037089   -2.532147
 0.570000   -11.045960   -1.072108
 0.575000   -11.047810   0.308775
 0.580000   -11.042873   1.670437
 0.585000   -11.031106   3.000394
 0.590000   -11.012869   4.177541
 0.595000   -10.989330   5.226177
 0.600000   -10.960607   6.193038
 0.605000   -10.927400   7.049751
 0.610000   -10.890109   7.765067
 0.615000   -10.849749   8.373642
 0.620000   -10.806373   8.939158
 0.625000   -10.760358   9.392466
 0.630000   -10.712448   9.773622
 0.635000   -10.662621   10.134188
 0.640000   -10.611106   10.428523
 0.645000   -10.558336   10.643976
 0.650000   -10.504667   10.809285
 0.655000   -10.450243   10.914114
 0.660000   -10.395526   10.971151
 0.665000   -10.340532   10.991308
 0.670000   -10.285612   10.968942
 0.675000   -10.230842   10.941948
 0.680000   -10.176193   10.891933
 0.685000   -10.121923   10.767010
 0.690000   -10.068523   10.572472
 0.695000   -10.016198   10.280408
 0.700000   -9.965719   9.864501
 0.705000   -9.917553   9.329450
 0.710000   -9.872424   8.643130
 0.715000   -9.831122   7.804158
 0.720000   -9.794383   6.834253
 0.725000   -9.762779   5.774551
 0.730000   -9.736637   4.655259
 0.735000   -9.716227   3.502792
 0.740000   -9.701609   2.371082
 0.745000   -9.692516   1.280103
 0.750000   -9.688808   0.233658
 0.755000   -9.690179   -0.822575
 0.760000   -9.697034   -2.012541
 0.765000   -9.710305   -3.493246
 0.770000   -9.731966   -5.369280
 0.775000   -9.763998   -7.746931
 0.780000   -9.809436   -10.667431
 0.785000   -9.870672   -14.093087
 0.790000   -9.950367   -18.189872
 0.795000   -10.052571   -22.646008
 0.800000   -10.176827   -26.915278
 0.805000   -10.321724   -30.861057
 0.810000   -10.485437   -34.314074
 0.815000   -10.664864   -37.054008
 0.820000   -10.855977   -38.564219
 0.825000   -11.050506   -38.688567
 0.830000   -11.242863   -37.792185
 0.835000   -11.428428   -36.061647
 0.840000   -11.603480   -33.558015
 0.845000   -11.764008   -30.409348
 0.850000   -11.907573   -27.016518
 0.855000   -12.034174   -24.174738
 0.860000   -12.149320   -22.126420
 0.865000   -12.255438   -20.634767
 0.870000   -12.355668   -19.847726
 0.875000   -12.453915   -19.621100
 0.880000   -12.551879   -19.532886
 0.885000   -12.649244   -19.323474
 0.890000   -12.745114   -18.956992
 0.895000   -12.838814   -18.164370
 0.900000   -12.926758   -16.368935
 0.905000   -13.002503   -13.059748
 0.910000   -13.057355   -5.712148
 0.915000   -13.059625   6.336182
 0.920000   -12.993993   22.035979
 0.925000   -12.839265   43.330448
 0.930000   -12.560689   76.155741
 0.935000   -12.077707   118.450069
 0.940000   -11.376188   158.738887
 0.945000   -10.490319   182.849627
 0.950000   -9.547692   169.517547
 0.955000   -8.795143   97.394449
 0.960000   -8.573747   -31.590458
 0.965000   -9.111048   -163.171959
 0.970000   -10.205467   -184.151910
 0.975000   -10.952567   17.973748
 0.980000   -10.025729   437.163929
 0.985000   -6.580928   883.690933
 0.990000   -1.188820   1079.414619
 0.995000   4.213219   864.925243
 1.000000   7.460432   433.960254
201 psinorm omgvb(kRad/s) domgvb/dpsiN
 0.000000   83.100944   143.043090
 0.005000   83.669749   84.478874
 0.010000   83.945732   51.706502
 0.015000   84.186814   46.993026
 0.020000   84.415663   44.850426
 0.025000   84.635318   42.906087
 0.030000   84.844723   40.622873
 0.035000   85.041547   38.277518
 0.040000   85.227499   35.999968
 0.045000   85.401546   33.407622
 0.050000   85.561575   30.891948
 0.055000   85.710466   28.628978
 0.060000   85.847865   26.335839
 0.065000   85.973824   24.072689
 0.070000   86.088592   21.978064
 0.075000   86.193605   19.931495
 0.080000   86.287906   17.733884
 0.085000   86.370944   15.583343
 0.090000   86.443740   13.450407
 0.095000   86.505448   11.484969
 0.100000   86.558590   9.886341
 0.105000   86.604311   8.553821
 0.110000   86.644128   7.465582
 0.115000   86.678967   6.573027
 0.120000   86.709858   5.848740
 0.125000   86.737454   5.068465
 0.130000   86.760543   4.240391
 0.135000   86.779858   3.273663
 0.140000   86.793279   2.040999
 0.145000   86.800268   0.618881
 0.150000   86.799468   -1.220064
 0.155000   86.788068   -3.525518
 0.160000   86.764213   -6.279252
 0.165000   86.725275   -9.284593
 0.170000   86.671367   -12.553062
 0.175000   86.599744   -16.048541
 0.180000   86.510882   -19.535065
 0.185000   86.404394   -22.903989
 0.190000   86.281842   -26.042959
 0.195000   86.143964   -28.981193
 0.200000   85.992030   -31.513597
 0.205000   85.828828   -33.784752
 0.210000   85.654182   -35.821849
 0.215000   85.470610   -37.535918
 0.220000   85.278823   -39.219425
 0.225000   85.078415   -40.658302
 0.230000   84.872240   -42.001013
 0.235000   84.658405   -43.407825
 0.240000   84.438162   -44.656649
 0.245000   84.211839   -45.870399
 0.250000   83.979458   -46.937776
 0.255000   83.742461   -47.979413
 0.260000   83.499664   -49.246504
 0.265000   83.249996   -50.685544
 0.270000   82.992808   -52.435309
 0.275000   82.725643   -54.619446
 0.280000   82.446614   -57.028434
 0.285000   82.155359   -59.781195
 0.290000   81.848802   -62.943507
 0.295000   81.525924   -66.198432
 0.300000   81.186818   -69.500873
 0.305000   80.830915   -72.780078
 0.310000   80.459017   -75.838297
 0.315000   80.072532   -78.663923
 0.320000   79.672378   -81.022664
 0.325000   79.262305   -82.645325
 0.330000   78.845924   -83.764384
 0.335000   78.424661   -84.569971
 0.340000   78.000225   -85.081993
 0.345000   77.573841   -85.555396
 0.350000   77.144671   -86.240684
 0.355000   76.711435   -87.370983
 0.360000   76.270961   -89.111734
 0.365000   75.820317   -91.379377
 0.370000   75.357167   -94.058074
 0.375000   74.879736   -96.987273
 0.380000   74.387294   -100.012338
 0.385000   73.879613   -102.662330
 0.390000   73.360671   -104.902904
 0.395000   72.830584   -107.411948
 0.400000   72.286552   -110.771588
 0.405000   71.722868   -115.504902
 0.410000   71.131503   -122.596273
 0.415000   70.496905   -131.287382
 0.420000   69.818629   -140.321932
 0.425000   69.093686   -149.662307
 0.430000   68.322006   -158.748730
 0.435000   67.506199   -167.321317
 0.440000   66.648792   -174.782024
 0.445000   65.758379   -179.244978
 0.450000   64.856343   -180.071715
 0.455000   63.957661   -177.698469
 0.460000   63.079358   -171.991533
 0.465000   62.237746   -163.050594
 0.470000   61.448852   -151.025072
 0.475000   60.727495   -137.566028
 0.480000   60.073192   -124.384923
 0.485000   59.483646   -112.102128
 0.490000   58.952170   -101.113885
 0.495000   58.472507   -91.392334
 0.500000   58.038247   -83.692656
 0.505000   57.635581   -78.603045
 0.510000   57.252217   -75.305843
 0.515000   56.882522   -72.981286
 0.520000   56.522404   -71.412048
 0.525000   56.168402   -70.141409
 0.530000   55.820990   -68.878823
 0.535000   55.479614   -67.668420
 0.540000   55.144306   -66.423554
 0.545000   54.815378   -65.078476
 0.550000   54.493521   -63.628281
 0.555000   54.179095   -62.217218
 0.560000   53.871349   -60.774769
 0.565000   53.571348   -59.160012
 0.570000   53.279748   -57.517301
 0.575000   52.996175   -55.920619
 0.580000   52.720542   -54.317559
 0.585000   52.452999   -52.731067
 0.590000   52.193232   -51.275484
 0.595000   51.940244   -49.947002
 0.600000   51.693762   -48.730475
 0.605000   51.452939   -47.657532
 0.610000   51.217186   -46.768617
 0.615000   50.985253   -46.037920
 0.620000   50.756807   -45.382746
 0.625000   50.531426   -44.913655
 0.630000   50.307671   -44.633297
 0.635000   50.085093   -44.473435
 0.640000   49.862936   -44.496762
 0.645000   49.640125   -44.743788
 0.650000   49.415498   -45.261853
 0.655000   49.187507   -46.106103
 0.660000   48.954437   -47.181923
 0.665000   48.715687   -48.356583
 0.670000   48.470871   -49.532541
 0.675000   48.220362   -50.584630
 0.680000   47.965025   -51.425730
 0.685000   47.706105   -52.142897
 0.690000   47.443596   -52.900841
 0.695000   47.177096   -53.795420
 0.700000   46.905642   -54.861065
 0.705000   46.628486   -56.107165
 0.710000   46.344570   -57.560676
 0.715000   46.052879   -59.273339
 0.720000   45.751837   -61.273595
 0.725000   45.440143   -63.497022
 0.730000   45.116867   -65.902886
 0.735000   44.781114   -68.473168
 0.740000   44.432135   -71.250046
 0.745000   44.068614   -74.446996
 0.750000   43.687665   -78.141458
 0.755000   43.287199   -82.289872
 0.760000   42.864766   -86.918532
 0.765000   42.418014   -92.058857
 0.770000   41.944178   -97.848972
 0.775000   41.439524   -104.328470
 0.780000   40.900893   -111.077753
 0.785000   40.328746   -117.936492
 0.790000   39.721528   -125.293799
 0.795000   39.075808   -132.965579
 0.800000   38.391872   -140.773295
 0.805000   37.668076   -149.054181
 0.810000   36.901331   -157.161968
 0.815000   36.096456   -164.399282
 0.820000   35.257338   -170.337313
 0.825000   34.393083   -174.628309
 0.830000   33.511055   -177.602922
 0.835000   32.617053   -179.580910
 0.840000   31.715246   -180.028415
 0.845000   30.816769   -179.152759
 0.850000   29.923718   -178.307802
 0.855000   29.033691   -178.695775
 0.860000   28.136760   -181.056738
 0.865000   27.223124   -186.130168
 0.870000   26.275459   -193.766171
 0.875000   25.285462   -203.743157
 0.880000   24.238027   -216.783625
 0.885000   23.117626   -233.007494
 0.890000   21.907952   -252.488737
 0.895000   20.592739   -275.188994
 0.900000   19.156062   -298.815488
 0.905000   17.604584   -320.738887
 0.910000   15.948673   -337.196977
 0.915000   14.232614   -345.207818
 0.920000   12.496595   -343.381914
 0.925000   10.798795   -327.292084
 0.930000   9.223674   -289.021420
 0.935000   7.908581   -230.410708
 0.940000   6.919567   -164.252433
 0.945000   6.266056   -106.878470
 0.950000   5.850782   -82.498641
 0.955000   5.441070   -115.261375
 0.960000   4.698169   -206.944913
 0.965000   3.371621   -306.408886
 0.970000   1.634080   -301.464200
 0.975000   0.356979   -80.206044
 0.980000   0.832019   351.279450
 0.985000   3.869773   804.146631
 0.990000   8.873486   1001.219475
 0.995000   13.881968   784.065216
 1.000000   16.714138   348.802722
201 psinorm omgpp(kRad/s) domgpp/dpsiN
 0.000000   -0.038886   -19.102086
 0.005000   -0.159632   -29.196338
 0.010000   -0.330849   -35.446868
 0.015000   -0.514100   -37.757557
 0.020000   -0.708425   -39.805433
 0.025000   -0.912155   -41.458460
 0.030000   -1.123009   -42.717709
 0.035000   -1.339332   -43.551844
 0.040000   -1.558528   -43.876140
 0.045000   -1.778093   -43.705245
 0.050000   -1.995580   -42.918922
 0.055000   -2.207282   -41.543511
 0.060000   -2.411015   -40.309289
 0.065000   -2.610375   -39.126670
 0.070000   -2.802282   -37.582477
 0.075000   -2.986200   -35.951421
 0.080000   -3.161796   -34.166770
 0.085000   -3.327868   -32.264615
 0.090000   -3.484442   -30.952331
 0.095000   -3.637391   -29.848814
 0.100000   -3.782930   -28.359099
 0.105000   -3.920982   -26.852219
 0.110000   -4.051453   -25.310585
 0.115000   -4.174088   -23.720102
 0.120000   -4.288654   -22.242527
 0.125000   -4.396513   -20.587480
 0.130000   -4.494528   -18.549333
 0.135000   -4.582006   -16.396918
 0.140000   -4.658498   -14.176418
 0.145000   -4.723771   -11.670421
 0.150000   -4.775202   -9.407596
 0.155000   -4.817847   -7.426338
 0.160000   -4.849465   -5.249403
 0.165000   -4.870341   -3.143658
 0.170000   -4.880902   -1.138299
 0.175000   -4.881724   0.986448
 0.180000   -4.871037   2.359695
 0.185000   -4.858127   2.912592
 0.190000   -4.841911   3.540049
 0.195000   -4.822726   4.113335
 0.200000   -4.800778   4.676513
 0.205000   -4.775961   4.877791
 0.210000   -4.752000   5.122864
 0.215000   -4.724732   5.802206
 0.220000   -4.693978   6.489046
 0.225000   -4.659842   7.229809
 0.230000   -4.621680   8.117794
 0.235000   -4.578664   8.816848
 0.240000   -4.533511   10.135028
 0.245000   -4.477314   12.206043
 0.250000   -4.411451   13.994361
 0.255000   -4.337370   15.643980
 0.260000   -4.255011   17.293239
 0.265000   -4.164438   18.941821
 0.270000   -4.065593   20.730835
 0.275000   -3.957129   22.443815
 0.280000   -3.841155   23.871505
 0.285000   -3.718414   25.128633
 0.290000   -3.589868   26.149190
 0.295000   -3.456922   27.049709
 0.300000   -3.319371   27.380187
 0.305000   -3.183121   26.780770
 0.310000   -3.051564   25.995424
 0.315000   -2.923166   25.306701
 0.320000   -2.798497   24.522774
 0.325000   -2.677939   23.704412
 0.330000   -2.561453   22.744609
 0.335000   -2.450493   21.679385
 0.340000   -2.344659   20.752660
 0.345000   -2.242966   19.930402
 0.350000   -2.145355   19.120904
 0.355000   -2.051757   18.259342
 0.360000   -1.962761   17.478374
 0.365000   -1.876973   17.234570
 0.370000   -1.790416   17.230218
 0.375000   -1.704671   17.019400
 0.380000   -1.620222   16.698470
 0.385000   -1.537686   16.282284
 0.390000   -1.457399   15.809751
 0.395000   -1.379589   14.915517
 0.400000   -1.308244   13.655250
 0.405000   -1.243036   12.406100
 0.410000   -1.184183   11.132989
 0.415000   -1.131706   9.881926
 0.420000   -1.085363   8.733067
 0.425000   -1.044376   7.541145
 0.430000   -1.009952   6.327811
 0.435000   -0.981098   5.217516
 0.440000   -0.957777   4.109662
 0.445000   -0.940001   2.994657
 0.450000   -0.927830   1.874029
 0.455000   -0.921261   0.604065
 0.460000   -0.921789   -0.766537
 0.465000   -0.928926   -2.060928
 0.470000   -0.942399   -3.275204
 0.475000   -0.961678   -4.357424
 0.480000   -0.985973   -5.278752
 0.485000   -1.014466   -6.102961
 0.490000   -1.047003   -6.935982
 0.495000   -1.083825   -7.753681
 0.500000   -1.124539   -8.486378
 0.505000   -1.168689   -9.124624
 0.510000   -1.215786   -9.616098
 0.515000   -1.264850   -10.034520
 0.520000   -1.316131   -10.441869
 0.525000   -1.369269   -10.778898
 0.530000   -1.423920   -11.063516
 0.535000   -1.479904   -11.319917
 0.540000   -1.537119   -11.516937
 0.545000   -1.595073   -11.780635
 0.550000   -1.654925   -12.132095
 0.555000   -1.716394   -12.412654
 0.560000   -1.779052   -12.625516
 0.565000   -1.842650   -12.787437
 0.570000   -1.906926   -12.939150
 0.575000   -1.972041   -13.163547
 0.580000   -2.038562   -13.404968
 0.585000   -2.106091   -13.590555
 0.590000   -2.174467   -13.737067
 0.595000   -2.243461   -13.836654
 0.600000   -2.312834   -14.041604
 0.605000   -2.383877   -14.229500
 0.610000   -2.455129   -14.011788
 0.615000   -2.523995   -13.619371
 0.620000   -2.591323   -13.258360
 0.625000   -2.656579   -12.792210
 0.630000   -2.719245   -12.340168
 0.635000   -2.779981   -11.788144
 0.640000   -2.837126   -10.815283
 0.645000   -2.888133   -9.773967
 0.650000   -2.934866   -8.939092
 0.655000   -2.977524   -8.217930
 0.660000   -3.017045   -7.958910
 0.665000   -3.057113   -8.847159
 0.670000   -3.105517   -10.052780
 0.675000   -3.157641   -10.992751
 0.680000   -3.215444   -12.133364
 0.685000   -3.278975   -13.225513
 0.690000   -3.347699   -14.411144
 0.695000   -3.423086   -16.087177
 0.700000   -3.508571   -15.750399
 0.705000   -3.580590   -13.818641
 0.710000   -3.646757   -12.330663
 0.715000   -3.703897   -10.182189
 0.720000   -3.748579   -7.396094
 0.725000   -3.777858   -3.893641
 0.730000   -3.787516   0.903542
 0.735000   -3.768822   5.845282
 0.740000   -3.729063   9.889766
 0.745000   -3.669925   13.527825
 0.750000   -3.593785   16.623307
 0.755000   -3.503692   20.411675
 0.760000   -3.389668   22.282877
 0.765000   -3.280863   21.705963
 0.770000   -3.172608   21.266711
 0.775000   -3.068196   20.218185
 0.780000   -2.970426   18.672636
 0.785000   -2.881469   16.982714
 0.790000   -2.800599   13.987764
 0.795000   -2.741592   10.289185
 0.800000   -2.697708   7.586143
 0.805000   -2.665730   5.476656
 0.810000   -2.642941   3.899572
 0.815000   -2.626735   2.146551
 0.820000   -2.621475   0.949697
 0.825000   -2.617238   0.663341
 0.830000   -2.614842   0.165066
 0.835000   -2.615587   -0.517018
 0.840000   -2.620012   -1.380196
 0.845000   -2.629389   -3.249146
 0.850000   -2.652504   -5.670459
 0.855000   -2.686094   -7.763505
 0.860000   -2.730139   -10.227947
 0.865000   -2.788373   -13.136465
 0.870000   -2.861503   -16.160253
 0.875000   -2.949976   -20.440273
 0.880000   -3.065906   -25.325028
 0.885000   -3.203226   -29.181512
 0.890000   -3.357721   -33.573871
 0.895000   -3.538965   -39.393628
 0.900000   -3.751658   -46.494002
 0.905000   -4.003905   -58.750689
 0.910000   -4.339164   -76.695265
 0.915000   -4.770857   -94.242535
 0.920000   -5.281590   -117.000768
 0.925000   -5.940865   -153.369135
 0.930000   -6.815281   -205.680082
 0.935000   -7.997666   -284.922901
 0.940000   -9.664510   -396.466123
 0.945000   -11.962327   -512.974693
 0.950000   -14.794257   -623.688942
 0.955000   -18.199216   -719.069760
 0.960000   -21.984955   -753.378167
 0.965000   -25.732998   -692.478354
 0.970000   -28.909738   -510.541951
 0.975000   -30.838418   -203.297382
 0.980000   -30.942712   139.425281
 0.985000   -29.444165   425.653901
 0.990000   -26.686173   624.894584
 0.995000   -23.195219   715.602489
 1.000000   -19.530148   750.425846
201 psinorm omgeb(kRad/s) domgeb/dpsiN
 0.000000   83.062058   123.941004
 0.005000   83.510117   55.282537
 0.010000   83.614883   16.259634
 0.015000   83.672713   9.235468
 0.020000   83.707238   5.044993
 0.025000   83.723163   1.447627
 0.030000   83.721714   -2.094837
 0.035000   83.702215   -5.274326
 0.040000   83.668971   -7.876172
 0.045000   83.623453   -10.297623
 0.050000   83.565995   -12.026975
 0.055000   83.503183   -12.914533
 0.060000   83.436850   -13.973450
 0.065000   83.363449   -15.053981
 0.070000   83.286310   -15.604413
 0.075000   83.207405   -16.019926
 0.080000   83.126110   -16.432886
 0.085000   83.043076   -16.681272
 0.090000   82.959298   -17.501923
 0.095000   82.868057   -18.363845
 0.100000   82.775659   -18.472758
 0.105000   82.683329   -18.298398
 0.110000   82.592675   -17.845003
 0.115000   82.504879   -17.147076
 0.120000   82.421205   -16.393787
 0.125000   82.340941   -15.519014
 0.130000   82.266014   -14.308941
 0.135000   82.197852   -13.123255
 0.140000   82.134782   -12.135419
 0.145000   82.076497   -11.051540
 0.150000   82.024266   -10.627660
 0.155000   81.970221   -10.951856
 0.160000   81.914748   -11.528655
 0.165000   81.854934   -12.428251
 0.170000   81.790465   -13.691361
 0.175000   81.718021   -15.062094
 0.180000   81.639844   -17.175370
 0.185000   81.546267   -19.991397
 0.190000   81.439930   -22.502911
 0.195000   81.321238   -24.867858
 0.200000   81.191252   -26.837084
 0.205000   81.052867   -28.906961
 0.210000   80.902182   -30.698985
 0.215000   80.745877   -31.733712
 0.220000   80.584845   -32.730379
 0.225000   80.418573   -33.428493
 0.230000   80.250560   -33.883219
 0.235000   80.079741   -34.590977
 0.240000   79.904650   -34.521621
 0.245000   79.734525   -33.664357
 0.250000   79.568007   -32.943415
 0.255000   79.405091   -32.335433
 0.260000   79.244653   -31.953266
 0.265000   79.085558   -31.743722
 0.270000   78.927215   -31.704474
 0.275000   78.768514   -32.175630
 0.280000   78.605459   -33.156928
 0.285000   78.436944   -34.652563
 0.290000   78.258933   -36.794317
 0.295000   78.069001   -39.148722
 0.300000   77.867446   -42.120686
 0.305000   77.647794   -45.999308
 0.310000   77.407453   -49.842873
 0.315000   77.149365   -53.357222
 0.320000   76.873881   -56.499891
 0.325000   76.584367   -58.940913
 0.330000   76.284472   -61.019775
 0.335000   75.974169   -62.890586
 0.340000   75.655566   -64.329333
 0.345000   75.330875   -65.624994
 0.350000   74.999316   -67.119780
 0.355000   74.659678   -69.111642
 0.360000   74.308200   -71.633360
 0.365000   73.943344   -74.144807
 0.370000   73.566751   -76.827856
 0.375000   73.175066   -79.967873
 0.380000   72.767073   -83.313869
 0.385000   72.341927   -86.380047
 0.390000   71.903272   -89.093152
 0.395000   71.450995   -92.496431
 0.400000   70.978308   -97.116338
 0.405000   70.479832   -103.098802
 0.410000   69.947320   -111.463284
 0.415000   69.365199   -121.405457
 0.420000   68.733265   -131.588866
 0.425000   68.049310   -142.121162
 0.430000   67.312054   -152.420920
 0.435000   66.525101   -162.103801
 0.440000   65.691016   -170.672361
 0.445000   64.818378   -176.250321
 0.450000   63.928513   -178.197686
 0.455000   63.036401   -177.094405
 0.460000   62.157568   -172.758070
 0.465000   61.308820   -165.111522
 0.470000   60.506453   -154.300276
 0.475000   59.765817   -141.923452
 0.480000   59.087219   -129.663675
 0.485000   58.469181   -118.205090
 0.490000   57.905168   -108.049867
 0.495000   57.388682   -99.146015
 0.500000   56.913708   -92.179034
 0.505000   56.466892   -87.727668
 0.510000   56.036431   -84.921941
 0.515000   55.617672   -83.015806
 0.520000   55.206273   -81.853917
 0.525000   54.799133   -80.920307
 0.530000   54.397070   -79.942339
 0.535000   53.999710   -78.988338
 0.540000   53.607187   -77.940491
 0.545000   53.220305   -76.859112
 0.550000   52.838595   -75.760376
 0.555000   52.462701   -74.629872
 0.560000   52.092297   -73.400285
 0.565000   51.728698   -71.947450
 0.570000   51.372822   -70.456451
 0.575000   51.024134   -69.084166
 0.580000   50.681981   -67.722528
 0.585000   50.346908   -66.321622
 0.590000   50.018764   -65.012551
 0.595000   49.696783   -63.783655
 0.600000   49.380928   -62.772079
 0.605000   49.069062   -61.887032
 0.610000   48.762057   -60.780405
 0.615000   48.461258   -59.657291
 0.620000   48.165485   -58.641106
 0.625000   47.874847   -57.705864
 0.630000   47.588426   -56.973466
 0.635000   47.305112   -56.261579
 0.640000   47.025810   -55.312045
 0.645000   46.751992   -54.517754
 0.650000   46.480633   -54.200945
 0.655000   46.209982   -54.324034
 0.660000   45.937392   -55.140833
 0.665000   45.658574   -57.203742
 0.670000   45.365355   -59.585321
 0.675000   45.062721   -61.577382
 0.680000   44.749581   -63.559093
 0.685000   44.427130   -65.368409
 0.690000   44.095897   -67.311985
 0.695000   43.754010   -69.882597
 0.700000   43.397071   -70.611465
 0.705000   43.047895   -69.925806
 0.710000   42.697813   -69.891339
 0.715000   42.348982   -69.455528
 0.720000   42.003258   -68.669690
 0.725000   41.662285   -67.390663
 0.730000   41.329351   -64.999343
 0.735000   41.012292   -62.627886
 0.740000   40.703072   -61.360279
 0.745000   40.398689   -60.919171
 0.750000   40.093880   -61.518151
 0.755000   39.783507   -61.878197
 0.760000   39.475098   -64.635654
 0.765000   39.137151   -70.352895
 0.770000   38.771569   -76.582261
 0.775000   38.371328   -84.110285
 0.780000   37.930467   -92.405117
 0.785000   37.447277   -100.953778
 0.790000   36.920929   -111.306034
 0.795000   36.334217   -122.676394
 0.800000   35.694165   -133.187152
 0.805000   35.002345   -143.577525
 0.810000   34.258390   -153.262397
 0.815000   33.469721   -162.252731
 0.820000   32.635862   -169.387616
 0.825000   31.775845   -173.964968
 0.830000   30.896213   -177.437856
 0.835000   30.001466   -180.097928
 0.840000   29.095233   -181.408611
 0.845000   28.187380   -182.401905
 0.850000   27.271214   -183.978261
 0.855000   26.347598   -186.459281
 0.860000   25.406621   -191.284684
 0.865000   24.434751   -199.266633
 0.870000   23.413955   -209.926424
 0.875000   22.335487   -224.183430
 0.880000   21.172121   -242.108653
 0.885000   19.914400   -262.189006
 0.890000   18.550231   -286.062608
 0.895000   17.053774   -314.582622
 0.900000   15.404405   -345.309490
 0.905000   13.600679   -379.489576
 0.910000   11.609509   -413.892241
 0.915000   9.461757   -439.450353
 0.920000   7.215005   -460.382682
 0.925000   4.857930   -480.661218
 0.930000   2.408393   -494.701501
 0.935000   -0.089085   -515.333610
 0.940000   -2.744943   -560.718556
 0.945000   -5.696271   -619.853164
 0.950000   -8.943475   -706.187583
 0.955000   -12.758147   -834.331135
 0.960000   -17.286786   -960.323080
 0.965000   -22.361377   -998.887240
 0.970000   -27.275658   -812.006151
 0.975000   -30.481439   -283.503426
 0.980000   -30.110693   490.704732
 0.985000   -25.574392   1229.800533
 0.990000   -17.812687   1626.114059
 0.995000   -9.313251   1499.667704
 1.000000   -2.816010   1099.228569
201 psinorm er(kV/m) der/dpsiN
 0.000000   1.005179   1477.940945
 0.005000   6.920599   888.227033
 0.010000   9.887449   525.842530
 0.015000   12.179024   420.539995
 0.020000   14.092849   360.920953
 0.025000   15.788234   322.615628
 0.030000   17.319005   293.131153
 0.035000   18.719545   269.762819
 0.040000   20.016634   250.615201
 0.045000   21.225697   235.063775
 0.050000   22.367271   222.964622
 0.055000   23.455343   210.761824
 0.060000   24.474890   198.465263
 0.065000   25.439996   190.110772
 0.070000   26.375997   183.439815
 0.075000   27.274394   174.018086
 0.080000   28.116178   167.863782
 0.085000   28.953032   162.830949
 0.090000   29.744488   154.218994
 0.095000   30.495222   150.700558
 0.100000   31.251493   144.299389
 0.105000   31.938216   140.202782
 0.110000   32.653521   136.293929
 0.115000   33.301155   132.111314
 0.120000   33.974634   128.590109
 0.125000   34.587056   125.229232
 0.130000   35.226927   121.975839
 0.135000   35.806815   119.550863
 0.140000   36.422435   116.191958
 0.145000   36.968734   114.470781
 0.150000   37.567143   110.778032
 0.155000   38.076515   107.537302
 0.160000   38.642516   106.487146
 0.165000   39.141386   101.301274
 0.170000   39.655529   100.785485
 0.175000   40.149241   95.018894
 0.180000   40.605718   93.654994
 0.185000   41.085791   87.881031
 0.190000   41.484528   84.297425
 0.195000   41.928765   83.432579
 0.200000   42.318854   77.081294
 0.205000   42.699578   77.002477
 0.210000   43.088879   70.953998
 0.215000   43.409118   68.433079
 0.220000   43.773209   68.865673
 0.225000   44.097775   62.927349
 0.230000   44.402483   63.500306
 0.235000   44.732778   59.359533
 0.240000   44.996078   56.231424
 0.245000   45.295092   59.334320
 0.250000   45.589421   54.018570
 0.255000   45.835278   52.980638
 0.260000   46.119228   54.528030
 0.265000   46.380558   49.507972
 0.270000   46.614307   49.344098
 0.275000   46.873999   48.553935
 0.280000   47.099847   43.883407
 0.285000   47.312833   43.652752
 0.290000   47.536374   40.510602
 0.295000   47.717939   35.765182
 0.300000   47.894026   34.996962
 0.305000   48.067909   30.116241
 0.310000   48.195189   24.840649
 0.315000   48.316315   23.625250
 0.320000   48.431441   19.135779
 0.325000   48.507673   14.901888
 0.330000   48.580460   14.234582
 0.335000   48.650019   10.926926
 0.340000   48.689729   7.395203
 0.345000   48.723971   6.752471
 0.350000   48.757254   4.313304
 0.355000   48.767104   0.419664
 0.360000   48.761451   -1.577351
 0.365000   48.751330   -3.966348
 0.370000   48.721787   -8.370183
 0.375000   48.667628   -11.382292
 0.380000   48.607964   -13.808274
 0.385000   48.529546   -18.328912
 0.390000   48.424675   -21.459905
 0.395000   48.314947   -23.729085
 0.400000   48.187384   -29.071095
 0.405000   48.024236   -34.719593
 0.410000   47.840188   -40.482107
 0.415000   47.619415   -49.063757
 0.420000   47.349551   -57.902598
 0.425000   47.040389   -65.734541
 0.430000   46.692205   -73.939994
 0.435000   46.300989   -82.717029
 0.440000   45.865035   -89.928935
 0.445000   45.401699   -94.405778
 0.450000   44.920977   -97.713948
 0.455000   44.424560   -98.429444
 0.460000   43.936683   -95.784716
 0.465000   43.466713   -91.898327
 0.470000   43.017700   -85.744879
 0.475000   42.609264   -77.431077
 0.480000   42.243389   -69.377918
 0.485000   41.915485   -62.687245
 0.490000   41.616516   -56.212455
 0.495000   41.353360   -49.817295
 0.500000   41.118343   -46.129576
 0.505000   40.892064   -43.819188
 0.510000   40.680151   -41.647928
 0.515000   40.475585   -40.982716
 0.520000   40.270324   -41.280649
 0.525000   40.062779   -40.908464
 0.530000   39.861240   -40.134306
 0.535000   39.661436   -40.714539
 0.540000   39.454094   -40.576262
 0.545000   39.255673   -39.392066
 0.550000   39.060174   -39.317201
 0.555000   38.862501   -39.493510
 0.560000   38.665238   -38.622531
 0.565000   38.476276   -37.320353
 0.570000   38.292035   -37.552243
 0.575000   38.100753   -37.014898
 0.580000   37.921886   -35.310597
 0.585000   37.747647   -34.902615
 0.590000   37.572860   -34.947998
 0.595000   37.398167   -33.938913
 0.600000   37.233471   -32.697261
 0.605000   37.071195   -33.287049
 0.610000   36.900600   -32.967392
 0.615000   36.741521   -31.320872
 0.620000   36.587391   -30.814922
 0.625000   36.433372   -31.345578
 0.630000   36.273936   -30.744130
 0.635000   36.125930   -29.344608
 0.640000   35.980490   -29.596330
 0.645000   35.829967   -29.777305
 0.650000   35.682717   -28.886935
 0.655000   35.541098   -28.526508
 0.660000   35.397452   -30.716500
 0.665000   35.233933   -32.592838
 0.670000   35.071523   -33.180784
 0.675000   34.902125   -35.156363
 0.680000   34.719959   -38.068636
 0.685000   34.521438   -39.281394
 0.690000   34.327146   -39.749899
 0.695000   34.123939   -42.823041
 0.700000   33.898915   -44.398979
 0.705000   33.679950   -43.138815
 0.710000   33.467527   -42.458714
 0.715000   33.255363   -43.794073
 0.720000   33.029586   -43.766258
 0.725000   32.817700   -41.463963
 0.730000   32.614947   -39.478147
 0.735000   32.422918   -39.578800
 0.740000   32.219159   -38.728823
 0.745000   32.035630   -36.825547
 0.750000   31.850903   -37.945336
 0.755000   31.656177   -39.740728
 0.760000   31.453496   -41.775203
 0.765000   31.238425   -45.330126
 0.770000   31.000195   -51.216715
 0.775000   30.726258   -58.404090
 0.780000   30.416154   -64.762966
 0.785000   30.078628   -71.111777
 0.790000   29.705036   -80.572194
 0.795000   29.272906   -90.709754
 0.800000   28.797938   -98.867932
 0.805000   28.284227   -107.126770
 0.810000   27.726671   -116.315443
 0.815000   27.121072   -124.497125
 0.820000   26.481699   -129.930467
 0.825000   25.821768   -133.767789
 0.830000   25.144022   -138.107109
 0.835000   24.440697   -141.084943
 0.840000   23.733172   -141.723687
 0.845000   23.023460   -142.820620
 0.850000   22.304966   -145.632344
 0.855000   21.567136   -148.367824
 0.860000   20.821288   -151.856913
 0.865000   20.048567   -158.824432
 0.870000   19.233043   -168.989288
 0.875000   18.358674   -181.356090
 0.880000   17.419482   -195.751221
 0.885000   16.401162   -212.748851
 0.890000   15.291994   -233.530724
 0.895000   14.065855   -257.402303
 0.900000   12.717971   -282.521036
 0.905000   11.240644   -311.468509
 0.910000   9.603286   -339.718051
 0.915000   7.843464   -359.523521
 0.920000   6.008051   -376.819231
 0.925000   4.075272   -397.647619
 0.930000   2.031574   -415.379409
 0.935000   -0.078522   -430.194104
 0.940000   -2.270367   -463.691230
 0.945000   -4.715435   -528.625864
 0.950000   -7.556625   -649.054271
 0.955000   -11.205977   -758.458651
 0.960000   -15.141212   -836.993035
 0.965000   -19.575908   -882.069626
 0.970000   -23.961908   -774.646432
 0.975000   -27.322372   -305.131112
 0.980000   -27.013219   433.886057
 0.985000   -22.983512   1097.131022
 0.990000   -16.041909   1457.977164
 0.995000   -8.403740   1345.788956
 1.000000   -2.584019   982.099288
201 psinorm ommvb() dommvb/dpsiN
 0.000000   71.260541   8034.874982
 0.005000   110.382516   7613.915090
 0.010000   147.399692   7521.533933
 0.015000   185.597856   7148.167764
 0.020000   218.881370   6361.072005
 0.025000   249.208576   5774.698585
 0.030000   276.628356   5223.506274
 0.035000   301.443639   4561.269244
 0.040000   322.241048   4022.476372
 0.045000   341.668402   3560.614938
 0.050000   357.847197   2998.191234
 0.055000   371.650315   2721.615969
 0.060000   385.063357   2495.819074
 0.065000   396.608505   2133.748471
 0.070000   406.400842   1885.251357
 0.075000   415.461019   1588.634510
 0.080000   422.287187   1316.494400
 0.085000   428.625963   1167.096032
 0.090000   433.958147   932.501676
 0.095000   437.950980   708.622635
 0.100000   441.044374   547.096991
 0.105000   443.421950   397.906559
 0.110000   445.023439   198.977670
 0.115000   445.411726   -11.019716
 0.120000   444.913242   -180.955004
 0.125000   443.602176   -339.176658
 0.130000   441.521475   -488.656457
 0.135000   438.715612   -622.513742
 0.140000   435.296338   -744.159935
 0.145000   431.274012   -868.554538
 0.150000   426.610793   -986.336936
 0.155000   421.410643   -1086.299803
 0.160000   415.747795   -1173.667937
 0.165000   409.673964   -1250.423043
 0.170000   403.243564   -1316.786358
 0.175000   396.506100   -1357.830985
 0.180000   389.665254   -1381.700914
 0.185000   382.689091   -1432.796485
 0.190000   375.337290   -1487.707025
 0.195000   367.812021   -1562.047651
 0.200000   359.716813   -1695.934954
 0.205000   350.852671   -1650.008375
 0.210000   343.216729   -1520.007994
 0.215000   335.652591   -1502.158975
 0.220000   328.195139   -1493.701941
 0.225000   320.715572   -1493.449469
 0.230000   313.260645   -1479.910368
 0.235000   305.916468   -1577.282413
 0.240000   297.487821   -1484.525709
 0.245000   291.071211   -1258.686131
 0.250000   284.900959   -1208.390088
 0.255000   278.987310   -1155.840634
 0.260000   273.342553   -1166.581625
 0.265000   267.321494   -1214.653953
 0.270000   261.196014   -1057.794643
 0.275000   256.743547   -866.436146
 0.280000   252.531652   -823.063493
 0.285000   248.512912   -806.790316
 0.290000   244.463749   -869.485987
 0.295000   239.818053   -771.646808
 0.300000   236.747281   -590.190852
 0.305000   233.916144   -543.749621
 0.310000   231.309785   -525.774445
 0.315000   228.658400   -528.267837
 0.320000   226.027106   -431.023889
 0.325000   224.348161   -329.507202
 0.330000   222.732034   -313.815215
 0.335000   221.210009   -296.758866
 0.340000   219.764446   -231.867554
 0.345000   218.891333   -140.729778
 0.350000   218.357148   -92.270569
 0.355000   217.968627   -66.485690
 0.360000   217.692291   -41.030413
 0.365000   217.558323   3.462106
 0.370000   217.726912   44.216111
 0.375000   218.000484   64.837314
 0.380000   218.375285   94.896841
 0.385000   218.949453   132.646241
 0.390000   219.701747   152.659774
 0.395000   220.476050   157.407382
 0.400000   221.275821   169.795022
 0.405000   222.174001   183.178935
 0.410000   223.107611   173.808597
 0.415000   223.912087   158.852763
 0.420000   224.696138   159.699655
 0.425000   225.509083   173.079295
 0.430000   226.426931   162.766993
 0.435000   227.136753   138.654333
 0.440000   227.813475   132.659887
 0.445000   228.463352   156.422414
 0.450000   229.377699   154.315748
 0.455000   230.006510   130.683989
 0.460000   230.684539   143.153866
 0.465000   231.438048   176.864690
 0.470000   232.453185   203.483354
 0.475000   233.472882   206.229146
 0.480000   234.515477   217.045036
 0.485000   235.643332   240.503359
 0.490000   236.920511   277.236872
 0.495000   238.415701   289.086488
 0.500000   239.811375   279.556154
 0.505000   241.211262   277.907114
 0.510000   242.590447   299.919266
 0.515000   244.210455   304.290976
 0.520000   245.633356   292.388262
 0.525000   247.134338   306.520225
 0.530000   248.698559   324.713341
 0.535000   250.381471   328.075152
 0.540000   251.979310   309.742003
 0.545000   253.478891   302.678238
 0.550000   255.006092   314.215057
 0.555000   256.621042   346.766615
 0.560000   258.473759   362.553996
 0.565000   260.246582   356.142886
 0.570000   262.035187   361.647083
 0.575000   263.863052   387.957675
 0.580000   265.914764   419.628234
 0.585000   268.059335   429.001286
 0.590000   270.204777   438.160316
 0.595000   272.440938   456.194518
 0.600000   274.766722   489.248000
 0.605000   277.333418   520.471348
 0.610000   279.971436   534.309958
 0.615000   282.676518   552.964676
 0.620000   285.501083   576.770048
 0.625000   288.444218   632.083115
 0.630000   291.821914   665.914561
 0.635000   295.103364   665.166386
 0.640000   298.473578   687.981382
 0.645000   301.983177   715.433960
 0.650000   305.627917   769.766479
 0.655000   309.680842   809.475823
 0.660000   313.722675   810.207086
 0.665000   317.782913   826.931549
 0.670000   321.991991   858.048271
 0.675000   326.363396   899.825633
 0.680000   330.990247   958.081908
 0.685000   335.944215   985.196340
 0.690000   340.842211   999.635469
 0.695000   345.940570   1038.364335
 0.700000   351.225854   1076.300625
 0.705000   356.703576   1131.487234
 0.710000   362.540726   1186.715983
 0.715000   368.570736   1205.365761
 0.720000   374.594384   1223.350488
 0.725000   380.804240   1263.447634
 0.730000   387.228860   1307.054073
 0.735000   393.874781   1348.152885
 0.740000   400.710389   1391.588257
 0.745000   407.790664   1419.748952
 0.750000   414.907879   1439.625626
 0.755000   422.186920   1478.109418
 0.760000   429.688973   1528.069815
 0.765000   437.467618   1588.424281
 0.770000   445.573216   1638.100478
 0.775000   453.848623   1681.398486
 0.780000   462.387200   1748.840090
 0.785000   471.337024   1822.883600
 0.790000   480.616036   1891.188796
 0.795000   490.248912   1967.493461
 0.800000   500.290971   2051.167715
 0.805000   510.760589   2135.307428
 0.810000   521.644045   2225.166171
 0.815000   533.012251   2294.994284
 0.820000   544.593988   2403.505256
 0.825000   557.047303   2564.515393
 0.830000   570.239142   2716.240567
 0.835000   584.209709   2888.952302
 0.840000   599.128665   3085.468457
 0.845000   615.064393   3295.460201
 0.850000   632.083267   3532.963226
 0.855000   650.394026   3814.427037
 0.860000   670.227537   4141.650013
 0.865000   691.810526   4532.665835
 0.870000   715.554196   5042.759343
 0.875000   742.238119   5673.157049
 0.880000   772.285766   6422.463730
 0.885000   806.462757   7284.454076
 0.890000   845.130307   8229.760372
 0.895000   888.760360   9254.203986
 0.900000   937.672347   10296.922526
 0.905000   991.729586   11269.790339
 0.910000   1050.370250   12011.644580
 0.915000   1111.846031   12222.105022
 0.920000   1172.591301   11529.297786
 0.925000   1227.139009   9717.125392
 0.930000   1269.762554   6877.283592
 0.935000   1295.911845   3622.832589
 0.940000   1305.990880   1669.576250
 0.945000   1312.607608   3676.891686
 0.950000   1342.759797   12253.282225
 0.955000   1435.140430   27443.794913
 0.960000   1617.197746   45969.046472
 0.965000   1894.830895   60938.737626
 0.970000   2226.585123   65497.552364
 0.975000   2549.806418   56901.123689
 0.980000   2795.596360   43286.251712
 0.985000   2982.668935   47421.949430
 0.990000   3269.815854   91711.137969
 0.995000   3899.780315   454660.916068
 1.000000   7816.425014   1111996.963685
201 psinorm ommpp() dommpp/dpsiN
 0.000000   11.801517   -7910.933978
 0.005000   -26.872400   -7558.632553
 0.010000   -63.784809   -7505.274299
 0.015000   -101.925143   -7138.932296
 0.020000   -135.174132   -6356.027012
 0.025000   -165.485413   -5773.250958
 0.030000   -192.906641   -5225.601111
 0.035000   -217.741424   -4566.543569
 0.040000   -238.572077   -4030.352543
 0.045000   -258.044949   -3570.912562
 0.050000   -274.281203   -3010.218209
 0.055000   -288.147131   -2734.530502
 0.060000   -301.626508   -2509.792524
 0.065000   -313.245057   -2148.802452
 0.070000   -323.114532   -1900.855771
 0.075000   -332.253614   -1604.654436
 0.080000   -339.161077   -1332.927286
 0.085000   -345.582887   -1183.777304
 0.090000   -350.998850   -950.003599
 0.095000   -355.082923   -726.986480
 0.100000   -358.268714   -565.569749
 0.105000   -360.738621   -416.204957
 0.110000   -362.430764   -216.822673
 0.115000   -362.906847   -6.127360
 0.120000   -362.492038   164.561218
 0.125000   -361.261235   323.657644
 0.130000   -359.255461   474.347515
 0.135000   -356.517760   609.390486
 0.140000   -353.161556   732.024517
 0.145000   -349.197515   857.502998
 0.150000   -344.586526   975.709275
 0.155000   -339.440422   1075.347947
 0.160000   -333.833047   1162.139282
 0.165000   -327.819029   1237.994792
 0.170000   -321.453099   1303.094997
 0.175000   -314.788079   1342.768892
 0.180000   -308.025410   1364.525544
 0.185000   -301.142824   1412.805087
 0.190000   -293.897359   1465.204115
 0.195000   -286.490783   1537.179793
 0.200000   -278.525561   1669.097870
 0.205000   -269.799804   1621.101414
 0.210000   -262.314547   1489.309009
 0.215000   -254.906714   1470.425263
 0.220000   -247.610294   1460.971563
 0.225000   -240.296998   1460.020976
 0.230000   -233.010085   1446.027149
 0.235000   -225.836727   1542.691435
 0.240000   -217.583170   1450.004088
 0.245000   -211.336686   1225.021774
 0.250000   -205.332952   1175.446674
 0.255000   -199.582219   1123.505201
 0.260000   -194.097900   1134.628359
 0.265000   -188.235936   1182.910231
 0.270000   -182.268798   1026.090169
 0.275000   -177.975034   834.260516
 0.280000   -173.926193   789.906565
 0.285000   -170.075968   772.137753
 0.290000   -166.204815   832.691670
 0.295000   -161.749052   732.498085
 0.300000   -158.879835   548.070166
 0.305000   -156.268350   497.750313
 0.310000   -153.902332   475.931573
 0.315000   -151.509034   474.910615
 0.320000   -149.153225   374.523999
 0.325000   -147.763794   270.566289
 0.330000   -146.447562   252.795441
 0.335000   -145.235840   233.868280
 0.340000   -144.108880   167.538221
 0.345000   -143.560458   75.104784
 0.350000   -143.357832   25.150789
 0.355000   -143.308950   -2.625951
 0.360000   -143.384091   -30.602948
 0.365000   -143.614979   -77.606912
 0.370000   -144.160160   -121.043968
 0.375000   -144.825419   -144.805187
 0.380000   -145.608212   -178.210710
 0.385000   -146.607526   -219.026288
 0.390000   -147.798475   -241.752927
 0.395000   -149.025055   -249.903813
 0.400000   -150.297513   -266.911360
 0.405000   -151.694169   -286.277737
 0.410000   -153.160291   -285.271881
 0.415000   -154.546888   -280.258219
 0.420000   -155.962873   -291.288521
 0.425000   -157.459773   -315.200457
 0.430000   -159.114877   -315.187913
 0.435000   -160.611652   -300.758134
 0.440000   -162.122459   -303.332249
 0.445000   -163.644974   -332.672736
 0.450000   -165.449186   -332.513433
 0.455000   -166.970109   -307.778394
 0.460000   -168.526970   -315.911936
 0.465000   -170.129228   -341.976212
 0.470000   -171.946732   -357.783630
 0.475000   -173.707064   -348.152598
 0.480000   -175.428258   -346.708711
 0.485000   -177.174152   -358.708448
 0.490000   -179.015343   -385.286739
 0.495000   -181.027019   -388.232502
 0.500000   -182.897668   -371.735188
 0.505000   -184.744371   -365.634783
 0.510000   -186.554016   -384.841207
 0.515000   -188.592783   -387.306782
 0.520000   -190.427083   -374.242179
 0.525000   -192.335205   -387.440532
 0.530000   -194.301489   -404.655680
 0.535000   -196.381761   -407.063489
 0.540000   -198.372124   -387.682494
 0.545000   -200.258586   -379.537350
 0.550000   -202.167497   -389.975433
 0.555000   -204.158341   -421.396487
 0.560000   -206.381462   -435.954281
 0.565000   -208.517884   -428.090335
 0.570000   -210.662365   -432.103534
 0.575000   -212.838919   -457.041841
 0.580000   -215.232784   -487.350762
 0.585000   -217.712427   -495.322908
 0.590000   -220.186013   -503.172866
 0.595000   -222.744155   -519.978173
 0.600000   -225.385795   -552.020080
 0.605000   -228.264356   -582.358379
 0.610000   -231.209378   -595.090363
 0.615000   -234.215260   -612.621968
 0.620000   -237.335598   -635.411154
 0.625000   -240.569371   -689.788979
 0.630000   -244.233488   -722.888027
 0.635000   -247.798251   -721.427965
 0.640000   -251.447767   -743.293426
 0.645000   -255.231186   -769.951714
 0.650000   -259.147285   -823.967424
 0.655000   -263.470860   -863.799857
 0.660000   -267.785283   -865.347919
 0.665000   -272.124339   -884.135291
 0.670000   -276.626636   -917.633592
 0.675000   -281.300675   -961.403015
 0.680000   -286.240666   -1021.641001
 0.685000   -291.517085   -1050.564749
 0.690000   -296.746314   -1066.947454
 0.695000   -302.186560   -1108.246932
 0.700000   -307.828783   -1146.912090
 0.705000   -313.655680   -1201.413040
 0.710000   -319.842913   -1256.607322
 0.715000   -326.221754   -1274.821289
 0.720000   -332.591126   -1292.020178
 0.725000   -339.141955   -1330.838297
 0.730000   -345.899509   -1372.053416
 0.735000   -352.862490   -1410.780771
 0.740000   -360.007317   -1452.948536
 0.745000   -367.391975   -1480.668122
 0.750000   -374.813998   -1501.143777
 0.755000   -382.403413   -1539.987615
 0.760000   -390.213874   -1592.705470
 0.765000   -398.330467   -1658.777176
 0.770000   -406.801646   -1714.682739
 0.775000   -415.477295   -1765.508771
 0.780000   -424.456734   -1841.245207
 0.785000   -433.889747   -1923.837377
 0.790000   -443.695108   -2002.494830
 0.795000   -453.914695   -2090.169855
 0.800000   -464.596806   -2184.354867
 0.805000   -475.758244   -2278.884953
 0.810000   -487.385656   -2378.428567
 0.815000   -499.542530   -2457.247015
 0.820000   -511.958126   -2572.892872
 0.825000   -525.271458   -2738.480361
 0.830000   -539.342929   -2893.678423
 0.835000   -554.208243   -3069.050230
 0.840000   -570.033432   -3266.877068
 0.845000   -586.877013   -3477.862107
 0.850000   -604.812053   -3716.941488
 0.855000   -624.046428   -4000.886318
 0.860000   -644.820916   -4332.934698
 0.865000   -667.375775   -4731.932468
 0.870000   -692.140241   -5252.685767
 0.875000   -719.902633   -5897.340479
 0.880000   -751.113645   -6664.572383
 0.885000   -786.548357   -7546.643082
 0.890000   -826.580076   -8515.822980
 0.895000   -871.706586   -9568.786608
 0.900000   -922.267942   -10642.232016
 0.905000   -978.128906   -11649.279915
 0.910000   -1038.760742   -12425.536822
 0.915000   -1102.384275   -12661.555375
 0.920000   -1165.376295   -11989.680468
 0.925000   -1222.281079   -10197.786610
 0.930000   -1267.354161   -7371.985094
 0.935000   -1296.000930   -4138.166199
 0.940000   -1308.735823   -2230.294806
 0.945000   -1318.303878   -4296.744849
 0.950000   -1351.703272   -12959.469808
 0.955000   -1447.898576   -28278.126048
 0.960000   -1634.484532   -46929.369553
 0.965000   -1917.192272   -61937.624866
 0.970000   -2253.860781   -66309.558515
 0.975000   -2580.287857   -57184.627116
 0.980000   -2825.707052   -42795.546980
 0.985000   -3008.243327   -46192.148897
 0.990000   -3287.628541   -90085.023909
 0.995000   -3909.093566   -453161.248364
 1.000000   -7819.241025   -1110897.735116
201 psinorm omevb() domevb/dpsiN
 0.000000   69.186963   114.008459
 0.005000   69.574729   41.097716
 0.010000   69.597941   0.077102
 0.015000   69.575500   -6.689504
 0.020000   69.531046   -10.621024
 0.025000   69.469290   -13.958088
 0.030000   69.391465   -17.238952
 0.035000   69.296900   -20.155592
 0.040000   69.189909   -22.493389
 0.045000   69.071966   -24.649642
 0.050000   68.943412   -26.112692
 0.055000   68.810839   -26.732899
 0.060000   68.676083   -27.523461
 0.065000   68.535605   -28.334685
 0.070000   68.392736   -28.614907
 0.075000   68.249456   -28.759356
 0.080000   68.105143   -28.900448
 0.085000   67.960451   -28.876212
 0.090000   67.816381   -29.423537
 0.095000   67.666216   -30.011478
 0.100000   67.516266   -29.845804
 0.105000   67.367758   -29.396300
 0.110000   67.222303   -28.667257
 0.115000   67.081085   -27.693223
 0.120000   66.945371   -26.663421
 0.125000   66.814451   -25.511776
 0.130000   66.690253   -24.024522
 0.135000   66.574206   -22.561395
 0.140000   66.464639   -21.295906
 0.145000   66.361247   -19.934211
 0.150000   66.265297   -19.232402
 0.155000   66.168923   -19.278602
 0.160000   66.072511   -19.577389
 0.165000   65.973149   -20.199003
 0.170000   65.870521   -21.184210
 0.175000   65.761307   -22.277165
 0.180000   65.647749   -24.112837
 0.185000   65.520178   -26.651480
 0.190000   65.381234   -28.885877
 0.195000   65.231319   -30.974023
 0.200000   65.071494   -32.666806
 0.205000   64.904651   -34.460648
 0.210000   64.726888   -35.977089
 0.215000   64.544881   -36.736730
 0.220000   64.359520   -37.458853
 0.225000   64.170292   -37.883012
 0.230000   63.980690   -38.064415
 0.235000   63.789648   -38.499526
 0.240000   63.595695   -38.158242
 0.245000   63.408065   -37.029814
 0.250000   63.225397   -36.038514
 0.255000   63.047680   -35.161024
 0.260000   62.873787   -34.510240
 0.265000   62.702578   -34.033013
 0.270000   62.533457   -33.727055
 0.275000   62.365307   -33.932518
 0.280000   62.194131   -34.649179
 0.285000   62.018816   -35.881272
 0.290000   61.835319   -37.760621
 0.295000   61.641209   -39.853797
 0.300000   61.436781   -42.565745
 0.305000   61.215552   -46.185604
 0.310000   60.974925   -49.771696
 0.315000   60.717835   -53.029899
 0.320000   60.444626   -55.917788
 0.325000   60.158657   -58.105430
 0.330000   59.863571   -59.932348
 0.335000   59.559334   -61.552688
 0.340000   59.248044   -62.742471
 0.345000   58.931909   -63.790710
 0.350000   58.610137   -65.039647
 0.355000   58.281512   -66.787269
 0.360000   57.942265   -69.066389
 0.365000   57.590848   -71.336910
 0.370000   57.228896   -73.780738
 0.375000   56.853041   -76.683269
 0.380000   56.462063   -79.793546
 0.385000   56.055106   -82.625801
 0.390000   55.635805   -85.106809
 0.395000   55.204038   -88.279845
 0.400000   54.753006   -92.671391
 0.405000   54.277324   -98.427405
 0.410000   53.768732   -106.567373
 0.415000   53.211650   -116.286996
 0.420000   52.605862   -126.249845
 0.425000   51.949151   -136.563595
 0.430000   51.240226   -146.646847
 0.435000   50.482683   -156.115285
 0.440000   49.679074   -164.471490
 0.445000   48.837968   -169.839204
 0.450000   47.980682   -171.578454
 0.455000   47.122184   -170.269212
 0.460000   46.277989   -165.729092
 0.465000   45.464893   -157.880953
 0.470000   44.699180   -146.870332
 0.475000   43.996189   -134.296367
 0.480000   43.356216   -121.841702
 0.485000   42.777772   -110.190499
 0.490000   42.254311   -99.844947
 0.495000   41.779323   -90.753071
 0.500000   41.346781   -83.600388
 0.505000   40.943319   -78.965657
 0.510000   40.557124   -75.978916
 0.515000   40.183530   -73.894134
 0.520000   39.818183   -72.555978
 0.525000   39.457970   -71.448496
 0.530000   39.103698   -70.299062
 0.535000   38.754979   -69.176013
 0.540000   38.411938   -67.961550
 0.545000   38.075364   -66.715996
 0.550000   37.744778   -65.455537
 0.555000   37.420809   -64.165772
 0.560000   37.103120   -62.779398
 0.565000   36.793015   -61.172256
 0.570000   36.491397   -59.529442
 0.575000   36.197720   -58.007840
 0.580000   35.911319   -56.499394
 0.585000   35.632726   -54.954196
 0.590000   35.361777   -53.503356
 0.595000   35.097693   -52.135223
 0.600000   34.840425   -50.986950
 0.605000   34.587823   -49.967753
 0.610000   34.340747   -48.729532
 0.615000   34.100528   -47.477389
 0.620000   33.865973   -46.334747
 0.625000   33.637180   -45.275632
 0.630000   33.413217   -44.421952
 0.635000   33.192961   -43.591388
 0.640000   32.977303   -42.525792
 0.645000   32.767703   -41.618067
 0.650000   32.561122   -41.190466
 0.655000   32.355798   -41.205419
 0.660000   32.149068   -41.916755
 0.665000   31.936631   -43.876890
 0.670000   31.710299   -46.158397
 0.675000   31.475047   -48.053106
 0.680000   31.229768   -49.940196
 0.685000   30.975645   -51.657629
 0.690000   30.713192   -53.512059
 0.695000   30.440524   -55.996251
 0.700000   30.153229   -56.641395
 0.705000   29.874110   -55.874654
 0.710000   29.594483   -55.761654
 0.715000   29.316494   -55.249717
 0.720000   29.041986   -54.389949
 0.725000   28.772594   -53.038883
 0.730000   28.511597   -50.576979
 0.735000   28.266824   -48.135792
 0.740000   28.030239   -46.798481
 0.745000   27.798840   -46.286569
 0.750000   27.567373   -46.812140
 0.755000   27.330718   -47.094162
 0.760000   27.096432   -49.766336
 0.765000   26.833055   -55.387569
 0.770000   26.542556   -61.505713
 0.775000   26.217998   -68.901514
 0.780000   25.853541   -77.035742
 0.785000   25.447640   -85.386083
 0.790000   24.999680   -95.490613
 0.795000   24.492734   -106.549362
 0.800000   23.934186   -116.666935
 0.805000   23.326065   -126.561280
 0.810000   22.668574   -135.622213
 0.815000   21.969843   -143.831945
 0.820000   21.230254   -149.997797
 0.825000   20.469865   -153.384550
 0.830000   19.696409   -155.413990
 0.835000   18.915725   -156.354055
 0.840000   18.132868   -155.661628
 0.845000   17.359109   -154.394832
 0.850000   16.588920   -153.537310
 0.855000   15.823735   -153.588553
 0.860000   15.053034   -156.317870
 0.865000   14.260557   -163.103736
 0.870000   13.421997   -174.395245
 0.875000   12.516604   -192.580735
 0.880000   11.496190   -219.994100
 0.885000   10.316663   -258.523156
 0.890000   8.910958   -314.790502
 0.895000   7.168758   -396.747497
 0.900000   4.943483   -511.698140
 0.905000   2.051777   -673.589494
 0.910000   -1.792412   -894.465828
 0.915000   -6.892881   -1181.160802
 0.920000   -13.604020   -1549.572339
 0.925000   -22.388605   -2001.883783
 0.930000   -33.622858   -2503.147700
 0.935000   -47.420082   -2993.457959
 0.940000   -63.557437   -3367.333141
 0.945000   -81.093413   -3456.364244
 0.950000   -98.121080   -3137.140711
 0.955000   -112.464820   -2387.743739
 0.960000   -121.998517   -1286.578123
 0.965000   -125.330602   -11.617851
 0.970000   -122.114696   1274.255837
 0.975000   -112.588043   2475.965688
 0.980000   -97.355039   3445.988584
 0.985000   -78.128157   3993.542027
 0.990000   -57.419619   3969.715254
 0.995000   -38.431005   3347.867587
 1.000000   -23.940943   2448.157284
201 psinorm omepp() domepp/dpsiN
 0.000000   13.875095   9.932545
 0.005000   13.935388   14.184820
 0.010000   14.016943   16.182533
 0.015000   14.097213   15.924973
 0.020000   14.176193   15.666017
 0.025000   14.253874   15.405715
 0.030000   14.330250   15.144115
 0.035000   14.405315   14.881266
 0.040000   14.479062   14.617217
 0.045000   14.551487   14.352018
 0.050000   14.622583   14.085718
 0.055000   14.692344   13.818366
 0.060000   14.760766   13.550011
 0.065000   14.827844   13.280704
 0.070000   14.893573   13.010494
 0.075000   14.957949   12.739430
 0.080000   15.020968   12.467562
 0.085000   15.082625   12.194940
 0.090000   15.142917   11.921614
 0.095000   15.201841   11.647632
 0.100000   15.259393   11.373045
 0.105000   15.315571   11.097903
 0.110000   15.370372   10.822254
 0.115000   15.423794   10.546148
 0.120000   15.475834   10.269634
 0.125000   15.526490   9.992762
 0.130000   15.575761   9.715581
 0.135000   15.623646   9.438140
 0.140000   15.670143   9.160487
 0.145000   15.715251   8.882671
 0.150000   15.758970   8.604742
 0.155000   15.801298   8.326747
 0.160000   15.842237   8.048734
 0.165000   15.881786   7.770752
 0.170000   15.919945   7.492849
 0.175000   15.956714   7.215071
 0.180000   15.992095   6.937467
 0.185000   16.026089   6.660083
 0.190000   16.058696   6.382967
 0.195000   16.089918   6.106164
 0.200000   16.119758   5.829722
 0.205000   16.148216   5.553687
 0.210000   16.175295   5.278103
 0.215000   16.200997   5.003018
 0.220000   16.225325   4.728475
 0.225000   16.248281   4.454519
 0.230000   16.269870   4.181196
 0.235000   16.290093   3.908548
 0.240000   16.308955   3.636621
 0.245000   16.326460   3.365457
 0.250000   16.342610   3.095100
 0.255000   16.357411   2.825591
 0.260000   16.370866   2.556974
 0.265000   16.382980   2.289291
 0.270000   16.393759   2.022581
 0.275000   16.403206   1.756888
 0.280000   16.411328   1.492250
 0.285000   16.418129   1.228709
 0.290000   16.423615   0.966304
 0.295000   16.427792   0.705074
 0.300000   16.430666   0.445059
 0.305000   16.432242   0.186296
 0.310000   16.432528   -0.071177
 0.315000   16.431531   -0.327322
 0.320000   16.429255   -0.582103
 0.325000   16.425710   -0.835483
 0.330000   16.420900   -1.087426
 0.335000   16.414835   -1.337898
 0.340000   16.407521   -1.586862
 0.345000   16.398967   -1.834285
 0.350000   16.389179   -2.080133
 0.355000   16.378165   -2.324373
 0.360000   16.365935   -2.566971
 0.365000   16.352496   -2.807897
 0.370000   16.337856   -3.047118
 0.375000   16.322024   -3.284604
 0.380000   16.305010   -3.520323
 0.385000   16.286821   -3.754246
 0.390000   16.267467   -3.986343
 0.395000   16.246958   -4.216586
 0.400000   16.225302   -4.444947
 0.405000   16.202508   -4.671397
 0.410000   16.178588   -4.895911
 0.415000   16.153549   -5.118461
 0.420000   16.127403   -5.339021
 0.425000   16.100159   -5.557567
 0.430000   16.071827   -5.774073
 0.435000   16.042418   -5.988516
 0.440000   16.011942   -6.200872
 0.445000   15.980410   -6.411118
 0.450000   15.947831   -6.619232
 0.455000   15.914217   -6.825192
 0.460000   15.879579   -7.028978
 0.465000   15.843927   -7.230568
 0.470000   15.807273   -7.429944
 0.475000   15.769628   -7.627085
 0.480000   15.731002   -7.821973
 0.485000   15.691408   -8.014591
 0.490000   15.650857   -8.204920
 0.495000   15.609359   -8.392944
 0.500000   15.566927   -8.578646
 0.505000   15.523573   -8.762012
 0.510000   15.479307   -8.943025
 0.515000   15.434142   -9.121672
 0.520000   15.388090   -9.297938
 0.525000   15.341163   -9.471811
 0.530000   15.293372   -9.643277
 0.535000   15.244730   -9.812324
 0.540000   15.195249   -9.978941
 0.545000   15.144941   -10.143116
 0.550000   15.093818   -10.304839
 0.555000   15.041892   -10.464099
 0.560000   14.989177   -10.620887
 0.565000   14.935683   -10.775194
 0.570000   14.881425   -10.927009
 0.575000   14.826413   -11.076325
 0.580000   14.770662   -11.223134
 0.585000   14.714182   -11.367426
 0.590000   14.656987   -11.509195
 0.595000   14.599090   -11.648432
 0.600000   14.540503   -11.785129
 0.605000   14.481239   -11.919279
 0.610000   14.421310   -12.050873
 0.615000   14.360730   -12.179902
 0.620000   14.299511   -12.306359
 0.625000   14.237667   -12.430232
 0.630000   14.175209   -12.551514
 0.635000   14.112151   -12.670191
 0.640000   14.048507   -12.786253
 0.645000   13.984289   -12.899687
 0.650000   13.919510   -13.010479
 0.655000   13.854184   -13.118615
 0.660000   13.788324   -13.224078
 0.665000   13.721943   -13.326853
 0.670000   13.655055   -13.426923
 0.675000   13.587674   -13.524276
 0.680000   13.519813   -13.618897
 0.685000   13.451485   -13.710781
 0.690000   13.382705   -13.799926
 0.695000   13.313486   -13.886346
 0.700000   13.243841   -13.970070
 0.705000   13.173785   -14.051152
 0.710000   13.103330   -14.129685
 0.715000   13.032488   -14.205811
 0.720000   12.961272   -14.279741
 0.725000   12.889691   -14.351781
 0.730000   12.817754   -14.422364
 0.735000   12.745467   -14.492094
 0.740000   12.672833   -14.561799
 0.745000   12.599849   -14.632602
 0.750000   12.526507   -14.706011
 0.755000   12.452789   -14.784035
 0.760000   12.378667   -14.869319
 0.765000   12.304096   -14.965326
 0.770000   12.229013   -15.076549
 0.775000   12.153330   -15.208771
 0.780000   12.076926   -15.369375
 0.785000   11.999637   -15.567694
 0.790000   11.921249   -15.815421
 0.795000   11.841482   -16.127032
 0.800000   11.759978   -16.520217
 0.805000   11.676280   -17.016245
 0.810000   11.589816   -17.640184
 0.815000   11.499878   -18.420786
 0.820000   11.405608   -19.389819
 0.825000   11.305980   -20.580418
 0.830000   11.199804   -22.023867
 0.835000   11.085742   -23.743873
 0.840000   10.962365   -25.746983
 0.845000   10.828272   -28.007074
 0.850000   10.682294   -30.440951
 0.855000   10.523862   -32.870727
 0.860000   10.353587   -34.966814
 0.865000   10.174194   -36.162897
 0.870000   9.991958   -35.531179
 0.875000   9.818882   -31.602695
 0.880000   9.675931   -22.114553
 0.885000   9.597737   -3.665850
 0.890000   9.639273   28.727894
 0.895000   9.885016   82.164875
 0.900000   10.460922   166.388649
 0.905000   11.548902   294.099918
 0.910000   13.401921   480.573587
 0.915000   16.354638   741.710449
 0.920000   20.819025   1089.189657
 0.925000   27.246535   1521.222564
 0.930000   36.031251   2008.446198
 0.935000   47.330997   2478.124349
 0.940000   60.812494   2806.614585
 0.945000   75.397143   2836.511080
 0.950000   89.177605   2430.953127
 0.955000   99.706674   1553.412603
 0.960000   104.711731   326.255042
 0.965000   102.969224   -987.269389
 0.970000   94.839037   -2086.261988
 0.975000   82.106604   -2759.469115
 0.980000   67.244346   -2955.283852
 0.985000   52.553766   -2763.741494
 0.990000   39.606931   -2343.601195
 0.995000   29.117754   -1848.199883
 1.000000   21.124932   -1348.928715
201 psinorm kpol(km/s/T) dkpol/dpsiN
 0.000000   0.001124   143.749813
 0.005000   0.578518   87.207816
 0.010000   0.873202   55.878054
 0.015000   1.137298   51.996120
 0.020000   1.393163   50.639492
 0.025000   1.643693   49.461322
 0.030000   1.887776   47.909274
 0.035000   2.122786   46.256764
 0.040000   2.350344   44.657097
 0.045000   2.569357   42.714844
 0.050000   2.777492   40.842605
 0.055000   2.977783   39.221586
 0.060000   3.169708   37.556530
 0.065000   3.353348   35.918141
 0.070000   3.528890   34.436763
 0.075000   3.697716   32.988344
 0.080000   3.858773   31.368820
 0.085000   4.011404   29.784095
 0.090000   4.156614   28.194927
 0.095000   4.293353   26.785496
 0.100000   4.424469   25.781222
 0.105000   4.551166   25.086352
 0.110000   4.675333   24.709751
 0.115000   4.798263   24.615366
 0.120000   4.921486   24.781468
 0.125000   5.046078   24.943307
 0.130000   5.170919   25.121973
 0.135000   5.297298   25.208828
 0.140000   5.423008   25.027412
 0.145000   5.547572   24.665196
 0.150000   5.669659   23.857594
 0.155000   5.786148   22.529705
 0.160000   5.894957   20.682148
 0.165000   5.992969   18.525530
 0.170000   6.080212   16.028173
 0.175000   6.153251   13.218553
 0.180000   6.212397   10.375401
 0.185000   6.257005   7.632885
 0.190000   6.288726   5.111509
 0.195000   6.308120   2.744153
 0.200000   6.316168   0.770301
 0.205000   6.315823   -0.983272
 0.210000   6.306335   -2.568639
 0.215000   6.290137   -3.886538
 0.220000   6.267470   -5.312452
 0.225000   6.237012   -6.623002
 0.230000   6.201240   -7.914962
 0.235000   6.157862   -9.337522
 0.240000   6.107864   -10.671959
 0.245000   6.051143   -12.052829
 0.250000   5.987336   -13.334708
 0.255000   5.917796   -14.666689
 0.260000   5.840669   -16.214806
 0.265000   5.755648   -17.842253
 0.270000   5.662247   -19.774222
 0.275000   5.557905   -22.141298
 0.280000   5.440834   -24.674879
 0.285000   5.311157   -27.538188
 0.290000   5.165452   -30.912878
 0.295000   5.002028   -34.478522
 0.300000   4.820667   -38.167120
 0.305000   4.620357   -41.884919
 0.310000   4.401817   -45.379698
 0.315000   4.166560   -48.637449
 0.320000   3.915443   -51.357995
 0.325000   3.652980   -53.187023
 0.330000   3.383573   -54.414618
 0.335000   3.108834   -55.284365
 0.340000   2.830729   -55.822846
 0.345000   2.550605   -56.375298
 0.350000   2.266976   -57.255504
 0.355000   1.978050   -58.756415
 0.360000   1.679412   -61.120117
 0.365000   1.366849   -64.261740
 0.370000   1.036795   -68.055513
 0.375000   0.686294   -72.355874
 0.380000   0.313236   -76.947438
 0.385000   -0.083181   -81.121912
 0.390000   -0.497983   -84.788701
 0.395000   -0.931068   -88.779954
 0.400000   -1.385783   -93.783542
 0.405000   -1.868903   -100.364548
 0.410000   -2.389428   -109.750960
 0.415000   -2.966413   -120.996503
 0.420000   -3.599393   -132.500277
 0.425000   -4.291415   -144.244851
 0.430000   -5.041842   -155.521403
 0.435000   -5.846629   -165.894054
 0.440000   -6.700782   -174.621826
 0.445000   -7.592848   -179.409127
 0.450000   -8.494874   -179.388628
 0.455000   -9.386734   -175.073601
 0.460000   -10.245610   -166.298585
 0.465000   -11.049720   -153.153826
 0.470000   -11.777148   -135.917466
 0.475000   -12.408894   -117.054804
 0.480000   -12.947696   -98.871467
 0.485000   -13.397609   -82.055587
 0.490000   -13.768252   -67.072965
 0.495000   -14.068339   -53.797763
 0.500000   -14.306230   -43.206020
 0.505000   -14.500399   -36.167279
 0.510000   -14.667902   -31.605652
 0.515000   -14.816456   -28.374158
 0.520000   -14.951644   -26.168008
 0.525000   -15.078136   -24.348784
 0.530000   -15.195132   -22.492444
 0.535000   -15.303060   -20.729393
 0.540000   -15.402426   -18.987130
 0.545000   -15.492931   -17.134534
 0.550000   -15.573771   -15.161539
 0.555000   -15.644547   -13.255623
 0.560000   -15.706327   -11.309157
 0.565000   -15.757638   -9.185533
 0.570000   -15.798183   -7.102608
 0.575000   -15.828664   -5.118093
 0.580000   -15.849363   -3.154464
 0.585000   -15.860209   -1.231581
 0.590000   -15.861679   0.488855
 0.595000   -15.855320   2.034399
 0.600000   -15.841335   3.459964
 0.605000   -15.820721   4.735618
 0.610000   -15.793979   5.819120
 0.615000   -15.762530   6.748527
 0.620000   -15.726494   7.614350
 0.625000   -15.686386   8.327076
 0.630000   -15.643223   8.939513
 0.635000   -15.596991   9.518999
 0.640000   -15.548033   10.001597
 0.645000   -15.496975   10.378433
 0.650000   -15.444249   10.682997
 0.655000   -15.390145   10.890356
 0.660000   -15.335345   11.032674
 0.665000   -15.279818   11.125731
 0.670000   -15.224088   11.151200
 0.675000   -15.168306   11.165884
 0.680000   -15.112429   11.151297
 0.685000   -15.056793   11.027012
 0.690000   -15.002159   10.792469
 0.695000   -14.948869   10.408111
 0.700000   -14.898078   9.844775
 0.705000   -14.850421   9.098873
 0.710000   -14.807089   8.114413
 0.715000   -14.769277   6.898114
 0.720000   -14.738108   5.483004
 0.725000   -14.714447   3.923639
 0.730000   -14.698872   2.260880
 0.735000   -14.691838   0.543550
 0.740000   -14.693436   -1.147069
 0.745000   -14.703309   -2.788635
 0.750000   -14.721322   -4.372837
 0.755000   -14.747037   -5.975046
 0.760000   -14.781073   -7.787631
 0.765000   -14.824913   -10.057816
 0.770000   -14.881651   -12.946130
 0.775000   -14.954375   -16.610287
 0.780000   -15.047754   -21.125339
 0.785000   -15.165628   -26.443827
 0.790000   -15.312192   -32.821249
 0.795000   -15.493841   -39.776365
 0.800000   -15.709956   -46.474788
 0.805000   -15.958588   -52.710777
 0.810000   -16.237064   -58.209431
 0.815000   -16.540683   -62.621062
 0.820000   -16.863274   -65.141129
 0.825000   -17.192094   -65.520570
 0.830000   -17.518480   -64.307662
 0.835000   -17.835171   -61.779647
 0.840000   -18.136276   -58.032867
 0.845000   -18.415499   -53.262691
 0.850000   -18.668903   -48.084118
 0.855000   -18.896340   -43.742580
 0.860000   -19.106329   -40.632696
 0.865000   -19.302667   -38.391293
 0.870000   -19.490242   -37.246783
 0.875000   -19.675135   -36.978447
 0.880000   -19.860027   -36.932126
 0.885000   -20.044457   -36.697966
 0.890000   -20.227006   -36.207277
 0.895000   -20.406529   -35.032468
 0.900000   -20.577331   -32.260442
 0.905000   -20.729134   -27.064163
 0.910000   -20.847972   -15.382193
 0.915000   -20.882956   3.877186
 0.920000   -20.809201   29.071746
 0.925000   -20.592238   63.361527
 0.930000   -20.175585   116.355727
 0.935000   -19.428681   184.831562
 0.940000   -18.327270   250.368169
 0.945000   -16.924999   290.071837
 0.950000   -15.426551   269.395670
 0.955000   -14.231043   153.405959
 0.960000   -13.892492   -55.284485
 0.965000   -14.783887   -269.032762
 0.970000   -16.582819   -303.756505
 0.975000   -17.821452   24.697955
 0.980000   -16.335840   708.379565
 0.985000   -10.737657   1439.345855
 0.990000   -1.942381   1763.096620
 0.995000   6.893309   1416.521511
 1.000000   12.222834   715.288249
201 psinorm omghb() domghb/dpsiN
 0.000000   -0.000079   0.000432
 0.005000   -0.000171   -0.037201
 0.010000   -0.000451   -0.024678
 0.015000   -0.000418   0.016804
 0.020000   -0.000283   0.033979
 0.025000   -0.000078   0.046852
 0.030000   0.000185   0.062787
 0.035000   0.000550   0.072443
 0.040000   0.000910   0.084593
 0.045000   0.001396   0.094127
 0.050000   0.001851   0.087921
 0.055000   0.002275   0.078626
 0.060000   0.002637   0.067336
 0.065000   0.002948   0.050986
 0.070000   0.003147   0.076024
 0.075000   0.003709   0.095451
 0.080000   0.004102   0.080236
 0.085000   0.004511   0.083222
 0.090000   0.004934   0.081555
 0.095000   0.005327   0.067035
 0.100000   0.005604   0.057297
 0.105000   0.005899   0.052366
 0.110000   0.006128   0.020812
 0.115000   0.006108   0.004981
 0.120000   0.006178   -0.008707
 0.125000   0.006021   -0.042344
 0.130000   0.005754   -0.068916
 0.135000   0.005331   -0.059075
 0.140000   0.005164   -0.032116
 0.145000   0.005010   -0.006911
 0.150000   0.005095   0.017926
 0.155000   0.005189   0.039988
 0.160000   0.005494   0.089920
 0.165000   0.006089   0.168850
 0.170000   0.007183   0.219518
 0.175000   0.008284   0.235054
 0.180000   0.009533   0.285885
 0.185000   0.011143   0.334547
 0.190000   0.012879   0.380388
 0.195000   0.014947   0.367424
 0.200000   0.016553   0.300880
 0.205000   0.017955   0.274503
 0.210000   0.019298   0.244816
 0.215000   0.020404   0.256665
 0.220000   0.021865   0.289136
 0.225000   0.023295   0.167913
 0.230000   0.023544   0.085009
 0.235000   0.024145   0.080247
 0.240000   0.024346   0.039323
 0.245000   0.024538   0.042843
 0.250000   0.024775   0.032107
 0.255000   0.024859   -0.031785
 0.260000   0.024457   -0.018048
 0.265000   0.024679   0.064777
 0.270000   0.025105   0.136023
 0.275000   0.026039   0.227214
 0.280000   0.027377   0.232932
 0.285000   0.028368   0.347606
 0.290000   0.030853   0.524948
 0.295000   0.033618   0.604024
 0.300000   0.036893   0.702116
 0.305000   0.040639   0.749268
 0.310000   0.044386   0.694220
 0.315000   0.047581   0.744588
 0.320000   0.051832   0.729770
 0.325000   0.054879   0.568219
 0.330000   0.057514   0.480759
 0.335000   0.059686   0.382111
 0.340000   0.061335   0.396250
 0.345000   0.063649   0.465823
 0.350000   0.065993   0.486821
 0.355000   0.068517   0.533965
 0.360000   0.071333   0.617591
 0.365000   0.074693   0.749810
 0.370000   0.078831   0.815487
 0.375000   0.082848   0.781503
 0.380000   0.086646   0.779434
 0.385000   0.090642   0.787112
 0.390000   0.094517   0.817488
 0.395000   0.098817   1.039773
 0.400000   0.104915   1.381709
 0.405000   0.112634   1.741201
 0.410000   0.122327   2.080544
 0.415000   0.133440   2.355417
 0.420000   0.145881   2.704182
 0.425000   0.160482   2.842369
 0.430000   0.174305   2.570585
 0.435000   0.186187   2.210342
 0.440000   0.196408   1.791471
 0.445000   0.204102   1.228798
 0.450000   0.208696   0.553374
 0.455000   0.209636   -0.384278
 0.460000   0.204853   -1.308541
 0.465000   0.196550   -1.905356
 0.470000   0.185800   -2.381702
 0.475000   0.172733   -2.693011
 0.480000   0.158870   -2.927852
 0.485000   0.143455   -2.705512
 0.490000   0.131815   -2.108010
 0.495000   0.122375   -1.678246
 0.500000   0.115032   -1.220181
 0.505000   0.110173   -0.818726
 0.510000   0.106845   -0.493445
 0.515000   0.105239   -0.228189
 0.520000   0.104563   -0.138566
 0.525000   0.103853   -0.160965
 0.530000   0.102953   -0.157893
 0.535000   0.102274   -0.124815
 0.540000   0.101705   -0.135530
 0.545000   0.100919   -0.181471
 0.550000   0.099891   -0.208277
 0.555000   0.098836   -0.228474
 0.560000   0.097606   -0.257553
 0.565000   0.096260   -0.292171
 0.570000   0.094684   -0.292723
 0.575000   0.093333   -0.292165
 0.580000   0.091762   -0.305494
 0.585000   0.090278   -0.225473
 0.590000   0.089508   -0.232578
 0.595000   0.087952   -0.275846
 0.600000   0.086749   -0.242946
 0.605000   0.085523   -0.223493
 0.610000   0.084514   -0.199049
 0.615000   0.083532   -0.093829
 0.620000   0.083576   -0.183014
 0.625000   0.081702   -0.283796
 0.630000   0.080738   -0.189006
 0.635000   0.079812   -0.169206
 0.640000   0.079046   -0.124333
 0.645000   0.078569   -0.014973
 0.650000   0.078896   0.021552
 0.655000   0.078784   0.149248
 0.660000   0.080389   0.446838
 0.665000   0.083253   0.637185
 0.670000   0.086761   0.709525
 0.675000   0.090348   0.956412
 0.680000   0.096325   0.851883
 0.685000   0.098867   0.446809
 0.690000   0.100793   0.420991
 0.695000   0.103077   0.407225
 0.700000   0.104865   0.323714
 0.705000   0.106314   0.441313
 0.710000   0.109278   0.075916
 0.715000   0.107073   -0.483224
 0.720000   0.104446   -0.434995
 0.725000   0.102723   -0.372362
 0.730000   0.100722   -0.412476
 0.735000   0.098598   -0.518472
 0.740000   0.095538   -0.498431
 0.745000   0.093614   -0.005372
 0.750000   0.095484   0.501113
 0.755000   0.098625   0.934135
 0.760000   0.104825   1.366950
 0.765000   0.112295   1.552786
 0.770000   0.120353   2.036059
 0.775000   0.132655   2.888685
 0.780000   0.149240   3.184536
 0.785000   0.164501   3.230293
 0.790000   0.181543   3.452707
 0.795000   0.199028   3.643878
 0.800000   0.217982   3.847227
 0.805000   0.237500   3.453657
 0.810000   0.252518   2.924054
 0.815000   0.266741   2.833324
 0.820000   0.280851   2.466041
 0.825000   0.291401   1.813449
 0.830000   0.298986   1.239712
 0.835000   0.303798   0.483928
 0.840000   0.303825   0.206376
 0.845000   0.305862   0.652840
 0.850000   0.310354   1.133768
 0.855000   0.317200   1.607949
 0.860000   0.326433   2.643978
 0.865000   0.343639   3.229650
 0.870000   0.358730   3.891867
 0.875000   0.382558   5.443827
 0.880000   0.413168   6.762662
 0.885000   0.450185   8.046342
 0.890000   0.493631   10.630032
 0.895000   0.556485   10.856017
 0.900000   0.602191   10.358536
 0.905000   0.660070   11.384360
 0.910000   0.716035   10.363952
 0.915000   0.763710   9.387043
 0.920000   0.809906   11.828877
 0.925000   0.881999   8.312608
 0.930000   0.893032   4.145635
 0.935000   0.923455   10.460093
 0.940000   0.997633   19.696333
 0.945000   1.120418   32.059612
 0.950000   1.318229   56.473474
 0.955000   1.685153   59.127539
 0.960000   1.909504   30.525221
 0.965000   1.990405   -25.615180
 0.970000   1.653352   -132.417327
 0.975000   0.666232   -260.483202
 0.980000   -0.951480   -328.757037
 0.985000   -2.621338   -258.667647
 0.990000   -3.538156   -60.791341
 0.995000   -3.229252   153.731557
 1.000000   -2.000841   337.632913
201 psinorm nz1(10^20/m^3) dnz1/dpsiN
 0.000000   0.051471   0.000005
 0.005000   0.051469   -0.000725
 0.010000   0.051464   -0.001466
 0.015000   0.051454   -0.002227
 0.020000   0.051441   -0.003006
 0.025000   0.051424   -0.003798
 0.030000   0.051403   -0.004597
 0.035000   0.051378   -0.005397
 0.040000   0.051349   -0.006188
 0.045000   0.051317   -0.006966
 0.050000   0.051280   -0.007728
 0.055000   0.051239   -0.008470
 0.060000   0.051195   -0.009188
 0.065000   0.051147   -0.009878
 0.070000   0.051096   -0.010536
 0.075000   0.051042   -0.011166
 0.080000   0.050985   -0.011773
 0.085000   0.050924   -0.012353
 0.090000   0.050861   -0.012906
 0.095000   0.050795   -0.013431
 0.100000   0.050727   -0.013927
 0.105000   0.050656   -0.014397
 0.110000   0.050583   -0.014839
 0.115000   0.050508   -0.015249
 0.120000   0.050430   -0.015627
 0.125000   0.050351   -0.015973
 0.130000   0.050271   -0.016287
 0.135000   0.050188   -0.016571
 0.140000   0.050105   -0.016822
 0.145000   0.050020   -0.017039
 0.150000   0.049934   -0.017221
 0.155000   0.049848   -0.017367
 0.160000   0.049761   -0.017478
 0.165000   0.049673   -0.017552
 0.170000   0.049585   -0.017589
 0.175000   0.049497   -0.017586
 0.180000   0.049409   -0.017545
 0.185000   0.049322   -0.017464
 0.190000   0.049235   -0.017342
 0.195000   0.049148   -0.017179
 0.200000   0.049063   -0.016981
 0.205000   0.048979   -0.016755
 0.210000   0.048895   -0.016505
 0.215000   0.048814   -0.016233
 0.220000   0.048733   -0.015940
 0.225000   0.048654   -0.015631
 0.230000   0.048577   -0.015294
 0.235000   0.048501   -0.014917
 0.240000   0.048428   -0.014502
 0.245000   0.048356   -0.014047
 0.250000   0.048287   -0.013548
 0.255000   0.048221   -0.013005
 0.260000   0.048157   -0.012408
 0.265000   0.048097   -0.011756
 0.270000   0.048040   -0.011054
 0.275000   0.047986   -0.010307
 0.280000   0.047937   -0.009517
 0.285000   0.047891   -0.008687
 0.290000   0.047850   -0.007824
 0.295000   0.047813   -0.006940
 0.300000   0.047780   -0.006042
 0.305000   0.047752   -0.005137
 0.310000   0.047729   -0.004231
 0.315000   0.047710   -0.003329
 0.320000   0.047696   -0.002438
 0.325000   0.047686   -0.001558
 0.330000   0.047680   -0.000683
 0.335000   0.047679   0.000189
 0.340000   0.047682   0.001064
 0.345000   0.047689   0.001944
 0.350000   0.047701   0.002831
 0.355000   0.047718   0.003716
 0.360000   0.047739   0.004595
 0.365000   0.047764   0.005461
 0.370000   0.047793   0.006304
 0.375000   0.047827   0.007117
 0.380000   0.047864   0.007887
 0.385000   0.047906   0.008606
 0.390000   0.047950   0.009268
 0.395000   0.047998   0.009867
 0.400000   0.048049   0.010398
 0.405000   0.048102   0.010851
 0.410000   0.048158   0.011226
 0.415000   0.048215   0.011540
 0.420000   0.048273   0.011796
 0.425000   0.048332   0.011998
 0.430000   0.048393   0.012146
 0.435000   0.048454   0.012246
 0.440000   0.048515   0.012303
 0.445000   0.048577   0.012312
 0.450000   0.048638   0.012263
 0.455000   0.048700   0.012144
 0.460000   0.048760   0.011942
 0.465000   0.048819   0.011647
 0.470000   0.048876   0.011245
 0.475000   0.048931   0.010723
 0.480000   0.048984   0.010082
 0.485000   0.049032   0.009327
 0.490000   0.049077   0.008460
 0.495000   0.049117   0.007487
 0.500000   0.049152   0.006412
 0.505000   0.049181   0.005251
 0.510000   0.049204   0.004017
 0.515000   0.049221   0.002718
 0.520000   0.049231   0.001360
 0.525000   0.049235   -0.000049
 0.530000   0.049231   -0.001502
 0.535000   0.049220   -0.002998
 0.540000   0.049201   -0.004541
 0.545000   0.049174   -0.006132
 0.550000   0.049140   -0.007774
 0.555000   0.049097   -0.009471
 0.560000   0.049045   -0.011219
 0.565000   0.048984   -0.013011
 0.570000   0.048915   -0.014837
 0.575000   0.048836   -0.016689
 0.580000   0.048748   -0.018560
 0.585000   0.048650   -0.020443
 0.590000   0.048544   -0.022330
 0.595000   0.048427   -0.024220
 0.600000   0.048301   -0.026114
 0.605000   0.048166   -0.028009
 0.610000   0.048021   -0.029900
 0.615000   0.047867   -0.031784
 0.620000   0.047703   -0.033663
 0.625000   0.047530   -0.035529
 0.630000   0.047348   -0.037366
 0.635000   0.047157   -0.039171
 0.640000   0.046956   -0.040934
 0.645000   0.046747   -0.042645
 0.650000   0.046530   -0.044295
 0.655000   0.046304   -0.045886
 0.660000   0.046071   -0.047498
 0.665000   0.045829   -0.049275
 0.670000   0.045578   -0.051331
 0.675000   0.045316   -0.053740
 0.680000   0.045041   -0.056724
 0.685000   0.044749   -0.060184
 0.690000   0.044439   -0.063759
 0.695000   0.044111   -0.067383
 0.700000   0.043765   -0.071002
 0.705000   0.043401   -0.074499
 0.710000   0.043020   -0.077903
 0.715000   0.042622   -0.080909
 0.720000   0.042211   -0.083078
 0.725000   0.041791   -0.084414
 0.730000   0.041367   -0.084939
 0.735000   0.040942   -0.084605
 0.740000   0.040521   -0.083314
 0.745000   0.040109   -0.080998
 0.750000   0.039711   -0.077887
 0.755000   0.039330   -0.074245
 0.760000   0.038969   -0.070207
 0.765000   0.038628   -0.065945
 0.770000   0.038309   -0.061522
 0.775000   0.038013   -0.057116
 0.780000   0.037738   -0.053133
 0.785000   0.037481   -0.049650
 0.790000   0.037241   -0.046547
 0.795000   0.037016   -0.043831
 0.800000   0.036803   -0.041488
 0.805000   0.036601   -0.039464
 0.810000   0.036408   -0.037600
 0.815000   0.036225   -0.035754
 0.820000   0.036051   -0.033909
 0.825000   0.035886   -0.032072
 0.830000   0.035730   -0.030256
 0.835000   0.035583   -0.028474
 0.840000   0.035445   -0.026726
 0.845000   0.035316   -0.025018
 0.850000   0.035195   -0.023366
 0.855000   0.035083   -0.021790
 0.860000   0.034977   -0.020320
 0.865000   0.034879   -0.019017
 0.870000   0.034787   -0.017942
 0.875000   0.034700   -0.017109
 0.880000   0.034616   -0.016548
 0.885000   0.034534   -0.016312
 0.890000   0.034453   -0.016470
 0.895000   0.034370   -0.017290
 0.900000   0.034280   -0.018896
 0.905000   0.034181   -0.021517
 0.910000   0.034065   -0.025824
 0.915000   0.033923   -0.032735
 0.920000   0.033738   -0.043774
 0.925000   0.033485   -0.062787
 0.930000   0.033110   -0.093673
 0.935000   0.032548   -0.140816
 0.940000   0.031702   -0.210644
 0.945000   0.030442   -0.307530
 0.950000   0.028626   -0.429943
 0.955000   0.026142   -0.569943
 0.960000   0.022927   -0.695450
 0.965000   0.019188   -0.764114
 0.970000   0.015286   -0.755592
 0.975000   0.011632   -0.674048
 0.980000   0.008545   -0.547121
 0.985000   0.006161   -0.410196
 0.990000   0.004443   -0.289608
 0.995000   0.003264   -0.197393
 1.000000   0.002469   -0.120672
201 psinorm vtor1(km/s) dvtor1/dpsiN
 0.000000   145.675013   705.107979
 0.005000   148.411688   389.561953
 0.010000   149.570632   204.198610
 0.015000   150.453674   161.513139
 0.020000   151.185764   136.778645
 0.025000   151.821460   120.857432
 0.030000   152.394338   109.594637
 0.035000   152.917407   100.086916
 0.040000   153.395207   92.083700
 0.045000   153.838244   85.699619
 0.050000   154.252204   80.085426
 0.055000   154.639098   74.823195
 0.060000   155.000435   70.141853
 0.065000   155.340516   66.015699
 0.070000   155.660592   62.062312
 0.075000   155.961140   58.340567
 0.080000   156.243998   54.955392
 0.085000   156.510694   51.758219
 0.090000   156.761580   48.611690
 0.095000   156.996810   45.638306
 0.100000   157.217963   42.875635
 0.105000   157.425567   40.146247
 0.110000   157.619426   37.397311
 0.115000   157.799540   34.690924
 0.120000   157.966335   32.016854
 0.125000   158.119708   29.180949
 0.130000   158.258145   26.297115
 0.135000   158.382680   23.476323
 0.140000   158.492908   20.543872
 0.145000   158.588118   17.537210
 0.150000   158.668280   14.544657
 0.155000   158.733565   11.548343
 0.160000   158.783763   8.445547
 0.165000   158.818020   5.337112
 0.170000   158.837134   2.342651
 0.175000   158.841447   -0.612157
 0.180000   158.831013   -3.556169
 0.185000   158.805885   -6.432120
 0.190000   158.766692   -9.198748
 0.195000   158.713898   -11.865925
 0.200000   158.648032   -14.396735
 0.205000   158.569930   -16.740890
 0.210000   158.480624   -18.889598
 0.215000   158.381034   -20.870269
 0.220000   158.271921   -22.607144
 0.225000   158.154963   -24.015418
 0.230000   158.031767   -25.283959
 0.235000   157.902123   -26.479639
 0.240000   157.766970   -27.487340
 0.245000   157.627250   -28.334836
 0.250000   157.483622   -29.077880
 0.255000   157.336471   -29.692067
 0.260000   157.186701   -30.379712
 0.265000   157.032674   -31.304704
 0.270000   156.873654   -32.392240
 0.275000   156.708752   -33.656931
 0.280000   156.537085   -35.121240
 0.285000   156.357539   -36.804274
 0.290000   156.169042   -38.523880
 0.295000   155.972300   -40.134757
 0.300000   155.767695   -41.679900
 0.305000   155.555501   -43.172679
 0.310000   155.335968   -44.596296
 0.315000   155.109538   -45.942013
 0.320000   154.876548   -47.215022
 0.325000   154.637388   -48.399005
 0.330000   154.392558   -49.488995
 0.335000   154.142498   -50.497226
 0.340000   153.887585   -51.447246
 0.345000   153.628026   -52.295385
 0.350000   153.364632   -53.039912
 0.355000   153.097627   -53.736786
 0.360000   152.827264   -54.361878
 0.365000   152.554008   -54.877946
 0.370000   152.278484   -55.244912
 0.375000   152.001559   -55.372890
 0.380000   151.724755   -55.279711
 0.385000   151.448762   -55.087719
 0.390000   151.173878   -54.867369
 0.395000   150.900088   -54.721227
 0.400000   150.626666   -54.796839
 0.405000   150.352120   -55.327116
 0.410000   150.073395   -56.490118
 0.415000   149.787218   -58.182655
 0.420000   149.491568   -60.281062
 0.425000   149.184408   -62.750605
 0.430000   148.864062   -65.509072
 0.435000   148.529317   -68.661123
 0.440000   148.177451   -72.096504
 0.445000   147.808352   -75.374304
 0.450000   147.423708   -78.417561
 0.455000   147.024176   -81.304805
 0.460000   146.610660   -83.972591
 0.465000   146.184451   -86.430128
 0.470000   145.746358   -88.511409
 0.475000   145.299336   -89.912512
 0.480000   144.847233   -90.714251
 0.485000   144.392194   -91.164262
 0.490000   143.935591   -91.419214
 0.495000   143.478002   -91.639563
 0.500000   143.019195   -91.949323
 0.505000   142.558509   -92.310243
 0.510000   142.096093   -92.663267
 0.515000   141.631876   -93.031463
 0.520000   141.165778   -93.418785
 0.525000   140.697688   -93.835503
 0.530000   140.227423   -94.313549
 0.535000   139.754553   -94.746307
 0.540000   139.279960   -95.054587
 0.545000   138.804007   -95.298564
 0.550000   138.326974   -95.493633
 0.555000   137.849070   -95.643763
 0.560000   137.370537   -95.766080
 0.565000   136.891410   -95.783158
 0.570000   136.412705   -95.657168
 0.575000   135.934838   -95.456409
 0.580000   135.458141   -95.200794
 0.585000   134.982830   -94.907692
 0.590000   134.509064   -94.566298
 0.595000   134.037167   -94.223331
 0.600000   133.566831   -93.935294
 0.605000   133.097814   -93.719117
 0.610000   132.629640   -93.595986
 0.615000   132.161854   -93.574121
 0.620000   131.693898   -93.622397
 0.625000   131.225630   -93.830768
 0.630000   130.755591   -94.284824
 0.635000   130.282782   -94.953834
 0.640000   129.806052   -95.873358
 0.645000   129.324048   -97.106258
 0.650000   128.834990   -98.817717
 0.655000   128.335871   -101.097913
 0.660000   127.824011   -103.785407
 0.665000   127.298017   -106.612346
 0.670000   126.757887   -109.349113
 0.675000   126.204526   -111.818482
 0.680000   125.639702   -113.786066
 0.685000   125.066665   -115.326885
 0.690000   124.486434   -116.807256
 0.695000   123.898593   -118.373524
 0.700000   123.302698   -120.049193
 0.705000   122.698101   -121.856732
 0.710000   122.084131   -123.788848
 0.715000   121.460212   -125.960176
 0.720000   120.824529   -128.472425
 0.725000   120.175488   -131.280546
 0.730000   119.511724   -134.361647
 0.735000   118.831872   -137.736310
 0.740000   118.134361   -141.614097
 0.745000   117.415731   -146.503009
 0.750000   116.669331   -152.592636
 0.755000   115.889804   -159.665743
 0.760000   115.072673   -167.510353
 0.765000   114.214701   -175.858331
 0.770000   113.314090   -184.782028
 0.775000   112.366880   -194.138746
 0.780000   111.372702   -202.911905
 0.785000   110.337761   -210.837865
 0.790000   109.264324   -218.400898
 0.795000   108.153752   -225.877290
 0.800000   107.005551   -234.083360
 0.805000   105.812919   -244.062710
 0.810000   104.564924   -254.770108
 0.815000   103.265218   -265.149751
 0.820000   101.913426   -275.399676
 0.825000   100.511221   -285.093845
 0.830000   99.062488   -294.150263
 0.835000   97.569718   -302.866919
 0.840000   96.033819   -309.920210
 0.845000   94.470516   -315.484098
 0.850000   92.878978   -321.666790
 0.855000   91.253848   -329.378077
 0.860000   89.585197   -339.729322
 0.865000   87.856555   -354.899698
 0.870000   86.036200   -374.241265
 0.875000   84.114143   -397.595194
 0.880000   82.060248   -427.527284
 0.885000   79.838870   -464.902588
 0.890000   77.411222   -509.990644
 0.895000   74.738963   -563.330357
 0.900000   71.777918   -621.102564
 0.905000   68.527938   -678.577505
 0.910000   64.992143   -732.979856
 0.915000   61.198139   -779.098133
 0.920000   57.201162   -811.432939
 0.925000   53.083810   -824.363474
 0.930000   48.957527   -813.378016
 0.935000   44.950029   -777.912837
 0.940000   41.178399   -720.857673
 0.945000   37.741453   -647.027120
 0.950000   34.708128   -563.001144
 0.955000   32.111441   -475.053162
 0.960000   29.957596   -391.552777
 0.965000   28.195914   -319.574510
 0.970000   26.761851   -261.434892
 0.975000   25.581565   -218.529006
 0.980000   24.576561   -191.009536
 0.985000   23.671469   -176.919658
 0.990000   22.807364   -174.112493
 0.995000   21.930344   -180.403407
 1.000000   21.003330   -190.402191
201 psinorm vpol1(km/s) dvpol1/dpsiN
 0.000000   0.000008   4.982031
 0.005000   0.026812   5.739844
 0.010000   0.057406   6.473438
 0.015000   0.091547   7.174219
 0.020000   0.129148   7.824219
 0.025000   0.169789   8.389063
 0.030000   0.213039   8.832813
 0.035000   0.258117   9.159375
 0.040000   0.304633   9.411719
 0.045000   0.352234   9.569531
 0.050000   0.400328   9.676562
 0.055000   0.449000   9.748438
 0.060000   0.497812   9.771094
 0.065000   0.546711   9.771875
 0.070000   0.595531   9.749219
 0.075000   0.644203   9.692187
 0.080000   0.692453   9.591406
 0.085000   0.740117   9.457031
 0.090000   0.787023   9.286719
 0.095000   0.832984   9.135937
 0.100000   0.878383   9.040625
 0.105000   0.923391   8.996094
 0.110000   0.968344   8.997656
 0.115000   1.013367   9.060156
 0.120000   1.058945   9.175781
 0.125000   1.105125   9.283594
 0.130000   1.151781   9.394531
 0.135000   1.199070   9.490625
 0.140000   1.246687   9.520313
 0.145000   1.294273   9.496094
 0.150000   1.341648   9.370312
 0.155000   1.387977   9.103125
 0.160000   1.432680   8.699219
 0.165000   1.474969   8.186719
 0.170000   1.514547   7.586719
 0.175000   1.550836   6.872656
 0.180000   1.583273   6.120313
 0.185000   1.612039   5.391406
 0.190000   1.637188   4.680469
 0.195000   1.658844   4.013281
 0.200000   1.677320   3.408594
 0.205000   1.692930   2.858594
 0.210000   1.705906   2.358594
 0.215000   1.716516   1.898438
 0.220000   1.724891   1.433594
 0.225000   1.730852   0.964063
 0.230000   1.734531   0.492969
 0.235000   1.735781   0.010937
 0.240000   1.734641   -0.484766
 0.245000   1.730934   -0.978516
 0.250000   1.724855   -1.453125
 0.255000   1.716402   -1.964453
 0.260000   1.705211   -2.507812
 0.265000   1.691324   -3.109375
 0.270000   1.674117   -3.812891
 0.275000   1.653195   -4.612500
 0.280000   1.627992   -5.509375
 0.285000   1.598102   -6.513281
 0.290000   1.562859   -7.649219
 0.295000   1.521609   -8.889453
 0.300000   1.473965   -10.172266
 0.305000   1.419887   -11.454297
 0.310000   1.359422   -12.707422
 0.315000   1.292812   -13.887891
 0.320000   1.220543   -14.892578
 0.325000   1.143887   -15.646484
 0.330000   1.064078   -16.204687
 0.335000   0.981840   -16.634766
 0.340000   0.897730   -16.976953
 0.345000   0.812070   -17.315234
 0.350000   0.724578   -17.741797
 0.355000   0.634652   -18.380859
 0.360000   0.540770   -19.296094
 0.365000   0.441691   -20.455078
 0.370000   0.336219   -21.840625
 0.375000   0.223285   -23.397656
 0.380000   0.102242   -25.052344
 0.385000   -0.027238   -26.580469
 0.390000   -0.163562   -27.947656
 0.395000   -0.306715   -29.428906
 0.400000   -0.457852   -31.248437
 0.405000   -0.619199   -33.594141
 0.410000   -0.793793   -36.891406
 0.415000   -0.988113   -40.828125
 0.420000   -1.202074   -44.858594
 0.425000   -1.436699   -48.996875
 0.430000   -1.692043   -53.017187
 0.435000   -1.966871   -56.719141
 0.440000   -2.259234   -59.879687
 0.445000   -2.565668   -61.755078
 0.450000   -2.876785   -61.972656
 0.455000   -3.185395   -60.705078
 0.460000   -3.483836   -57.937109
 0.465000   -3.764766   -53.654297
 0.470000   -4.020379   -47.898828
 0.475000   -4.243754   -41.566797
 0.480000   -4.436047   -35.472266
 0.485000   -4.598477   -29.750781
 0.490000   -4.733555   -24.620703
 0.495000   -4.844684   -20.112500
 0.500000   -4.934680   -16.481641
 0.505000   -5.009500   -14.026953
 0.510000   -5.074949   -12.448828
 0.515000   -5.133988   -11.356055
 0.520000   -5.188510   -10.555859
 0.525000   -5.239547   -9.887500
 0.530000   -5.287385   -9.261328
 0.535000   -5.332160   -8.636328
 0.540000   -5.373748   -7.991211
 0.545000   -5.412072   -7.333398
 0.550000   -5.447082   -6.654102
 0.555000   -5.478613   -5.951563
 0.560000   -5.506598   -5.233203
 0.565000   -5.530945   -4.493945
 0.570000   -5.551537   -3.749023
 0.575000   -5.568436   -3.016992
 0.580000   -5.581707   -2.307227
 0.585000   -5.591508   -1.629102
 0.590000   -5.597998   -0.994531
 0.595000   -5.601453   -0.416992
 0.600000   -5.602168   0.093555
 0.605000   -5.600518   0.556250
 0.610000   -5.596605   0.966406
 0.615000   -5.590854   1.316211
 0.620000   -5.583443   1.630273
 0.625000   -5.574551   1.899805
 0.630000   -5.564445   2.138086
 0.635000   -5.553170   2.356250
 0.640000   -5.540883   2.536719
 0.645000   -5.527803   2.686133
 0.650000   -5.514021   2.809766
 0.655000   -5.499705   2.892383
 0.660000   -5.485098   2.953125
 0.665000   -5.470174   2.997754
 0.670000   -5.455120   3.016992
 0.675000   -5.440004   3.031152
 0.680000   -5.424809   3.035059
 0.685000   -5.409653   2.999609
 0.690000   -5.394813   2.924023
 0.695000   -5.380413   2.794043
 0.700000   -5.366872   2.600195
 0.705000   -5.354411   2.339746
 0.710000   -5.343475   1.991602
 0.715000   -5.334495   1.559766
 0.720000   -5.327877   1.057227
 0.725000   -5.323923   0.500293
 0.730000   -5.322874   -0.098145
 0.735000   -5.324904   -0.713867
 0.740000   -5.330013   -1.317334
 0.745000   -5.338078   -1.908740
 0.750000   -5.349100   -2.484717
 0.755000   -5.362925   -3.058008
 0.760000   -5.379680   -3.704980
 0.765000   -5.399975   -4.530957
 0.770000   -5.424990   -5.588843
 0.775000   -5.455863   -6.909912
 0.780000   -5.494089   -8.542334
 0.785000   -5.541286   -10.494177
 0.790000   -5.599031   -12.837524
 0.795000   -5.669662   -15.362054
 0.800000   -5.752651   -17.799615
 0.805000   -5.847658   -20.107343
 0.810000   -5.953725   -22.136859
 0.815000   -6.069026   -23.726855
 0.820000   -6.190993   -24.635254
 0.825000   -6.315379   -24.801318
 0.830000   -6.439006   -24.354736
 0.835000   -6.558926   -23.370020
 0.840000   -6.672707   -21.960303
 0.845000   -6.778529   -20.222705
 0.850000   -6.874934   -18.283496
 0.855000   -6.961364   -16.590137
 0.860000   -7.040835   -15.395410
 0.865000   -7.115318   -14.577637
 0.870000   -7.186611   -14.087793
 0.875000   -7.256196   -13.855859
 0.880000   -7.325170   -13.779102
 0.885000   -7.393987   -13.695508
 0.890000   -7.462125   -13.491699
 0.895000   -7.528904   -13.019336
 0.900000   -7.592318   -11.982422
 0.905000   -7.648729   -10.066211
 0.910000   -7.692980   -6.621484
 0.915000   -7.714943   -0.767383
 0.920000   -7.700654   8.177148
 0.925000   -7.633172   20.940625
 0.930000   -7.491248   38.206641
 0.935000   -7.251105   60.783203
 0.940000   -6.883416   85.450391
 0.945000   -6.396602   101.729102
 0.950000   -5.866125   94.922266
 0.955000   -5.447379   51.256250
 0.960000   -5.353562   -28.746094
 0.965000   -5.734840   -112.107813
 0.970000   -6.474641   -125.065625
 0.975000   -6.985496   6.017578
 0.980000   -6.414465   276.182422
 0.985000   -4.223672   564.908984
 0.990000   -0.765375   694.207031
 0.995000   2.718398   557.748828
 1.000000   4.812113   279.737109
3 N Z A of ION SPECIES
 6.000000   6.000000   12.010700
 1.000000   1.000000   2.000000
 1.000000   1.000000   2.000000
