201 psinorm ne(10^20/m^3) dne/dpsiN
 0.000000   0.545020   -0.423615
 0.005000   0.542909   -0.420864
 0.010000   0.540812   -0.418123
 0.015000   0.538728   -0.415402
 0.020000   0.536658   -0.412699
 0.025000   0.534601   -0.410015
 0.030000   0.532557   -0.407350
 0.035000   0.530527   -0.404704
 0.040000   0.528510   -0.402075
 0.045000   0.526507   -0.399466
 0.050000   0.524516   -0.396874
 0.055000   0.522538   -0.394300
 0.060000   0.520573   -0.391744
 0.065000   0.518620   -0.389206
 0.070000   0.516681   -0.386685
 0.075000   0.514754   -0.384181
 0.080000   0.512839   -0.381695
 0.085000   0.510937   -0.379226
 0.090000   0.509047   -0.376774
 0.095000   0.507169   -0.374338
 0.100000   0.505303   -0.371919
 0.105000   0.503450   -0.369517
 0.110000   0.501608   -0.367131
 0.115000   0.499778   -0.364762
 0.120000   0.497960   -0.362409
 0.125000   0.496154   -0.360071
 0.130000   0.494360   -0.357750
 0.135000   0.492577   -0.355444
 0.140000   0.490805   -0.353154
 0.145000   0.489045   -0.350879
 0.150000   0.487296   -0.348620
 0.155000   0.485559   -0.346376
 0.160000   0.483833   -0.344147
 0.165000   0.482118   -0.341933
 0.170000   0.480413   -0.339734
 0.175000   0.478720   -0.337550
 0.180000   0.477038   -0.335380
 0.185000   0.475366   -0.333225
 0.190000   0.473706   -0.331084
 0.195000   0.472056   -0.328958
 0.200000   0.470416   -0.326845
 0.205000   0.468787   -0.324747
 0.210000   0.467169   -0.322663
 0.215000   0.465560   -0.320592
 0.220000   0.463963   -0.318536
 0.225000   0.462375   -0.316492
 0.230000   0.460798   -0.314463
 0.235000   0.459230   -0.312446
 0.240000   0.457673   -0.310443
 0.245000   0.456126   -0.308454
 0.250000   0.454589   -0.306477
 0.255000   0.453061   -0.304513
 0.260000   0.451544   -0.302562
 0.265000   0.450036   -0.300624
 0.270000   0.448537   -0.298698
 0.275000   0.447049   -0.296785
 0.280000   0.445570   -0.294885
 0.285000   0.444100   -0.292997
 0.290000   0.442640   -0.291121
 0.295000   0.441189   -0.289257
 0.300000   0.439747   -0.287405
 0.305000   0.438315   -0.285565
 0.310000   0.436891   -0.283737
 0.315000   0.435477   -0.281921
 0.320000   0.434072   -0.280117
 0.325000   0.432676   -0.278324
 0.330000   0.431289   -0.276542
 0.335000   0.429911   -0.274772
 0.340000   0.428541   -0.273013
 0.345000   0.427180   -0.271266
 0.350000   0.425829   -0.269530
 0.355000   0.424485   -0.267804
 0.360000   0.423150   -0.266090
 0.365000   0.421824   -0.264386
 0.370000   0.420507   -0.262693
 0.375000   0.419197   -0.261011
 0.380000   0.417896   -0.259340
 0.385000   0.416604   -0.257679
 0.390000   0.415320   -0.256028
 0.395000   0.414044   -0.254388
 0.400000   0.412776   -0.252758
 0.405000   0.411516   -0.251138
 0.410000   0.410264   -0.249529
 0.415000   0.409021   -0.247929
 0.420000   0.407785   -0.246339
 0.425000   0.406557   -0.244760
 0.430000   0.405338   -0.243190
 0.435000   0.404126   -0.241629
 0.440000   0.402921   -0.240079
 0.445000   0.401725   -0.238537
 0.450000   0.400536   -0.237006
 0.455000   0.399355   -0.235484
 0.460000   0.398181   -0.233971
 0.465000   0.397015   -0.232467
 0.470000   0.395856   -0.230972
 0.475000   0.394705   -0.229487
 0.480000   0.393562   -0.228011
 0.485000   0.392425   -0.226543
 0.490000   0.391296   -0.225085
 0.495000   0.390174   -0.223635
 0.500000   0.389060   -0.222194
 0.505000   0.387952   -0.220762
 0.510000   0.386852   -0.219339
 0.515000   0.385759   -0.217923
 0.520000   0.384673   -0.216517
 0.525000   0.383594   -0.215119
 0.530000   0.382522   -0.213729
 0.535000   0.381456   -0.212347
 0.540000   0.380398   -0.210974
 0.545000   0.379347   -0.209609
 0.550000   0.378302   -0.208252
 0.555000   0.377264   -0.206903
 0.560000   0.376233   -0.205561
 0.565000   0.375209   -0.204228
 0.570000   0.374191   -0.202903
 0.575000   0.373180   -0.201585
 0.580000   0.372175   -0.200275
 0.585000   0.371177   -0.198973
 0.590000   0.370185   -0.197678
 0.595000   0.369200   -0.196391
 0.600000   0.368221   -0.195111
 0.605000   0.367249   -0.193839
 0.610000   0.366283   -0.192574
 0.615000   0.365323   -0.191316
 0.620000   0.364370   -0.190066
 0.625000   0.363423   -0.188822
 0.630000   0.362482   -0.187586
 0.635000   0.361547   -0.186357
 0.640000   0.360618   -0.185135
 0.645000   0.359695   -0.183920
 0.650000   0.358779   -0.182711
 0.655000   0.357868   -0.181510
 0.660000   0.356964   -0.180315
 0.665000   0.356065   -0.179127
 0.670000   0.355172   -0.177946
 0.675000   0.354286   -0.176771
 0.680000   0.353405   -0.175603
 0.685000   0.352530   -0.174441
 0.690000   0.351660   -0.173286
 0.695000   0.350797   -0.172138
 0.700000   0.349939   -0.170995
 0.705000   0.349087   -0.169859
 0.710000   0.348240   -0.168729
 0.715000   0.347399   -0.167606
 0.720000   0.346564   -0.166488
 0.725000   0.345735   -0.165377
 0.730000   0.344910   -0.164272
 0.735000   0.344092   -0.163173
 0.740000   0.343279   -0.162079
 0.745000   0.342471   -0.160992
 0.750000   0.341669   -0.159910
 0.755000   0.340872   -0.158835
 0.760000   0.340081   -0.157765
 0.765000   0.339294   -0.156701
 0.770000   0.338514   -0.155642
 0.775000   0.337738   -0.154589
 0.780000   0.336968   -0.153542
 0.785000   0.336203   -0.152500
 0.790000   0.335443   -0.151464
 0.795000   0.334688   -0.150433
 0.800000   0.333938   -0.149407
 0.805000   0.333194   -0.148387
 0.810000   0.332454   -0.147372
 0.815000   0.331720   -0.146362
 0.820000   0.330991   -0.145357
 0.825000   0.330267   -0.144358
 0.830000   0.329547   -0.143365
 0.835000   0.328833   -0.142378
 0.840000   0.328123   -0.141400
 0.845000   0.327419   -0.140433
 0.850000   0.326719   -0.139483
 0.855000   0.326024   -0.138559
 0.860000   0.325334   -0.137680
 0.865000   0.324647   -0.136875
 0.870000   0.323965   -0.136197
 0.875000   0.323285   -0.135738
 0.880000   0.322607   -0.135652
 0.885000   0.321929   -0.136204
 0.890000   0.321245   -0.137842
 0.895000   0.320550   -0.141319
 0.900000   0.319832   -0.147901
 0.905000   0.319071   -0.159692
 0.910000   0.318235   -0.180171
 0.915000   0.317270   -0.215035
 0.920000   0.316085   -0.273464
 0.925000   0.314535   -0.369911
 0.930000   0.312386   -0.526297
 0.935000   0.309272   -0.773813
 0.940000   0.304648   -1.152001
 0.945000   0.297752   -1.700112
 0.950000   0.287647   -2.433579
 0.955000   0.273416   -3.303632
 0.960000   0.254610   -4.160713
 0.965000   0.231809   -4.773626
 0.970000   0.206874   -4.939654
 0.975000   0.182413   -4.619235
 0.980000   0.160682   -3.961251
 0.985000   0.142800   -3.191823
 0.990000   0.128763   -2.486218
 0.995000   0.117938   -1.923235
 1.000000   0.109531   -1.439494
201 psinorm te(KeV) dte/dpsiN
 0.000000   3.903812   -2.665035
 0.005000   3.890434   -2.686166
 0.010000   3.876950   -2.707156
 0.015000   3.863362   -2.727861
 0.020000   3.849672   -2.748281
 0.025000   3.835880   -2.768413
 0.030000   3.821988   -2.788257
 0.035000   3.807997   -2.807811
 0.040000   3.793909   -2.827074
 0.045000   3.779726   -2.846045
 0.050000   3.765449   -2.864723
 0.055000   3.751079   -2.883106
 0.060000   3.736618   -2.901194
 0.065000   3.722067   -2.918986
 0.070000   3.707428   -2.936480
 0.075000   3.692702   -2.953676
 0.080000   3.677891   -2.970573
 0.085000   3.662997   -2.987170
 0.090000   3.648020   -3.003467
 0.095000   3.632962   -3.019462
 0.100000   3.617825   -3.035156
 0.105000   3.602610   -3.050547
 0.110000   3.587320   -3.065636
 0.115000   3.571954   -3.080421
 0.120000   3.556515   -3.094902
 0.125000   3.541005   -3.109079
 0.130000   3.525425   -3.122951
 0.135000   3.509775   -3.136519
 0.140000   3.494059   -3.149781
 0.145000   3.478278   -3.162738
 0.150000   3.462432   -3.175390
 0.155000   3.446524   -3.187736
 0.160000   3.430555   -3.199777
 0.165000   3.414526   -3.211513
 0.170000   3.398439   -3.222942
 0.175000   3.382297   -3.234067
 0.180000   3.366099   -3.244886
 0.185000   3.349848   -3.255401
 0.190000   3.333545   -3.265610
 0.195000   3.317192   -3.275515
 0.200000   3.300790   -3.285116
 0.205000   3.284340   -3.294413
 0.210000   3.267846   -3.303407
 0.215000   3.251306   -3.312098
 0.220000   3.234725   -3.320487
 0.225000   3.218101   -3.328574
 0.230000   3.201439   -3.336359
 0.235000   3.184738   -3.343844
 0.240000   3.168000   -3.351030
 0.245000   3.151228   -3.357916
 0.250000   3.134421   -3.364504
 0.255000   3.117583   -3.370794
 0.260000   3.100713   -3.376788
 0.265000   3.083815   -3.382486
 0.270000   3.066888   -3.387889
 0.275000   3.049936   -3.392998
 0.280000   3.032958   -3.397815
 0.285000   3.015958   -3.402340
 0.290000   2.998935   -3.406574
 0.295000   2.981892   -3.410519
 0.300000   2.964830   -3.414176
 0.305000   2.947750   -3.417545
 0.310000   2.930654   -3.420629
 0.315000   2.913544   -3.423428
 0.320000   2.896420   -3.425945
 0.325000   2.879284   -3.428179
 0.330000   2.862138   -3.430133
 0.335000   2.844983   -3.431808
 0.340000   2.827820   -3.433205
 0.345000   2.810651   -3.434327
 0.350000   2.793477   -3.435174
 0.355000   2.776299   -3.435748
 0.360000   2.759119   -3.436051
 0.365000   2.741939   -3.436085
 0.370000   2.724759   -3.435850
 0.375000   2.707580   -3.435350
 0.380000   2.690405   -3.434585
 0.385000   2.673234   -3.433557
 0.390000   2.656070   -3.432268
 0.395000   2.638912   -3.430721
 0.400000   2.621762   -3.428916
 0.405000   2.604623   -3.426855
 0.410000   2.587494   -3.424542
 0.415000   2.570377   -3.421976
 0.420000   2.553274   -3.419162
 0.425000   2.536186   -3.416099
 0.430000   2.519113   -3.412792
 0.435000   2.502058   -3.409240
 0.440000   2.485021   -3.405448
 0.445000   2.468003   -3.401416
 0.450000   2.451006   -3.397146
 0.455000   2.434032   -3.392642
 0.460000   2.417080   -3.387905
 0.465000   2.400153   -3.382937
 0.470000   2.383251   -3.377740
 0.475000   2.366375   -3.372317
 0.480000   2.349528   -3.366670
 0.485000   2.332709   -3.360801
 0.490000   2.315919   -3.354713
 0.495000   2.299161   -3.348407
 0.500000   2.282435   -3.341886
 0.505000   2.265743   -3.335152
 0.510000   2.249084   -3.328209
 0.515000   2.232460   -3.321057
 0.520000   2.215873   -3.313700
 0.525000   2.199323   -3.306139
 0.530000   2.182812   -3.298378
 0.535000   2.166340   -3.290418
 0.540000   2.149908   -3.282262
 0.545000   2.133517   -3.273913
 0.550000   2.117169   -3.265373
 0.555000   2.100863   -3.256644
 0.560000   2.084602   -3.247729
 0.565000   2.068386   -3.238630
 0.570000   2.052216   -3.229351
 0.575000   2.036093   -3.219892
 0.580000   2.020017   -3.210258
 0.585000   2.003990   -3.200449
 0.590000   1.988012   -3.190470
 0.595000   1.972085   -3.180322
 0.600000   1.956209   -3.170008
 0.605000   1.940385   -3.159530
 0.610000   1.924614   -3.148892
 0.615000   1.908896   -3.138095
 0.620000   1.893233   -3.127142
 0.625000   1.877625   -3.116036
 0.630000   1.862073   -3.104779
 0.635000   1.846577   -3.093374
 0.640000   1.831139   -3.081823
 0.645000   1.815759   -3.070129
 0.650000   1.800438   -3.058295
 0.655000   1.785176   -3.046323
 0.660000   1.769974   -3.034215
 0.665000   1.754834   -3.021975
 0.670000   1.739755   -3.009604
 0.675000   1.724738   -2.997105
 0.680000   1.709784   -2.984481
 0.685000   1.694893   -2.971734
 0.690000   1.680066   -2.958867
 0.695000   1.665304   -2.945883
 0.700000   1.650607   -2.932782
 0.705000   1.635976   -2.919569
 0.710000   1.621412   -2.906245
 0.715000   1.606914   -2.892813
 0.720000   1.592484   -2.879274
 0.725000   1.578121   -2.865632
 0.730000   1.563827   -2.851886
 0.735000   1.549602   -2.838041
 0.740000   1.535447   -2.824096
 0.745000   1.521361   -2.810054
 0.750000   1.507346   -2.795915
 0.755000   1.493402   -2.781679
 0.760000   1.479530   -2.767347
 0.765000   1.465729   -2.752917
 0.770000   1.452000   -2.738387
 0.775000   1.438345   -2.723754
 0.780000   1.424763   -2.709014
 0.785000   1.411255   -2.694161
 0.790000   1.397821   -2.679185
 0.795000   1.384463   -2.664077
 0.800000   1.371180   -2.648820
 0.805000   1.357975   -2.633398
 0.810000   1.344846   -2.617789
 0.815000   1.331797   -2.601967
 0.820000   1.318827   -2.585903
 0.825000   1.305938   -2.569563
 0.830000   1.293131   -2.552913
 0.835000   1.280409   -2.535924
 0.840000   1.267772   -2.518573
 0.845000   1.255223   -2.500863
 0.850000   1.242763   -2.482836
 0.855000   1.230395   -2.464609
 0.860000   1.218117   -2.446419
 0.865000   1.205930   -2.428701
 0.870000   1.193830   -2.412200
 0.875000   1.181808   -2.398146
 0.880000   1.169849   -2.388511
 0.885000   1.157923   -2.386394
 0.890000   1.145985   -2.396587
 0.895000   1.133957   -2.426392
 0.900000   1.121721   -2.486798
 0.905000   1.109089   -2.594137
 0.910000   1.095780   -2.772321
 0.915000   1.081366   -3.055748
 0.920000   1.065222   -3.492702
 0.925000   1.046439   -4.148612
 0.930000   1.023736   -5.107382
 0.935000   0.995365   -6.467040
 0.940000   0.959066   -8.322854
 0.945000   0.912137   -10.728288
 0.950000   0.851783   -13.626100
 0.955000   0.775876   -16.758368
 0.960000   0.684199   -19.604186
 0.965000   0.579834   -21.440556
 0.970000   0.469793   -21.603611
 0.975000   0.363798   -19.866776
 0.980000   0.271126   -16.648122
 0.985000   0.197317   -12.812182
 0.990000   0.143004   -9.204950
 0.995000   0.105267   -6.309985
 1.000000   0.079904   -3.835265
201 psinorm ni(10^20/m^3) dni/dpsiN
 0.000000   0.345612   -0.520091
 0.005000   0.343211   -0.440077
 0.010000   0.341211   -0.371816
 0.015000   0.339493   -0.319344
 0.020000   0.338017   -0.274942
 0.025000   0.336744   -0.236806
 0.030000   0.335649   -0.203652
 0.035000   0.334707   -0.175457
 0.040000   0.333895   -0.151437
 0.045000   0.333193   -0.131397
 0.050000   0.332581   -0.114444
 0.055000   0.332048   -0.100201
 0.060000   0.331579   -0.088483
 0.065000   0.331163   -0.078980
 0.070000   0.330789   -0.071386
 0.075000   0.330450   -0.065176
 0.080000   0.330137   -0.060603
 0.085000   0.329844   -0.057621
 0.090000   0.329561   -0.056038
 0.095000   0.329283   -0.055457
 0.100000   0.329006   -0.055712
 0.105000   0.328726   -0.056920
 0.110000   0.328437   -0.058823
 0.115000   0.328138   -0.061148
 0.120000   0.327826   -0.063909
 0.125000   0.327499   -0.067258
 0.130000   0.327153   -0.070906
 0.135000   0.326790   -0.074636
 0.140000   0.326407   -0.078611
 0.145000   0.326004   -0.082745
 0.150000   0.325579   -0.086961
 0.155000   0.325134   -0.091242
 0.160000   0.324667   -0.095666
 0.165000   0.324177   -0.100221
 0.170000   0.323665   -0.104666
 0.175000   0.323131   -0.108942
 0.180000   0.322575   -0.113076
 0.185000   0.322000   -0.117095
 0.190000   0.321404   -0.121052
 0.195000   0.320789   -0.124900
 0.200000   0.320155   -0.128609
 0.205000   0.319503   -0.132170
 0.210000   0.318834   -0.135633
 0.215000   0.318147   -0.139408
 0.220000   0.317440   -0.142963
 0.225000   0.316717   -0.145865
 0.230000   0.315981   -0.148561
 0.235000   0.315232   -0.151052
 0.240000   0.314470   -0.153359
 0.245000   0.313698   -0.155781
 0.250000   0.312913   -0.158235
 0.255000   0.312116   -0.160209
 0.260000   0.311311   -0.161839
 0.265000   0.310497   -0.163400
 0.270000   0.309677   -0.164904
 0.275000   0.308848   -0.166805
 0.280000   0.308009   -0.168626
 0.285000   0.307162   -0.169947
 0.290000   0.306309   -0.171293
 0.295000   0.305449   -0.172680
 0.300000   0.304582   -0.174432
 0.305000   0.303705   -0.176174
 0.310000   0.302820   -0.177559
 0.315000   0.301929   -0.178980
 0.320000   0.301031   -0.180488
 0.325000   0.300124   -0.182147
 0.330000   0.299209   -0.183652
 0.335000   0.298288   -0.184884
 0.340000   0.297360   -0.186070
 0.345000   0.296427   -0.187347
 0.350000   0.295487   -0.188589
 0.355000   0.294541   -0.189602
 0.360000   0.293591   -0.190540
 0.365000   0.292636   -0.191542
 0.370000   0.291675   -0.192671
 0.375000   0.290709   -0.193764
 0.380000   0.289738   -0.194791
 0.385000   0.288761   -0.195876
 0.390000   0.287779   -0.197142
 0.395000   0.286790   -0.198412
 0.400000   0.285795   -0.199524
 0.405000   0.284795   -0.200612
 0.410000   0.283789   -0.201731
 0.415000   0.282777   -0.202798
 0.420000   0.281761   -0.203686
 0.425000   0.280740   -0.204440
 0.430000   0.279716   -0.205133
 0.435000   0.278689   -0.205741
 0.440000   0.277659   -0.206167
 0.445000   0.276627   -0.206453
 0.450000   0.275595   -0.206690
 0.455000   0.274560   -0.206885
 0.460000   0.273526   -0.206956
 0.465000   0.272491   -0.206911
 0.470000   0.271457   -0.206821
 0.475000   0.270423   -0.206702
 0.480000   0.269390   -0.206410
 0.485000   0.268359   -0.205860
 0.490000   0.267331   -0.205102
 0.495000   0.266308   -0.204181
 0.500000   0.265289   -0.203001
 0.505000   0.264278   -0.201469
 0.510000   0.263274   -0.199659
 0.515000   0.262281   -0.197628
 0.520000   0.261298   -0.195355
 0.525000   0.260327   -0.192785
 0.530000   0.259370   -0.189952
 0.535000   0.258428   -0.186935
 0.540000   0.257501   -0.183767
 0.545000   0.256590   -0.180394
 0.550000   0.255697   -0.176817
 0.555000   0.254822   -0.173080
 0.560000   0.253966   -0.169228
 0.565000   0.253130   -0.165213
 0.570000   0.252314   -0.160980
 0.575000   0.251520   -0.156565
 0.580000   0.250748   -0.151987
 0.585000   0.250000   -0.147244
 0.590000   0.249276   -0.142314
 0.595000   0.248577   -0.137223
 0.600000   0.247904   -0.132008
 0.605000   0.247257   -0.126705
 0.610000   0.246637   -0.121304
 0.615000   0.246044   -0.115801
 0.620000   0.245479   -0.110236
 0.625000   0.244942   -0.104613
 0.630000   0.244433   -0.098937
 0.635000   0.243952   -0.093212
 0.640000   0.243500   -0.087447
 0.645000   0.243078   -0.081663
 0.650000   0.242684   -0.075861
 0.655000   0.242319   -0.070053
 0.660000   0.241983   -0.064270
 0.665000   0.241676   -0.058485
 0.670000   0.241398   -0.052542
 0.675000   0.241151   -0.046141
 0.680000   0.240937   -0.038462
 0.685000   0.240766   -0.029045
 0.690000   0.240647   -0.018247
 0.695000   0.240584   -0.006216
 0.700000   0.240584   0.006985
 0.705000   0.240654   0.021128
 0.710000   0.240796   0.036470
 0.715000   0.241018   0.052111
 0.720000   0.241317   0.066410
 0.725000   0.241683   0.079132
 0.730000   0.242108   0.090132
 0.735000   0.242584   0.098924
 0.740000   0.243097   0.105064
 0.745000   0.243634   0.107778
 0.750000   0.244175   0.106774
 0.755000   0.244702   0.102552
 0.760000   0.245201   0.095520
 0.765000   0.245657   0.086101
 0.770000   0.246062   0.074455
 0.775000   0.246402   0.061163
 0.780000   0.246673   0.047930
 0.785000   0.246881   0.035523
 0.790000   0.247029   0.023811
 0.795000   0.247119   0.013034
 0.800000   0.247159   0.003264
 0.805000   0.247152   -0.005301
 0.810000   0.247106   -0.012484
 0.815000   0.247027   -0.018828
 0.820000   0.246918   -0.024987
 0.825000   0.246777   -0.031185
 0.830000   0.246606   -0.037498
 0.835000   0.246402   -0.043885
 0.840000   0.246167   -0.050180
 0.845000   0.245901   -0.056272
 0.850000   0.245604   -0.062159
 0.855000   0.245279   -0.067830
 0.860000   0.244926   -0.073259
 0.865000   0.244546   -0.078441
 0.870000   0.244141   -0.083368
 0.875000   0.243713   -0.088090
 0.880000   0.243261   -0.092826
 0.885000   0.242784   -0.097920
 0.890000   0.242281   -0.103880
 0.895000   0.241746   -0.111516
 0.900000   0.241166   -0.122059
 0.905000   0.240525   -0.137488
 0.910000   0.239791   -0.161051
 0.915000   0.238915   -0.197795
 0.920000   0.237813   -0.255363
 0.925000   0.236361   -0.344956
 0.930000   0.234364   -0.481756
 0.935000   0.231543   -0.686516
 0.940000   0.227499   -0.984763
 0.945000   0.221696   -1.398947
 0.950000   0.213509   -1.930482
 0.955000   0.202391   -2.520912
 0.960000   0.188300   -3.049429
 0.965000   0.171897   -3.356370
 0.970000   0.154736   -3.317108
 0.975000   0.138726   -2.951963
 0.980000   0.125217   -2.417018
 0.985000   0.114555   -1.888099
 0.990000   0.106336   -1.467522
 0.995000   0.099880   -1.170169
 1.000000   0.094634   -0.928251
201 psinorm ti(KeV) dti/dpsiN
 0.000000   5.442564   0.002740
 0.005000   5.441944   -0.250778
 0.010000   5.440056   -0.508273
 0.015000   5.436861   -0.773355
 0.020000   5.432323   -1.045186
 0.025000   5.426409   -1.322724
 0.030000   5.419096   -1.604738
 0.035000   5.410362   -1.889836
 0.040000   5.400197   -2.175882
 0.045000   5.388603   -2.461546
 0.050000   5.375582   -2.746040
 0.055000   5.361143   -3.027847
 0.060000   5.345303   -3.305814
 0.065000   5.328085   -3.579066
 0.070000   5.309513   -3.845915
 0.075000   5.289625   -4.106817
 0.080000   5.268444   -4.362991
 0.085000   5.245996   -4.613675
 0.090000   5.222308   -4.858771
 0.095000   5.197408   -5.098568
 0.100000   5.171322   -5.333318
 0.105000   5.144075   -5.563963
 0.110000   5.115682   -5.790974
 0.115000   5.086165   -6.013864
 0.120000   5.055544   -6.232450
 0.125000   5.023840   -6.446416
 0.130000   4.991080   -6.655881
 0.135000   4.957282   -6.859909
 0.140000   4.922480   -7.056455
 0.145000   4.886717   -7.244954
 0.150000   4.850031   -7.425252
 0.155000   4.812465   -7.596639
 0.160000   4.774065   -7.758739
 0.165000   4.734877   -7.910161
 0.170000   4.694963   -8.048815
 0.175000   4.654389   -8.174218
 0.180000   4.613221   -8.286302
 0.185000   4.571526   -8.384470
 0.190000   4.529376   -8.467296
 0.195000   4.486853   -8.531859
 0.200000   4.444057   -8.579343
 0.205000   4.401060   -8.614351
 0.210000   4.357914   -8.640464
 0.215000   4.314655   -8.661298
 0.220000   4.271301   -8.679978
 0.225000   4.227855   -8.700587
 0.230000   4.184295   -8.723313
 0.235000   4.140622   -8.745799
 0.240000   4.096837   -8.767975
 0.245000   4.052942   -8.789323
 0.250000   4.008944   -8.810069
 0.255000   3.964842   -8.832375
 0.260000   3.920620   -8.845429
 0.265000   3.876387   -8.841491
 0.270000   3.832205   -8.824527
 0.275000   3.788142   -8.793313
 0.280000   3.744272   -8.746977
 0.285000   3.700672   -8.685056
 0.290000   3.657422   -8.603152
 0.295000   3.614641   -8.500311
 0.300000   3.572418   -8.379365
 0.305000   3.530847   -8.239739
 0.310000   3.490021   -8.081553
 0.315000   3.450032   -7.901228
 0.320000   3.411009   -7.711281
 0.325000   3.372919   -7.524782
 0.330000   3.335761   -7.339085
 0.335000   3.299528   -7.155523
 0.340000   3.264206   -6.975415
 0.345000   3.229774   -6.798696
 0.350000   3.196219   -6.629607
 0.355000   3.163478   -6.470381
 0.360000   3.131515   -6.317992
 0.365000   3.100298   -6.172044
 0.370000   3.069794   -6.032292
 0.375000   3.039975   -5.901027
 0.380000   3.010784   -5.774548
 0.385000   2.982229   -5.643879
 0.390000   2.954345   -5.505713
 0.395000   2.927172   -5.359185
 0.400000   2.900754   -5.204179
 0.405000   2.875130   -5.039120
 0.410000   2.850362   -4.865503
 0.415000   2.826475   -4.690849
 0.420000   2.803454   -4.519969
 0.425000   2.781276   -4.354280
 0.430000   2.759911   -4.195030
 0.435000   2.739325   -4.041071
 0.440000   2.719500   -3.893333
 0.445000   2.700392   -3.755149
 0.450000   2.681949   -3.626100
 0.455000   2.664131   -3.505077
 0.460000   2.646898   -3.392284
 0.465000   2.630208   -3.287684
 0.470000   2.614021   -3.192155
 0.475000   2.598287   -3.106269
 0.480000   2.582959   -3.028978
 0.485000   2.567997   -2.959272
 0.490000   2.553366   -2.896152
 0.495000   2.539035   -2.838059
 0.500000   2.524985   -2.781929
 0.505000   2.511216   -2.726088
 0.510000   2.497724   -2.672228
 0.515000   2.484494   -2.621798
 0.520000   2.471506   -2.575131
 0.525000   2.458743   -2.532148
 0.530000   2.446185   -2.492358
 0.535000   2.433819   -2.456637
 0.540000   2.421619   -2.425632
 0.545000   2.409563   -2.398807
 0.550000   2.397630   -2.376142
 0.555000   2.385801   -2.357471
 0.560000   2.374056   -2.342276
 0.565000   2.362378   -2.331557
 0.570000   2.350740   -2.325839
 0.575000   2.339120   -2.324231
 0.580000   2.327498   -2.326631
 0.585000   2.315854   -2.332919
 0.590000   2.304169   -2.343073
 0.595000   2.292423   -2.357223
 0.600000   2.280596   -2.375194
 0.605000   2.268671   -2.396662
 0.610000   2.256630   -2.421455
 0.615000   2.244457   -2.449344
 0.620000   2.232136   -2.481213
 0.625000   2.219644   -2.515839
 0.630000   2.206978   -2.551462
 0.635000   2.194130   -2.588379
 0.640000   2.181094   -2.626148
 0.645000   2.167868   -2.664257
 0.650000   2.154452   -2.703535
 0.655000   2.140833   -2.743390
 0.660000   2.127018   -2.783045
 0.665000   2.113003   -2.823452
 0.670000   2.098783   -2.864410
 0.675000   2.084358   -2.905312
 0.680000   2.069730   -2.946698
 0.685000   2.054891   -2.984589
 0.690000   2.039884   -3.013786
 0.695000   2.024754   -3.034182
 0.700000   2.009542   -3.045890
 0.705000   1.994295   -3.048912
 0.710000   1.979053   -3.042349
 0.715000   1.963871   -3.026610
 0.720000   1.948787   -3.004334
 0.725000   1.933828   -2.976483
 0.730000   1.919022   -2.943139
 0.735000   1.904396   -2.905006
 0.740000   1.889972   -2.861164
 0.745000   1.875785   -2.813135
 0.750000   1.861841   -2.766240
 0.755000   1.848122   -2.722851
 0.760000   1.834612   -2.683767
 0.765000   1.821285   -2.650500
 0.770000   1.808107   -2.624364
 0.775000   1.795041   -2.604872
 0.780000   1.782059   -2.587173
 0.785000   1.769169   -2.567996
 0.790000   1.756379   -2.547538
 0.795000   1.743694   -2.525594
 0.800000   1.731123   -2.502607
 0.805000   1.718668   -2.478884
 0.810000   1.706334   -2.453711
 0.815000   1.694131   -2.429170
 0.820000   1.682042   -2.408720
 0.825000   1.670044   -2.393688
 0.830000   1.658105   -2.385485
 0.835000   1.646189   -2.385730
 0.840000   1.634248   -2.388466
 0.845000   1.622304   -2.390472
 0.850000   1.610343   -2.396536
 0.855000   1.598339   -2.409751
 0.860000   1.586246   -2.434831
 0.865000   1.573990   -2.481944
 0.870000   1.561426   -2.546925
 0.875000   1.548521   -2.623933
 0.880000   1.535187   -2.720087
 0.885000   1.521320   -2.839651
 0.890000   1.506791   -2.989521
 0.895000   1.491425   -3.200301
 0.900000   1.474788   -3.477698
 0.905000   1.456648   -3.818113
 0.910000   1.436606   -4.246124
 0.915000   1.414187   -4.778507
 0.920000   1.388821   -5.435118
 0.925000   1.359836   -6.287285
 0.930000   1.325949   -7.312033
 0.935000   1.286715   -8.449966
 0.940000   1.241449   -9.713337
 0.945000   1.189582   -11.060286
 0.950000   1.130846   -12.415855
 0.955000   1.065423   -13.711757
 0.960000   0.993728   -14.772054
 0.965000   0.917703   -15.426243
 0.970000   0.839466   -15.633593
 0.975000   0.761367   -15.365141
 0.980000   0.685815   -14.637496
 0.985000   0.614992   -13.500641
 0.990000   0.550808   -12.058553
 0.995000   0.494406   -10.463471
 1.000000   0.446173   -8.829732
201 psinorm nb(10^20/m^3) dnb/dpsiN
 0.000000   0.087147   0.096478
 0.005000   0.087438   0.020113
 0.010000   0.087348   -0.044503
 0.015000   0.086993   -0.093344
 0.020000   0.086414   -0.134126
 0.025000   0.085652   -0.168654
 0.030000   0.084728   -0.198211
 0.035000   0.083670   -0.222822
 0.040000   0.082500   -0.243270
 0.045000   0.081237   -0.259751
 0.050000   0.079902   -0.273158
 0.055000   0.078506   -0.283867
 0.060000   0.077063   -0.292066
 0.065000   0.075585   -0.298064
 0.070000   0.074083   -0.302169
 0.075000   0.072563   -0.304907
 0.080000   0.071034   -0.306023
 0.085000   0.069503   -0.305566
 0.090000   0.067978   -0.303728
 0.095000   0.066466   -0.300907
 0.100000   0.064969   -0.297269
 0.105000   0.063493   -0.292695
 0.110000   0.062042   -0.287443
 0.115000   0.060619   -0.281789
 0.120000   0.059224   -0.275720
 0.125000   0.057861   -0.269086
 0.130000   0.056533   -0.262176
 0.135000   0.055240   -0.255209
 0.140000   0.053981   -0.248021
 0.145000   0.052759   -0.240705
 0.150000   0.051574   -0.233340
 0.155000   0.050426   -0.225946
 0.160000   0.049315   -0.218452
 0.165000   0.048241   -0.210874
 0.170000   0.047206   -0.203458
 0.175000   0.046207   -0.196268
 0.180000   0.045243   -0.189278
 0.185000   0.044314   -0.182468
 0.190000   0.043419   -0.175788
 0.195000   0.042556   -0.169293
 0.200000   0.041726   -0.163008
 0.205000   0.040926   -0.156940
 0.210000   0.040156   -0.151043
 0.215000   0.039416   -0.144907
 0.220000   0.038707   -0.139057
 0.225000   0.038025   -0.133905
 0.230000   0.037368   -0.128983
 0.235000   0.036735   -0.124292
 0.240000   0.036125   -0.119820
 0.245000   0.035537   -0.115277
 0.250000   0.034972   -0.110750
 0.255000   0.034430   -0.106744
 0.260000   0.033905   -0.103166
 0.265000   0.033398   -0.099779
 0.270000   0.032907   -0.096562
 0.275000   0.032432   -0.093072
 0.280000   0.031977   -0.089798
 0.285000   0.031534   -0.087169
 0.290000   0.031105   -0.084688
 0.295000   0.030687   -0.082342
 0.300000   0.030281   -0.079789
 0.305000   0.029890   -0.077398
 0.310000   0.029507   -0.075507
 0.315000   0.029134   -0.073732
 0.320000   0.028770   -0.071988
 0.325000   0.028415   -0.070158
 0.330000   0.028069   -0.068542
 0.335000   0.027729   -0.067236
 0.340000   0.027396   -0.065995
 0.345000   0.027069   -0.064671
 0.350000   0.026749   -0.063381
 0.355000   0.026435   -0.062333
 0.360000   0.026126   -0.061403
 0.365000   0.025821   -0.060467
 0.370000   0.025521   -0.059480
 0.375000   0.025227   -0.058610
 0.380000   0.024935   -0.057897
 0.385000   0.024648   -0.057217
 0.390000   0.024363   -0.056424
 0.395000   0.024083   -0.055675
 0.400000   0.023806   -0.055108
 0.405000   0.023532   -0.054566
 0.410000   0.023261   -0.053962
 0.415000   0.022993   -0.053352
 0.420000   0.022727   -0.052842
 0.425000   0.022464   -0.052366
 0.430000   0.022204   -0.051838
 0.435000   0.021946   -0.051268
 0.440000   0.021691   -0.050762
 0.445000   0.021438   -0.050309
 0.450000   0.021188   -0.049825
 0.455000   0.020940   -0.049304
 0.460000   0.020695   -0.048832
 0.465000   0.020452   -0.048412
 0.470000   0.020211   -0.047980
 0.475000   0.019972   -0.047484
 0.480000   0.019736   -0.047018
 0.485000   0.019502   -0.046639
 0.490000   0.019269   -0.046272
 0.495000   0.019039   -0.045848
 0.500000   0.018811   -0.045437
 0.505000   0.018585   -0.045111
 0.510000   0.018360   -0.044797
 0.515000   0.018137   -0.044447
 0.520000   0.017915   -0.044085
 0.525000   0.017696   -0.043776
 0.530000   0.017478   -0.043492
 0.535000   0.017261   -0.043194
 0.540000   0.017046   -0.042875
 0.545000   0.016832   -0.042587
 0.550000   0.016620   -0.042341
 0.555000   0.016409   -0.042101
 0.560000   0.016199   -0.041824
 0.565000   0.015990   -0.041559
 0.570000   0.015783   -0.041349
 0.575000   0.015577   -0.041148
 0.580000   0.015372   -0.040935
 0.585000   0.015168   -0.040718
 0.590000   0.014965   -0.040535
 0.595000   0.014762   -0.040378
 0.600000   0.014561   -0.040229
 0.605000   0.014360   -0.040072
 0.610000   0.014160   -0.039933
 0.615000   0.013961   -0.039833
 0.620000   0.013762   -0.039745
 0.625000   0.013563   -0.039666
 0.630000   0.013365   -0.039596
 0.635000   0.013167   -0.039544
 0.640000   0.012970   -0.039514
 0.645000   0.012772   -0.039494
 0.650000   0.012575   -0.039486
 0.655000   0.012377   -0.039493
 0.660000   0.012180   -0.039514
 0.665000   0.011982   -0.039542
 0.670000   0.011784   -0.039579
 0.675000   0.011586   -0.039626
 0.680000   0.011388   -0.039695
 0.685000   0.011189   -0.039775
 0.690000   0.010990   -0.039854
 0.695000   0.010791   -0.039941
 0.700000   0.010591   -0.040036
 0.705000   0.010390   -0.040145
 0.710000   0.010189   -0.040265
 0.715000   0.009988   -0.040378
 0.720000   0.009786   -0.040482
 0.725000   0.009583   -0.040583
 0.730000   0.009380   -0.040681
 0.735000   0.009176   -0.040778
 0.740000   0.008972   -0.040868
 0.745000   0.008768   -0.040941
 0.750000   0.008563   -0.041001
 0.755000   0.008358   -0.041049
 0.760000   0.008152   -0.041082
 0.765000   0.007947   -0.041100
 0.770000   0.007741   -0.041098
 0.775000   0.007536   -0.041075
 0.780000   0.007330   -0.041038
 0.785000   0.007125   -0.040988
 0.790000   0.006921   -0.040920
 0.795000   0.006716   -0.040836
 0.800000   0.006512   -0.040736
 0.805000   0.006309   -0.040609
 0.810000   0.006106   -0.040458
 0.815000   0.005904   -0.040294
 0.820000   0.005703   -0.040112
 0.825000   0.005503   -0.039906
 0.830000   0.005304   -0.039675
 0.835000   0.005106   -0.039416
 0.840000   0.004910   -0.039127
 0.845000   0.004715   -0.038807
 0.850000   0.004522   -0.038446
 0.855000   0.004331   -0.038030
 0.860000   0.004142   -0.037577
 0.865000   0.003955   -0.037101
 0.870000   0.003771   -0.036611
 0.875000   0.003589   -0.036132
 0.880000   0.003409   -0.035672
 0.885000   0.003232   -0.035231
 0.890000   0.003057   -0.034808
 0.895000   0.002884   -0.034404
 0.900000   0.002713   -0.034024
 0.905000   0.002544   -0.033671
 0.910000   0.002376   -0.033353
 0.915000   0.002210   -0.033078
 0.920000   0.002045   -0.032848
 0.925000   0.001882   -0.032657
 0.930000   0.001719   -0.032489
 0.935000   0.001557   -0.032313
 0.940000   0.001396   -0.032082
 0.945000   0.001236   -0.031742
 0.950000   0.001078   -0.031203
 0.955000   0.000924   -0.030236
 0.960000   0.000776   -0.028510
 0.965000   0.000639   -0.025876
 0.970000   0.000517   -0.022484
 0.975000   0.000414   -0.018694
 0.980000   0.000330   -0.015080
 0.985000   0.000263   -0.012404
 0.990000   0.000206   -0.010964
 0.995000   0.000154   -0.010649
 1.000000   0.000100   -0.010898
201 psinorm pb(KPa) dpb/dpsiN
 0.000000   35.226993   23.551414
 0.005000   35.275518   -4.141419
 0.010000   35.185579   -28.482970
 0.015000   34.990688   -47.900739
 0.020000   34.706571   -63.960184
 0.025000   34.351086   -77.293228
 0.030000   33.933639   -88.468350
 0.035000   33.466403   -97.658092
 0.040000   32.957058   -105.287716
 0.045000   32.413526   -111.335130
 0.050000   31.843707   -116.139321
 0.055000   31.252133   -119.873837
 0.060000   30.644969   -122.651733
 0.065000   30.025615   -124.588876
 0.070000   29.399080   -125.811384
 0.075000   28.767501   -126.597159
 0.080000   28.133108   -126.786143
 0.085000   27.499640   -126.266339
 0.090000   26.870445   -125.176910
 0.095000   26.247871   -123.726640
 0.100000   25.633178   -121.972927
 0.105000   25.028142   -119.840767
 0.110000   24.434771   -117.454124
 0.115000   23.853600   -114.962515
 0.120000   23.285146   -112.336701
 0.125000   22.730233   -109.508191
 0.130000   22.190064   -106.588085
 0.135000   21.664352   -103.656971
 0.140000   21.153494   -100.643236
 0.145000   20.657920   -97.590919
 0.150000   20.177585   -94.545544
 0.155000   19.712465   -91.506212
 0.160000   19.262523   -88.439181
 0.165000   18.828073   -85.350439
 0.170000   18.409018   -82.334908
 0.175000   18.004724   -79.416237
 0.180000   17.614856   -76.591095
 0.185000   17.238813   -73.845588
 0.190000   16.876400   -71.151928
 0.195000   16.527294   -68.534856
 0.200000   16.191051   -66.007292
 0.205000   15.867221   -63.570713
 0.210000   15.555344   -61.207509
 0.215000   15.255146   -58.760608
 0.220000   14.967738   -56.430531
 0.225000   14.690840   -54.376617
 0.230000   14.423972   -52.417166
 0.235000   14.166669   -50.548708
 0.240000   13.918485   -48.767239
 0.245000   13.678996   -46.965159
 0.250000   13.448833   -45.174040
 0.255000   13.227256   -43.583420
 0.260000   13.012999   -42.158579
 0.265000   12.805670   -40.809761
 0.270000   12.604902   -39.527819
 0.275000   12.410392   -38.143984
 0.280000   12.223462   -36.843578
 0.285000   12.041956   -35.789432
 0.290000   11.865567   -34.793649
 0.295000   11.694020   -33.850413
 0.300000   11.527063   -32.831483
 0.305000   11.365705   -31.875019
 0.310000   11.208313   -31.106866
 0.315000   11.054636   -30.384544
 0.320000   10.904468   -29.675442
 0.325000   10.757882   -28.937458
 0.330000   10.615093   -28.283524
 0.335000   10.475046   -27.747229
 0.340000   10.337621   -27.234100
 0.345000   10.202705   -26.691162
 0.350000   10.070709   -26.162858
 0.355000   9.941077   -25.725047
 0.360000   9.813459   -25.332030
 0.365000   9.687757   -24.938665
 0.370000   9.564072   -24.528190
 0.375000   9.442475   -24.162166
 0.380000   9.322450   -23.854036
 0.385000   9.203934   -23.558532
 0.390000   9.086865   -23.218506
 0.395000   8.971749   -22.894512
 0.400000   8.857920   -22.642577
 0.405000   8.745323   -22.400842
 0.410000   8.633911   -22.138209
 0.415000   8.523941   -21.873828
 0.420000   8.415173   -21.643374
 0.425000   8.307508   -21.423478
 0.430000   8.200938   -21.184228
 0.435000   8.095665   -20.927658
 0.440000   7.991662   -20.693180
 0.445000   7.888734   -20.479083
 0.450000   7.786871   -20.253233
 0.455000   7.686201   -20.018828
 0.460000   7.586683   -19.804638
 0.465000   7.488155   -19.606551
 0.470000   7.390617   -19.404611
 0.475000   7.294109   -19.181528
 0.480000   7.198802   -18.972205
 0.485000   7.104387   -18.797072
 0.490000   7.010831   -18.628320
 0.495000   6.918103   -18.443973
 0.500000   6.826392   -18.267858
 0.505000   6.735425   -18.122355
 0.510000   6.645168   -17.982263
 0.515000   6.555602   -17.832451
 0.520000   6.466843   -17.680856
 0.525000   6.378794   -17.545679
 0.530000   6.291387   -17.418224
 0.535000   6.204611   -17.287851
 0.540000   6.118508   -17.152389
 0.545000   6.033088   -17.026390
 0.550000   5.948244   -16.911714
 0.555000   5.863970   -16.798675
 0.560000   5.780257   -16.678351
 0.565000   5.697187   -16.562079
 0.570000   5.614637   -16.458405
 0.575000   5.532603   -16.355864
 0.580000   5.451078   -16.250517
 0.585000   5.370098   -16.144597
 0.590000   5.289632   -16.046969
 0.595000   5.209628   -15.956309
 0.600000   5.130069   -15.869400
 0.605000   5.050934   -15.781774
 0.610000   4.972251   -15.697610
 0.615000   4.893958   -15.623125
 0.620000   4.816020   -15.554683
 0.625000   4.738411   -15.491091
 0.630000   4.661109   -15.429386
 0.635000   4.584117   -15.371055
 0.640000   4.507399   -15.317977
 0.645000   4.430937   -15.268158
 0.650000   4.354717   -15.222287
 0.655000   4.278715   -15.180847
 0.660000   4.202909   -15.142416
 0.665000   4.127290   -15.105521
 0.670000   4.051853   -15.070256
 0.675000   3.976588   -15.037650
 0.680000   3.901477   -15.012699
 0.685000   3.826461   -14.991073
 0.690000   3.751566   -14.967541
 0.695000   3.676785   -14.945853
 0.700000   3.602108   -14.926672
 0.705000   3.527519   -14.912335
 0.710000   3.452984   -14.900837
 0.715000   3.378510   -14.886463
 0.720000   3.304120   -14.868998
 0.725000   3.229820   -14.849808
 0.730000   3.155621   -14.828964
 0.735000   3.081531   -14.807334
 0.740000   3.007548   -14.781957
 0.745000   2.933711   -14.750554
 0.750000   2.860043   -14.714671
 0.755000   2.786564   -14.673640
 0.760000   2.713306   -14.626197
 0.765000   2.640302   -14.571657
 0.770000   2.567590   -14.507755
 0.775000   2.495225   -14.437221
 0.780000   2.423217   -14.364555
 0.785000   2.351579   -14.288091
 0.790000   2.280336   -14.206363
 0.795000   2.209516   -14.119892
 0.800000   2.139138   -14.029623
 0.805000   2.069220   -13.930728
 0.810000   1.999830   -13.824347
 0.815000   1.930976   -13.715806
 0.820000   1.862672   -13.602212
 0.825000   1.794954   -13.481362
 0.830000   1.727859   -13.352646
 0.835000   1.661427   -13.215393
 0.840000   1.595705   -13.069149
 0.845000   1.530736   -12.913401
 0.850000   1.466571   -12.744616
 0.855000   1.403290   -12.557524
 0.860000   1.340995   -12.359414
 0.865000   1.279696   -12.154316
 0.870000   1.219452   -11.942113
 0.875000   1.160275   -11.729078
 0.880000   1.102161   -11.516571
 0.885000   1.045109   -11.305189
 0.890000   0.989110   -11.095614
 0.895000   0.934153   -10.889177
 0.900000   0.880218   -10.688285
 0.905000   0.827270   -10.496756
 0.910000   0.775250   -10.320040
 0.915000   0.724069   -10.164689
 0.920000   0.673603   -10.037041
 0.925000   0.623699   -9.942009
 0.930000   0.574183   -9.882093
 0.935000   0.524878   -9.854375
 0.940000   0.475640   -9.848587
 0.945000   0.426392   -9.851780
 0.950000   0.377122   -9.840995
 0.955000   0.327982   -9.754697
 0.960000   0.279575   -9.500837
 0.965000   0.232974   -9.012391
 0.970000   0.189451   -8.268465
 0.975000   0.150289   -7.296451
 0.980000   0.116486   -6.164748
 0.985000   0.088642   -5.044290
 0.990000   0.066043   -4.074483
 0.995000   0.047897   -3.411868
 1.000000   0.031925   -2.977000
201 psinorm ptot(KPa) dptot/dpsiN
 0.000000   101.084494   -71.559562
 0.005000   100.671662   -93.573445
 0.010000   100.148760   -113.273440
 0.015000   99.538927   -129.451532
 0.020000   98.854245   -142.999702
 0.025000   98.108930   -154.389907
 0.030000   97.310346   -164.074541
 0.035000   96.468185   -172.218124
 0.040000   95.588164   -179.166958
 0.045000   94.676515   -184.875236
 0.050000   93.739412   -189.600574
 0.055000   92.780510   -193.475326
 0.060000   91.804659   -196.589854
 0.065000   90.814611   -199.027820
 0.070000   89.814380   -200.878903
 0.075000   88.805822   -202.377853
 0.080000   87.790602   -203.391993
 0.085000   86.771902   -203.799638
 0.090000   85.752606   -203.721543
 0.095000   84.734687   -203.333329
 0.100000   83.719272   -202.678609
 0.105000   82.707901   -201.695913
 0.110000   81.702313   -200.489205
 0.115000   80.703009   -199.181459
 0.120000   79.710499   -197.742729
 0.125000   78.725581   -196.113765
 0.130000   77.749361   -194.382049
 0.135000   76.781761   -192.604701
 0.140000   75.823314   -190.711433
 0.145000   74.874647   -188.735569
 0.150000   73.935958   -186.715287
 0.155000   73.007494   -184.644217
 0.160000   72.089516   -182.492010
 0.165000   71.182574   -180.255852
 0.170000   70.286958   -178.000806
 0.175000   69.402565   -175.743835
 0.180000   68.529519   -173.483986
 0.185000   67.667726   -171.206585
 0.190000   66.817453   -168.880632
 0.195000   65.978919   -166.512227
 0.200000   65.152331   -164.119599
 0.205000   64.337723   -161.729583
 0.210000   63.535035   -159.348180
 0.215000   62.744242   -156.866525
 0.220000   61.966370   -154.465635
 0.225000   61.199585   -152.297994
 0.230000   60.443390   -150.214890
 0.235000   59.697436   -148.200737
 0.240000   58.961383   -146.253146
 0.245000   58.234905   -144.281271
 0.250000   57.518570   -142.312582
 0.255000   56.811779   -140.515593
 0.260000   56.113414   -138.807972
 0.265000   55.423699   -137.077368
 0.270000   54.742640   -135.337440
 0.275000   54.070325   -133.441207
 0.280000   53.408228   -131.540990
 0.285000   52.754915   -129.773145
 0.290000   52.110497   -127.959828
 0.295000   51.475317   -126.092418
 0.300000   50.849573   -124.076990
 0.305000   50.234547   -122.028252
 0.310000   49.629290   -120.054435
 0.315000   49.034002   -118.018600
 0.320000   48.449104   -115.956192
 0.325000   47.874441   -113.896123
 0.330000   47.310143   -111.921394
 0.335000   46.755227   -110.066578
 0.340000   46.209477   -108.256541
 0.345000   45.672661   -106.445022
 0.350000   45.145027   -104.691109
 0.355000   44.625750   -103.071637
 0.360000   44.114311   -101.533128
 0.365000   43.610419   -100.035108
 0.370000   43.113959   -98.562113
 0.375000   42.624798   -97.178476
 0.380000   42.142175   -95.877626
 0.385000   41.666021   -94.576142
 0.390000   41.196413   -93.206892
 0.395000   40.733952   -91.818533
 0.400000   40.278228   -90.459682
 0.405000   39.829356   -89.068137
 0.410000   39.387547   -87.623450
 0.415000   38.953121   -86.177889
 0.420000   38.525768   -84.784834
 0.425000   38.105273   -83.429917
 0.430000   37.691469   -82.092268
 0.435000   37.284350   -80.767267
 0.440000   36.883796   -79.494251
 0.445000   36.489408   -78.288510
 0.450000   36.100911   -77.119441
 0.455000   35.718213   -75.984747
 0.460000   35.341063   -74.910211
 0.465000   34.969111   -73.891364
 0.470000   34.602150   -72.914821
 0.475000   34.239963   -71.966287
 0.480000   33.882487   -71.069701
 0.485000   33.529266   -70.237118
 0.490000   33.180116   -69.438089
 0.495000   32.834885   -68.645323
 0.500000   32.493662   -67.864851
 0.505000   32.156237   -67.107971
 0.510000   31.822583   -66.360249
 0.515000   31.492634   -65.615263
 0.520000   31.166430   -64.881526
 0.525000   30.843819   -64.174512
 0.530000   30.524685   -63.484662
 0.535000   30.208972   -62.807883
 0.540000   29.896606   -62.145868
 0.545000   29.587513   -61.508516
 0.550000   29.281521   -60.897462
 0.555000   28.978539   -60.303742
 0.560000   28.678484   -59.717764
 0.565000   28.381361   -59.153218
 0.570000   28.086951   -58.618826
 0.575000   27.795173   -58.100575
 0.580000   27.505946   -57.594666
 0.585000   27.219226   -57.102672
 0.590000   26.934919   -56.632375
 0.595000   26.652903   -56.183815
 0.600000   26.373081   -55.754230
 0.605000   26.095360   -55.338892
 0.610000   25.819692   -54.940801
 0.615000   25.545952   -54.564920
 0.620000   25.274043   -54.212699
 0.625000   25.003825   -53.877945
 0.630000   24.735263   -53.550484
 0.635000   24.468320   -53.233194
 0.640000   24.202931   -52.926447
 0.645000   23.939056   -52.626894
 0.650000   23.676662   -52.338770
 0.655000   23.415668   -52.060508
 0.660000   23.156057   -51.788467
 0.665000   22.897784   -51.524464
 0.670000   22.640813   -51.263500
 0.675000   22.385149   -50.996019
 0.680000   22.130852   -50.707078
 0.685000   21.878078   -50.364485
 0.690000   21.627208   -49.952907
 0.695000   21.378549   -49.480988
 0.700000   21.132398   -48.952698
 0.705000   20.889022   -48.377489
 0.710000   20.648623   -47.743743
 0.715000   20.411584   -47.071827
 0.720000   20.177904   -46.415115
 0.725000   19.947433   -45.783768
 0.730000   19.720067   -45.180360
 0.735000   19.495630   -44.619372
 0.740000   19.273873   -44.103306
 0.745000   19.054597   -43.653236
 0.750000   18.837341   -43.297358
 0.755000   18.621623   -43.029814
 0.760000   18.407043   -42.840479
 0.765000   18.193218   -42.722884
 0.770000   17.979814   -42.674903
 0.775000   17.766469   -42.682008
 0.780000   17.552994   -42.687049
 0.785000   17.339599   -42.656672
 0.790000   17.126427   -42.593878
 0.795000   16.913660   -42.493316
 0.800000   16.701494   -42.356726
 0.805000   16.490093   -42.176757
 0.810000   16.279726   -41.948296
 0.815000   16.070610   -41.698348
 0.820000   15.862743   -41.453519
 0.825000   15.656074   -41.222103
 0.830000   15.450522   -41.010808
 0.835000   15.245966   -40.824502
 0.840000   15.042277   -40.634202
 0.845000   14.839624   -40.423701
 0.850000   14.638040   -40.209783
 0.855000   14.437527   -40.000617
 0.860000   14.238034   -39.823866
 0.865000   14.039288   -39.728008
 0.870000   13.840753   -39.700143
 0.875000   13.642286   -39.731265
 0.880000   13.443441   -39.869383
 0.885000   13.243593   -40.160106
 0.890000   13.041840   -40.674819
 0.895000   12.836844   -41.605800
 0.900000   12.625782   -43.079702
 0.905000   12.406047   -45.241201
 0.910000   12.173370   -48.433998
 0.915000   11.921707   -53.086501
 0.920000   11.642505   -59.795927
 0.925000   11.323748   -69.555358
 0.930000   10.946951   -83.166128
 0.935000   10.492087   -101.399961
 0.940000   9.932952   -125.132137
 0.945000   9.240765   -154.129212
 0.950000   8.391659   -185.973028
 0.955000   7.381035   -214.915098
 0.960000   6.242508   -232.187759
 0.965000   5.059158   -229.905837
 0.970000   3.943450   -206.543087
 0.975000   2.993727   -168.875740
 0.980000   2.254693   -127.894790
 0.985000   1.714779   -92.254172
 0.990000   1.332151   -65.315801
 0.995000   1.061621   -46.588423
 1.000000   0.866267   -31.553235
201 psinorm omeg(kRad/s) domeg/dpsiN
 0.000000   72.785722   0.020936
 0.005000   72.785389   -0.154368
 0.010000   72.784179   -0.364498
 0.015000   72.781744   -0.650666
 0.020000   72.777672   -1.023512
 0.025000   72.771509   -1.489666
 0.030000   72.762775   -2.051237
 0.035000   72.750996   -2.704532
 0.040000   72.735730   -3.430445
 0.045000   72.716692   -4.210869
 0.050000   72.693621   -5.031757
 0.055000   72.666374   -5.869673
 0.060000   72.634925   -6.702445
 0.065000   72.599350   -7.511451
 0.070000   72.559810   -8.257423
 0.075000   72.516776   -8.955695
 0.080000   72.470253   -9.648741
 0.085000   72.420288   -10.334005
 0.090000   72.366913   -11.021839
 0.095000   72.310070   -11.730251
 0.100000   72.249611   -12.467948
 0.105000   72.185390   -13.250713
 0.110000   72.117103   -14.084746
 0.115000   72.044543   -14.958572
 0.120000   71.967518   -15.872573
 0.125000   71.885817   -16.830268
 0.130000   71.799215   -17.837502
 0.135000   71.707442   -18.898139
 0.140000   71.610234   -20.009221
 0.145000   71.507350   -21.172047
 0.150000   71.398513   -22.391884
 0.155000   71.283431   -23.671172
 0.160000   71.161801   -25.021026
 0.165000   71.033221   -26.436816
 0.170000   70.897433   -27.884159
 0.175000   70.754379   -29.349452
 0.180000   70.603939   -30.833892
 0.185000   70.446040   -32.326831
 0.190000   70.280670   -33.812809
 0.195000   70.107912   -35.247206
 0.200000   69.928198   -36.586676
 0.205000   69.742045   -37.818389
 0.210000   69.550014   -38.930958
 0.215000   69.352736   -39.912280
 0.220000   69.150892   -40.730015
 0.225000   68.945436   -41.330050
 0.230000   68.737591   -41.795539
 0.235000   68.527480   -42.192649
 0.240000   68.315665   -42.485621
 0.245000   68.102624   -42.691429
 0.250000   67.888750   -42.810032
 0.255000   67.674524   -42.792518
 0.260000   67.460825   -42.741795
 0.265000   67.247106   -42.730401
 0.270000   67.033521   -42.700141
 0.275000   66.820104   -42.676490
 0.280000   66.606756   -42.683010
 0.285000   66.393274   -42.736070
 0.290000   66.179396   -42.932714
 0.295000   65.963947   -43.307018
 0.300000   65.746325   -43.788690
 0.305000   65.526060   -44.344376
 0.310000   65.302882   -44.927464
 0.315000   65.076786   -45.499117
 0.320000   64.847891   -46.010449
 0.325000   64.616681   -46.442043
 0.330000   64.383470   -46.809333
 0.335000   64.148588   -47.108801
 0.340000   63.912382   -47.337492
 0.345000   63.675213   -47.468837
 0.350000   63.437694   -47.512578
 0.355000   63.200087   -47.500853
 0.360000   62.962685   -47.430434
 0.365000   62.725783   -47.304050
 0.370000   62.489645   -47.128191
 0.375000   62.254501   -46.877892
 0.380000   62.020866   -46.584509
 0.385000   61.788656   -46.295356
 0.390000   61.557912   -45.989739
 0.395000   61.328758   -45.662484
 0.400000   61.101287   -45.320932
 0.405000   60.875549   -44.956366
 0.410000   60.651724   -44.662902
 0.415000   60.428920   -44.638503
 0.420000   60.205339   -45.020080
 0.425000   59.978719   -45.880944
 0.430000   59.746529   -47.252974
 0.435000   59.506189   -49.308331
 0.440000   59.253446   -52.026453
 0.445000   58.985925   -55.001517
 0.450000   58.703431   -58.098706
 0.455000   58.404938   -61.361873
 0.460000   58.089812   -64.709766
 0.465000   57.757840   -68.233860
 0.470000   57.407473   -71.814707
 0.475000   57.039693   -74.912482
 0.480000   56.658349   -77.421294
 0.485000   56.265480   -79.487228
 0.490000   55.863476   -81.046390
 0.495000   55.455016   -82.068231
 0.500000   55.042794   -82.459401
 0.505000   54.630422   -82.211851
 0.510000   54.220675   -81.556002
 0.515000   53.814862   -80.666713
 0.520000   53.414008   -79.591298
 0.525000   53.018949   -78.344879
 0.530000   52.630560   -76.909643
 0.535000   52.249853   -75.374238
 0.540000   51.876817   -73.822273
 0.545000   51.511630   -72.249757
 0.550000   51.154320   -70.686032
 0.555000   50.804770   -69.148843
 0.560000   50.462831   -67.630840
 0.565000   50.128461   -66.240428
 0.570000   49.800427   -65.043217
 0.575000   49.478029   -63.993674
 0.580000   49.160490   -63.106166
 0.585000   48.846968   -62.392411
 0.590000   48.536566   -61.858745
 0.595000   48.228380   -61.448508
 0.600000   47.922081   -61.083703
 0.605000   47.617543   -60.743853
 0.610000   47.314642   -60.431207
 0.615000   47.013231   -60.152523
 0.620000   46.713117   -59.871796
 0.625000   46.414513   -59.629377
 0.630000   46.116823   -59.486357
 0.635000   45.819650   -59.424965
 0.640000   45.522574   -59.450647
 0.645000   45.225143   -59.570640
 0.650000   44.926867   -59.761492
 0.655000   44.627528   -60.097050
 0.660000   44.325897   -60.657489
 0.665000   44.020953   -61.420336
 0.670000   43.711694   -62.388272
 0.675000   43.397071   -63.565769
 0.680000   43.076036   -64.956706
 0.685000   42.747503   -66.390338
 0.690000   42.412132   -67.619705
 0.695000   42.071306   -68.564658
 0.700000   41.726486   -69.223696
 0.705000   41.379069   -69.630655
 0.710000   41.030179   -69.784172
 0.715000   40.681228   -69.831967
 0.720000   40.331860   -69.975403
 0.725000   39.981474   -70.203668
 0.730000   39.629823   -70.492443
 0.735000   39.276549   -70.863772
 0.740000   38.921185   -71.336515
 0.745000   38.563184   -71.997464
 0.750000   38.201211   -72.967486
 0.755000   37.833509   -74.364354
 0.760000   37.457567   -76.327357
 0.765000   37.070236   -78.951756
 0.770000   36.668050   -82.450355
 0.775000   36.245732   -86.779115
 0.780000   35.800258   -91.137634
 0.785000   35.334356   -95.092157
 0.790000   34.849337   -98.704053
 0.795000   34.347315   -101.817560
 0.800000   33.831161   -104.390842
 0.805000   33.303407   -106.300285
 0.810000   32.768158   -107.136153
 0.815000   32.232045   -106.984456
 0.820000   31.698314   -106.237507
 0.825000   31.169670   -104.985839
 0.830000   30.648455   -103.329367
 0.835000   30.136377   -101.364684
 0.840000   29.634809   -98.875181
 0.845000   29.147625   -95.885744
 0.850000   28.675951   -92.840634
 0.855000   28.219218   -90.099973
 0.860000   27.774951   -88.110868
 0.865000   27.338110   -87.622952
 0.870000   26.898722   -88.725157
 0.875000   26.450858   -91.449228
 0.880000   25.984230   -96.544778
 0.885000   25.485410   -104.719982
 0.890000   24.937030   -116.829431
 0.895000   24.317116   -134.451976
 0.900000   23.592510   -157.738797
 0.905000   22.739728   -186.413332
 0.910000   21.728377   -220.887471
 0.915000   20.530853   -260.122246
 0.920000   19.127154   -302.053759
 0.925000   17.510316   -344.049844
 0.930000   15.686656   -380.820323
 0.935000   13.702113   -406.554383
 0.940000   11.621112   -417.399430
 0.945000   9.528118   -410.236903
 0.950000   7.518743   -384.111744
 0.955000   5.687001   -339.646817
 0.960000   4.122275   -281.783304
 0.965000   2.869168   -217.941539
 0.970000   1.942859   -153.793279
 0.975000   1.331235   -94.407355
 0.980000   0.998786   -43.623042
 0.985000   0.895005   -3.713786
 0.990000   0.961648   24.667542
 0.995000   1.141680   42.646281
 1.000000   1.388111   55.926026
201 psinorm omegp(kRad/s) domegp/dpsiN
 0.000000   -0.043565   172.433831
 0.005000   0.625514   95.197711
 0.010000   0.908412   51.663419
 0.015000   1.142148   44.707219
 0.020000   1.355484   41.153025
 0.025000   1.553678   38.132073
 0.030000   1.736805   34.928151
 0.035000   1.902960   32.179458
 0.040000   2.058600   29.799989
 0.045000   2.200960   27.472434
 0.050000   2.333324   25.522753
 0.055000   2.456187   24.030554
 0.060000   2.573629   23.001139
 0.065000   2.686199   22.194098
 0.070000   2.795570   21.587420
 0.075000   2.902073   21.051521
 0.080000   3.006086   20.619134
 0.085000   3.108264   20.099785
 0.090000   3.207083   19.651431
 0.095000   3.304778   19.126914
 0.100000   3.398353   18.401163
 0.105000   3.488790   17.778676
 0.110000   3.576139   17.401099
 0.115000   3.662801   17.290130
 0.120000   3.749041   17.448405
 0.125000   3.837285   17.811750
 0.130000   3.927158   18.310912
 0.135000   4.020394   18.898385
 0.140000   4.116142   19.469755
 0.145000   4.215092   20.056442
 0.150000   4.316706   20.497285
 0.155000   4.420065   20.603106
 0.160000   4.522737   20.427159
 0.165000   4.624336   19.883103
 0.170000   4.721569   19.056562
 0.175000   4.814902   17.953462
 0.180000   4.901103   16.353125
 0.185000   4.978433   14.522352
 0.190000   5.046327   12.475437
 0.195000   5.103187   10.435091
 0.200000   5.150678   8.320972
 0.205000   5.186397   6.084797
 0.210000   5.211526   4.186940
 0.215000   5.228267   2.444014
 0.220000   5.235966   0.842499
 0.225000   5.236692   -0.737484
 0.230000   5.228591   -2.484326
 0.235000   5.211848   -4.190351
 0.240000   5.186687   -5.917832
 0.245000   5.152670   -7.761159
 0.250000   5.109076   -9.543022
 0.255000   5.057240   -11.303671
 0.260000   4.996039   -12.968310
 0.265000   4.927557   -14.505893
 0.270000   4.850980   -16.075157
 0.275000   4.766805   -17.510480
 0.280000   4.675875   -18.927826
 0.285000   4.577527   -20.493941
 0.290000   4.470936   -22.041368
 0.295000   4.357113   -23.699578
 0.300000   4.233940   -25.657775
 0.305000   4.100535   -27.704947
 0.310000   3.956891   -29.932406
 0.315000   3.801211   -32.427937
 0.320000   3.632611   -35.088990
 0.325000   3.450321   -37.851949
 0.330000   3.254092   -40.416053
 0.335000   3.046161   -42.585671
 0.340000   2.828235   -44.419122
 0.345000   2.601970   -45.831476
 0.350000   2.369920   -46.710870
 0.355000   2.134861   -47.314987
 0.360000   1.896770   -47.902277
 0.365000   1.655838   -48.387076
 0.370000   1.412900   -48.873339
 0.375000   1.167105   -49.498915
 0.380000   0.917911   -50.338378
 0.385000   0.663721   -51.556384
 0.390000   0.402347   -52.991011
 0.395000   0.133811   -54.449168
 0.400000   -0.142145   -55.786768
 0.405000   -0.424057   -56.717940
 0.410000   -0.709324   -57.179717
 0.415000   -0.995854   -57.817427
 0.420000   -1.287499   -59.361346
 0.425000   -1.589467   -62.045610
 0.430000   -1.907955   -65.918514
 0.435000   -2.248653   -71.064523
 0.440000   -2.618600   -77.880588
 0.445000   -3.027458   -85.277473
 0.450000   -3.471375   -92.056095
 0.455000   -3.948019   -98.201384
 0.460000   -4.453389   -103.252576
 0.465000   -4.980545   -106.773291
 0.470000   -5.521121   -107.732821
 0.475000   -6.057873   -105.228077
 0.480000   -6.573402   -99.885968
 0.485000   -7.056733   -92.367001
 0.490000   -7.497072   -83.086064
 0.495000   -7.887594   -72.465551
 0.500000   -8.221728   -61.079517
 0.505000   -8.498389   -50.528607
 0.510000   -8.727014   -41.503986
 0.515000   -8.913429   -33.886639
 0.520000   -9.065880   -27.702903
 0.525000   -9.190458   -22.841891
 0.530000   -9.294299   -19.683638
 0.535000   -9.387294   -17.819971
 0.540000   -9.472499   -16.371714
 0.545000   -9.551011   -15.023671
 0.550000   -9.622736   -13.767341
 0.555000   -9.688685   -12.490836
 0.560000   -9.747644   -11.049893
 0.565000   -9.799184   -9.564591
 0.570000   -9.843290   -8.047092
 0.575000   -9.879655   -6.438688
 0.580000   -9.907677   -4.712430
 0.585000   -9.926779   -3.061454
 0.590000   -9.938291   -1.450163
 0.595000   -9.941280   0.237128
 0.600000   -9.935920   1.815061
 0.605000   -9.923130   3.202588
 0.610000   -9.903894   4.575407
 0.615000   -9.877376   5.845052
 0.620000   -9.845444   6.923959
 0.625000   -9.808136   7.934974
 0.630000   -9.766094   8.894385
 0.635000   -9.719192   9.763542
 0.640000   -9.668458   10.510680
 0.645000   -9.614086   11.292730
 0.650000   -9.555531   12.051173
 0.655000   -9.493574   12.703052
 0.660000   -9.428501   13.284897
 0.665000   -9.360725   13.863799
 0.670000   -9.289863   14.394317
 0.675000   -9.216782   14.825541
 0.680000   -9.141607   15.259112
 0.685000   -9.064191   15.773591
 0.690000   -8.983871   16.370114
 0.695000   -8.900489   17.090372
 0.700000   -8.812968   18.049508
 0.705000   -8.719994   19.214187
 0.710000   -8.620826   20.347667
 0.715000   -8.516518   21.364829
 0.720000   -8.407177   22.270355
 0.725000   -8.293814   22.874080
 0.730000   -8.178437   23.140465
 0.735000   -8.062409   22.973727
 0.740000   -7.948699   22.191658
 0.745000   -7.840493   20.935303
 0.750000   -7.739346   19.269426
 0.755000   -7.647799   17.276611
 0.760000   -7.566580   15.082204
 0.765000   -7.496977   12.797894
 0.770000   -7.438601   10.641996
 0.775000   -7.390557   8.697541
 0.780000   -7.351626   6.988575
 0.785000   -7.320671   5.310475
 0.790000   -7.298521   3.497992
 0.795000   -7.285691   1.305804
 0.800000   -7.285463   -1.609307
 0.805000   -7.301784   -5.439522
 0.810000   -7.339858   -10.288976
 0.815000   -7.404674   -16.133508
 0.820000   -7.501193   -22.899743
 0.825000   -7.633671   -30.146471
 0.830000   -7.802658   -37.358986
 0.835000   -8.007261   -44.227571
 0.840000   -8.244934   -50.466047
 0.845000   -8.511922   -55.618567
 0.850000   -8.801119   -59.039337
 0.855000   -9.102315   -60.655695
 0.860000   -9.407676   -60.794520
 0.865000   -9.710260   -59.747410
 0.870000   -10.005150   -57.819399
 0.875000   -10.288454   -55.311562
 0.880000   -10.558266   -52.618012
 0.885000   -10.814634   -49.962414
 0.890000   -11.057890   -47.148469
 0.895000   -11.286119   -43.774877
 0.900000   -11.495639   -39.369099
 0.905000   -11.679810   -33.608208
 0.910000   -11.831721   -25.653128
 0.915000   -11.936341   -14.068307
 0.920000   -11.972404   3.420667
 0.925000   -11.902135   26.169968
 0.930000   -11.710704   53.401693
 0.935000   -11.368118   88.686075
 0.940000   -10.823844   136.033107
 0.945000   -10.007787   189.513068
 0.950000   -8.928713   238.552175
 0.955000   -7.622265   270.001957
 0.960000   -6.228693   259.359469
 0.965000   -5.028670   181.917807
 0.970000   -4.409515   30.343135
 0.975000   -4.725239   -134.648097
 0.980000   -5.755996   -164.961025
 0.985000   -6.374849   97.833637
 0.990000   -4.777660   657.308962
 0.995000   0.198241   1226.486657
 1.000000   7.487207   1689.099703
201 psinorm omgvb(kRad/s) domgvb/dpsiN
 0.000000   72.742157   172.454766
 0.005000   73.410903   95.043342
 0.010000   73.692591   51.298921
 0.015000   73.923892   44.056552
 0.020000   74.133156   40.129513
 0.025000   74.325187   36.642406
 0.030000   74.499580   32.876914
 0.035000   74.653956   29.474926
 0.040000   74.794330   26.369544
 0.045000   74.917651   23.261565
 0.050000   75.026945   20.490997
 0.055000   75.122561   18.160880
 0.060000   75.208554   16.298694
 0.065000   75.285548   14.682648
 0.070000   75.355380   13.329997
 0.075000   75.418848   12.095826
 0.080000   75.476339   10.970393
 0.085000   75.528552   9.765780
 0.090000   75.573997   8.629592
 0.095000   75.614848   7.396663
 0.100000   75.647963   5.933215
 0.105000   75.674180   4.527964
 0.110000   75.693243   3.316352
 0.115000   75.707344   2.331558
 0.120000   75.716558   1.575832
 0.125000   75.723102   0.981481
 0.130000   75.726373   0.473411
 0.135000   75.727836   0.000246
 0.140000   75.726376   -0.539466
 0.145000   75.722442   -1.115604
 0.150000   75.715220   -1.894599
 0.155000   75.703496   -3.068066
 0.160000   75.684539   -4.593868
 0.165000   75.657557   -6.553714
 0.170000   75.619002   -8.827597
 0.175000   75.569281   -11.395990
 0.180000   75.505042   -14.480768
 0.185000   75.424473   -17.804479
 0.190000   75.326997   -21.337372
 0.195000   75.211100   -24.812115
 0.200000   75.078876   -28.265704
 0.205000   74.928443   -31.733592
 0.210000   74.761540   -34.744018
 0.215000   74.581002   -37.468266
 0.220000   74.386857   -39.887516
 0.225000   74.182127   -42.067534
 0.230000   73.966182   -44.279865
 0.235000   73.739329   -46.383000
 0.240000   73.502352   -48.403453
 0.245000   73.255294   -50.452588
 0.250000   72.997826   -52.353055
 0.255000   72.731763   -54.096189
 0.260000   72.456864   -55.710105
 0.265000   72.174662   -57.236294
 0.270000   71.884501   -58.775297
 0.275000   71.586909   -60.186969
 0.280000   71.282632   -61.610836
 0.285000   70.970801   -63.230010
 0.290000   70.650332   -64.974082
 0.295000   70.321060   -67.006596
 0.300000   69.980266   -69.446465
 0.305000   69.626596   -72.049323
 0.310000   69.259772   -74.859870
 0.315000   68.877997   -77.927055
 0.320000   68.480502   -81.099439
 0.325000   68.067003   -84.293993
 0.330000   67.637562   -87.225385
 0.335000   67.194749   -89.694472
 0.340000   66.740617   -91.756614
 0.345000   66.277183   -93.300313
 0.350000   65.807614   -94.223448
 0.355000   65.334948   -94.815840
 0.360000   64.859456   -95.332712
 0.365000   64.381621   -95.691126
 0.370000   63.902544   -96.001530
 0.375000   63.421606   -96.376807
 0.380000   62.938776   -96.922887
 0.385000   62.452377   -97.851739
 0.390000   61.960259   -98.980750
 0.395000   61.462569   -100.111652
 0.400000   60.959142   -101.107700
 0.405000   60.451492   -101.674307
 0.410000   59.942399   -101.842619
 0.415000   59.433066   -102.455930
 0.420000   58.917840   -104.381427
 0.425000   58.389252   -107.926554
 0.430000   57.838574   -113.171489
 0.435000   57.257537   -120.372854
 0.440000   56.634846   -129.907040
 0.445000   55.958467   -140.278990
 0.450000   55.232056   -150.154801
 0.455000   54.456919   -159.563257
 0.460000   53.636423   -167.962342
 0.465000   52.777295   -175.007151
 0.470000   51.886352   -179.547528
 0.475000   50.981820   -180.140559
 0.480000   50.084946   -177.307262
 0.485000   49.208747   -171.854230
 0.490000   48.366404   -164.132455
 0.495000   47.567423   -154.533782
 0.500000   46.821066   -143.538919
 0.505000   46.132033   -132.740457
 0.510000   45.493662   -123.059988
 0.515000   44.901434   -114.553352
 0.520000   44.348128   -107.294201
 0.525000   43.828492   -101.186770
 0.530000   43.336260   -96.593281
 0.535000   42.862559   -93.194209
 0.540000   42.404318   -90.193988
 0.545000   41.960619   -87.273429
 0.550000   41.531584   -84.453373
 0.555000   41.116085   -81.639679
 0.560000   40.715187   -78.680733
 0.565000   40.329278   -75.805019
 0.570000   39.957137   -73.090309
 0.575000   39.598375   -70.432362
 0.580000   39.252813   -67.818595
 0.585000   38.920189   -65.453865
 0.590000   38.598275   -63.308908
 0.595000   38.287100   -61.211380
 0.600000   37.986161   -59.268643
 0.605000   37.694413   -57.541264
 0.610000   37.410748   -55.855799
 0.615000   37.135855   -54.307471
 0.620000   36.867674   -52.947838
 0.625000   36.606377   -51.694403
 0.630000   36.350730   -50.591972
 0.635000   36.100457   -49.661424
 0.640000   35.854115   -48.939967
 0.645000   35.611058   -48.277909
 0.650000   35.371336   -47.710319
 0.655000   35.133954   -47.393998
 0.660000   34.897396   -47.372592
 0.665000   34.660228   -47.556537
 0.670000   34.421831   -47.993956
 0.675000   34.180289   -48.740227
 0.680000   33.934429   -49.697593
 0.685000   33.683313   -50.616748
 0.690000   33.428261   -51.249591
 0.695000   33.170817   -51.474286
 0.700000   32.913518   -51.174188
 0.705000   32.659075   -50.416468
 0.710000   32.409354   -49.436505
 0.715000   32.164710   -48.467138
 0.720000   31.924682   -47.705048
 0.725000   31.687660   -47.329588
 0.730000   31.451386   -47.351979
 0.735000   31.214140   -47.890046
 0.740000   30.972486   -49.144857
 0.745000   30.722691   -51.062161
 0.750000   30.461864   -53.698060
 0.755000   30.185711   -57.087743
 0.760000   29.890987   -61.245153
 0.765000   29.573259   -66.153863
 0.770000   29.229448   -71.808360
 0.775000   28.855175   -78.081574
 0.780000   28.448633   -84.149059
 0.785000   28.013685   -89.781682
 0.790000   27.550816   -95.206062
 0.795000   27.061624   -100.511756
 0.800000   26.545698   -106.000149
 0.805000   26.001623   -111.739807
 0.810000   25.428300   -117.425129
 0.815000   24.827372   -123.117963
 0.820000   24.197120   -129.137251
 0.825000   23.535999   -135.132310
 0.830000   22.845797   -140.688353
 0.835000   22.129115   -145.592256
 0.840000   21.389875   -149.341227
 0.845000   20.635703   -151.504312
 0.850000   19.874832   -151.879971
 0.855000   19.116903   -150.755667
 0.860000   18.367275   -148.905388
 0.865000   17.627850   -147.370362
 0.870000   16.893571   -146.544556
 0.875000   16.162404   -146.760790
 0.880000   15.425963   -149.162790
 0.885000   14.670776   -154.682396
 0.890000   13.879140   -163.977901
 0.895000   13.030997   -178.226853
 0.900000   12.096871   -197.107896
 0.905000   11.059918   -220.021540
 0.910000   9.896656   -246.540600
 0.915000   8.594512   -274.190553
 0.920000   7.154750   -298.633092
 0.925000   5.608181   -317.879875
 0.930000   3.975951   -327.418630
 0.935000   2.333995   -317.868308
 0.940000   0.797268   -281.366323
 0.945000   -0.479668   -220.723835
 0.950000   -1.409970   -145.559568
 0.955000   -1.935264   -69.644860
 0.960000   -2.106419   -22.423835
 0.965000   -2.159502   -36.023732
 0.970000   -2.466656   -123.450144
 0.975000   -3.394004   -229.055453
 0.980000   -4.757211   -208.584067
 0.985000   -5.479844   94.119851
 0.990000   -3.816012   681.976504
 0.995000   1.339921   1269.132937
 1.000000   8.875317   1745.025730
201 psinorm omgpp(kRad/s) domgpp/dpsiN
 0.000000   -0.042608   -21.160758
 0.005000   -0.172023   -30.605148
 0.010000   -0.348660   -35.794717
 0.015000   -0.529970   -36.679112
 0.020000   -0.715451   -37.442163
 0.025000   -0.904392   -38.044459
 0.030000   -1.095896   -38.492800
 0.035000   -1.289320   -38.777894
 0.040000   -1.483675   -38.874703
 0.045000   -1.678067   -38.791810
 0.050000   -1.871593   -38.488724
 0.055000   -2.062954   -37.970279
 0.060000   -2.251295   -37.462832
 0.065000   -2.437583   -36.937112
 0.070000   -2.620667   -36.264715
 0.075000   -2.800230   -35.536990
 0.080000   -2.976037   -34.743522
 0.085000   -3.147665   -33.922981
 0.090000   -3.315266   -33.312699
 0.095000   -3.480792   -32.785012
 0.100000   -3.643116   -32.155519
 0.105000   -3.802347   -31.543429
 0.110000   -3.958551   -30.956684
 0.115000   -4.111914   -30.492743
 0.120000   -4.263478   -29.945861
 0.125000   -4.411373   -29.188109
 0.130000   -4.555359   -28.369881
 0.135000   -4.695071   -27.475346
 0.140000   -4.830113   -26.510656
 0.145000   -4.960178   -25.603110
 0.150000   -5.086144   -24.392214
 0.155000   -5.204100   -22.899267
 0.160000   -5.315136   -21.454407
 0.165000   -5.418644   -19.889803
 0.170000   -5.514035   -18.207550
 0.175000   -5.600720   -16.341854
 0.180000   -5.677453   -14.320999
 0.185000   -5.743930   -12.258525
 0.190000   -5.800038   -10.105680
 0.195000   -5.844986   -7.858551
 0.200000   -5.878624   -5.653043
 0.205000   -5.901517   -3.603871
 0.210000   -5.914663   -2.576070
 0.215000   -5.927278   -2.342249
 0.220000   -5.938085   -2.013347
 0.225000   -5.947411   -1.780834
 0.230000   -5.955893   -1.654895
 0.235000   -5.963960   -2.130333
 0.240000   -5.977197   -2.457786
 0.245000   -5.988538   -1.832613
 0.250000   -5.995523   -0.949941
 0.255000   -5.998037   0.114136
 0.260000   -5.994381   1.513987
 0.265000   -5.982897   2.793630
 0.270000   -5.966445   4.744750
 0.275000   -5.935450   7.686280
 0.280000   -5.889582   10.412338
 0.285000   -5.831327   12.913886
 0.290000   -5.760443   15.445938
 0.295000   -5.676867   18.165781
 0.300000   -5.578786   21.332014
 0.305000   -5.463547   24.291537
 0.310000   -5.335870   26.484807
 0.315000   -5.198699   28.036068
 0.320000   -5.055510   28.917971
 0.325000   -4.909519   29.504143
 0.330000   -4.760468   29.607627
 0.335000   -4.613443   28.677820
 0.340000   -4.473690   27.587154
 0.345000   -4.337571   26.828289
 0.350000   -4.205407   26.022493
 0.355000   -4.077347   25.154947
 0.360000   -3.953858   24.085909
 0.365000   -3.836487   23.198601
 0.370000   -3.721872   22.702899
 0.375000   -3.609458   22.391825
 0.380000   -3.497953   22.378711
 0.385000   -3.385671   22.731681
 0.390000   -3.270637   23.681868
 0.395000   -3.148853   25.068195
 0.400000   -3.019955   26.117030
 0.405000   -2.887682   26.620396
 0.410000   -2.753751   26.748194
 0.415000   -2.620200   26.489235
 0.420000   -2.488858   26.036164
 0.425000   -2.359839   24.751502
 0.430000   -2.241343   23.058654
 0.435000   -2.129252   21.788204
 0.440000   -2.023461   20.537321
 0.445000   -1.923879   19.298904
 0.450000   -1.830472   18.230523
 0.455000   -1.741574   16.888651
 0.460000   -1.661586   15.364939
 0.465000   -1.587924   14.094650
 0.470000   -1.520639   12.803419
 0.475000   -1.459890   11.465388
 0.480000   -1.405985   9.954806
 0.485000   -1.360342   8.411371
 0.490000   -1.321872   7.165104
 0.495000   -1.288691   6.179618
 0.500000   -1.260075   5.278325
 0.505000   -1.235908   4.353413
 0.510000   -1.216541   3.347018
 0.515000   -1.202438   2.257470
 0.520000   -1.193967   1.151714
 0.525000   -1.190921   0.091925
 0.530000   -1.193047   -0.917191
 0.535000   -1.200092   -1.877067
 0.540000   -1.211818   -2.726067
 0.545000   -1.227353   -3.560315
 0.550000   -1.247421   -4.462862
 0.555000   -1.271982   -5.331579
 0.560000   -1.300737   -6.169036
 0.565000   -1.333672   -7.008889
 0.570000   -1.370826   -7.828176
 0.575000   -1.411954   -8.704627
 0.580000   -1.457872   -9.627602
 0.585000   -1.508230   -10.454841
 0.590000   -1.562421   -11.191624
 0.595000   -1.620146   -11.868994
 0.600000   -1.681110   -12.522099
 0.605000   -1.745367   -13.155589
 0.610000   -1.812666   -13.674019
 0.615000   -1.882107   -14.091525
 0.620000   -1.953582   -14.464366
 0.625000   -2.026751   -14.770986
 0.630000   -2.101291   -15.074939
 0.635000   -2.177500   -15.347575
 0.640000   -2.254767   -15.361571
 0.645000   -2.331116   -15.248213
 0.650000   -2.407249   -15.202236
 0.655000   -2.483138   -15.155668
 0.660000   -2.558806   -15.196818
 0.665000   -2.635107   -15.636833
 0.670000   -2.715174   -16.602011
 0.675000   -2.801127   -18.351587
 0.680000   -2.898690   -20.833710
 0.685000   -3.009464   -23.518507
 0.690000   -3.133875   -26.530252
 0.695000   -3.274766   -30.667381
 0.700000   -3.440549   -32.246620
 0.705000   -3.597233   -31.491253
 0.710000   -3.755462   -31.347903
 0.715000   -3.910712   -30.214307
 0.720000   -4.057605   -28.087922
 0.725000   -4.191591   -25.427619
 0.730000   -4.311881   -19.593942
 0.735000   -4.387530   -11.771073
 0.740000   -4.429592   -4.704632
 0.745000   -4.434577   2.891565
 0.750000   -4.400676   10.628462
 0.755000   -4.328292   19.774963
 0.760000   -4.202926   26.773338
 0.765000   -4.060559   30.367162
 0.770000   -3.899255   33.493627
 0.775000   -3.725622   35.303958
 0.780000   -3.546215   35.858754
 0.785000   -3.367035   36.371556
 0.790000   -3.182500   34.313692
 0.795000   -3.023898   30.265991
 0.800000   -2.879840   27.496699
 0.805000   -2.748931   24.965092
 0.810000   -2.630189   22.731217
 0.815000   -2.521619   20.810469
 0.820000   -2.422084   19.706527
 0.825000   -2.324553   19.358421
 0.830000   -2.228500   18.921013
 0.835000   -2.135343   18.267374
 0.840000   -2.045826   17.465487
 0.845000   -1.960688   16.217670
 0.850000   -1.883649   14.611062
 0.855000   -1.814578   12.714301
 0.860000   -1.756506   10.249521
 0.865000   -1.712083   7.404773
 0.870000   -1.682459   4.363094
 0.875000   -1.668452   0.492504
 0.880000   -1.677534   -3.558248
 0.885000   -1.704034   -7.010245
 0.890000   -1.747636   -11.625821
 0.895000   -1.820292   -18.271670
 0.900000   -1.930353   -26.725190
 0.905000   -2.087544   -38.845840
 0.910000   -2.318811   -54.587715
 0.915000   -2.633421   -71.687700
 0.920000   -3.035688   -95.123338
 0.925000   -3.584655   -130.749339
 0.930000   -4.343182   -181.127347
 0.935000   -5.395928   -255.015702
 0.940000   -6.893339   -357.733059
 0.945000   -8.973259   -468.461995
 0.950000   -11.577959   -575.475759
 0.955000   -14.728016   -665.288362
 0.960000   -18.230842   -697.501626
 0.965000   -21.703033   -641.652360
 0.970000   -24.647366   -470.439882
 0.975000   -26.407431   -168.216881
 0.980000   -26.329535   179.394690
 0.985000   -24.613485   467.424013
 0.990000   -21.655294   654.788282
 0.995000   -18.065602   717.104475
 1.000000   -14.484250   715.436325
201 psinorm omgeb(kRad/s) domgeb/dpsiN
 0.000000   72.699549   151.294008
 0.005000   73.238879   64.438194
 0.010000   73.343931   15.504204
 0.015000   73.393921   7.377441
 0.020000   73.417705   2.687350
 0.025000   73.420795   -1.402053
 0.030000   73.403685   -5.615886
 0.035000   73.364636   -9.302967
 0.040000   73.310655   -12.505159
 0.045000   73.239584   -15.530244
 0.050000   73.155352   -17.997728
 0.055000   73.059607   -19.809398
 0.060000   72.957258   -21.164137
 0.065000   72.847966   -22.254464
 0.070000   72.734714   -22.934717
 0.075000   72.618619   -23.441165
 0.080000   72.500302   -23.773129
 0.085000   72.380887   -24.157201
 0.090000   72.258730   -24.683107
 0.095000   72.134056   -25.388349
 0.100000   72.004847   -26.222303
 0.105000   71.871833   -27.015465
 0.110000   71.734692   -27.640332
 0.115000   71.595430   -28.161186
 0.120000   71.453080   -28.370029
 0.125000   71.311730   -28.206627
 0.130000   71.171014   -27.896470
 0.135000   71.032765   -27.475100
 0.140000   70.896263   -27.050122
 0.145000   70.762264   -26.718715
 0.150000   70.629076   -26.286813
 0.155000   70.499395   -25.967334
 0.160000   70.369402   -26.048275
 0.165000   70.238913   -26.443517
 0.170000   70.104967   -27.035148
 0.175000   69.968561   -27.737843
 0.180000   69.827589   -28.801766
 0.185000   69.680544   -30.063004
 0.190000   69.526959   -31.443051
 0.195000   69.366113   -32.670666
 0.200000   69.200252   -33.918747
 0.205000   69.026926   -35.337462
 0.210000   68.846878   -37.320088
 0.215000   68.653725   -39.810515
 0.220000   68.448772   -41.900864
 0.225000   68.234716   -43.848368
 0.230000   68.010289   -45.934760
 0.235000   67.775368   -48.513333
 0.240000   67.525155   -50.861239
 0.245000   67.266756   -52.285201
 0.250000   67.002303   -53.302996
 0.255000   66.733726   -53.982053
 0.260000   66.462483   -54.196118
 0.265000   66.191765   -54.442665
 0.270000   65.918056   -54.030547
 0.275000   65.651460   -52.500689
 0.280000   65.393049   -51.198498
 0.285000   65.139475   -50.316125
 0.290000   64.889888   -49.528144
 0.295000   64.644193   -48.840815
 0.300000   64.401480   -48.114451
 0.305000   64.163049   -47.757786
 0.310000   63.923902   -48.375063
 0.315000   63.679298   -49.890986
 0.320000   63.424992   -52.181468
 0.325000   63.157483   -54.789849
 0.330000   62.877094   -57.617758
 0.335000   62.581306   -61.016651
 0.340000   62.266927   -64.169460
 0.345000   61.939611   -66.472024
 0.350000   61.602207   -68.200955
 0.355000   61.257602   -69.660893
 0.360000   60.905598   -71.246802
 0.365000   60.545134   -72.492525
 0.370000   60.180673   -73.298631
 0.375000   59.812147   -73.984982
 0.380000   59.440823   -74.544176
 0.385000   59.066705   -75.120059
 0.390000   58.689622   -75.298882
 0.395000   58.313717   -75.043457
 0.400000   57.939188   -74.990670
 0.405000   57.563810   -75.053911
 0.410000   57.188649   -75.094425
 0.415000   56.812866   -75.966696
 0.420000   56.428982   -78.345262
 0.425000   56.029413   -83.175052
 0.430000   55.597231   -90.112835
 0.435000   55.128285   -98.584650
 0.440000   54.611385   -109.369719
 0.445000   54.034588   -120.980087
 0.450000   53.401584   -131.924278
 0.455000   52.715345   -142.674606
 0.460000   51.974838   -152.597402
 0.465000   51.189371   -160.912501
 0.470000   50.365713   -166.744109
 0.475000   49.521930   -168.675171
 0.480000   48.678961   -167.352456
 0.485000   47.848405   -163.442858
 0.490000   47.044532   -156.967350
 0.495000   46.278732   -148.354164
 0.500000   45.560991   -138.260594
 0.505000   44.896126   -128.387045
 0.510000   44.277120   -119.712970
 0.515000   43.698996   -112.295881
 0.520000   43.154162   -106.142486
 0.525000   42.637571   -101.094845
 0.530000   42.143213   -97.510472
 0.535000   41.662466   -95.071277
 0.540000   41.192500   -92.920054
 0.545000   40.733266   -90.833744
 0.550000   40.284163   -88.916235
 0.555000   39.844103   -86.971258
 0.560000   39.414450   -84.849770
 0.565000   38.995606   -82.813908
 0.570000   38.586311   -80.918485
 0.575000   38.186421   -79.136989
 0.580000   37.794941   -77.446197
 0.585000   37.411959   -75.908706
 0.590000   37.035854   -74.500533
 0.595000   36.666954   -73.080375
 0.600000   36.305051   -71.790742
 0.605000   35.949046   -70.696853
 0.610000   35.598082   -69.529819
 0.615000   35.253748   -68.398995
 0.620000   34.914092   -67.412204
 0.625000   34.579626   -66.465389
 0.630000   34.249438   -65.666911
 0.635000   33.922957   -65.008998
 0.640000   33.599348   -64.301539
 0.645000   33.279941   -63.526122
 0.650000   32.964087   -62.912555
 0.655000   32.650816   -62.549666
 0.660000   32.338590   -62.569410
 0.665000   32.025122   -63.193370
 0.670000   31.706657   -64.595967
 0.675000   31.379162   -67.091815
 0.680000   31.035738   -70.531303
 0.685000   30.673849   -74.135255
 0.690000   30.294386   -77.779843
 0.695000   29.896051   -82.141667
 0.700000   29.472969   -83.420808
 0.705000   29.061843   -81.907722
 0.710000   28.653892   -80.784408
 0.715000   28.253999   -78.681445
 0.720000   27.867078   -75.792970
 0.725000   27.496069   -72.757207
 0.730000   27.139505   -66.945921
 0.735000   26.826610   -59.661119
 0.740000   26.542894   -53.849490
 0.745000   26.288115   -48.170596
 0.750000   26.061188   -43.069599
 0.755000   25.857419   -37.312781
 0.760000   25.688061   -34.471815
 0.765000   25.512701   -35.786701
 0.770000   25.330194   -38.314733
 0.775000   25.129553   -42.777617
 0.780000   24.902417   -48.290305
 0.785000   24.646650   -53.410125
 0.790000   24.368316   -60.892370
 0.795000   24.037727   -70.245765
 0.800000   23.665858   -78.503450
 0.805000   23.252692   -86.774715
 0.810000   22.798111   -94.693913
 0.815000   22.305753   -102.307494
 0.820000   21.775036   -109.430724
 0.825000   21.211446   -115.773888
 0.830000   20.617297   -121.767340
 0.835000   19.993772   -127.324881
 0.840000   19.344049   -131.875740
 0.845000   18.675015   -135.286642
 0.850000   17.991182   -137.268909
 0.855000   17.302326   -138.041366
 0.860000   16.610769   -138.655867
 0.865000   15.915767   -139.965590
 0.870000   15.211113   -142.181462
 0.875000   14.493952   -146.268286
 0.880000   13.748430   -152.721038
 0.885000   12.966742   -161.692641
 0.890000   12.131503   -175.603722
 0.895000   11.210705   -196.498524
 0.900000   10.166518   -223.833087
 0.905000   8.972374   -258.867380
 0.910000   7.577844   -301.128314
 0.915000   5.961091   -345.878253
 0.920000   4.119062   -393.756430
 0.925000   2.023527   -448.629214
 0.930000   -0.367230   -508.545977
 0.935000   -3.061933   -572.884010
 0.940000   -6.096070   -639.099382
 0.945000   -9.452927   -689.185830
 0.950000   -12.987929   -721.035328
 0.955000   -16.663280   -734.933222
 0.960000   -20.337261   -719.925461
 0.965000   -23.862535   -677.676093
 0.970000   -27.114022   -593.890025
 0.975000   -29.801435   -397.272334
 0.980000   -31.086745   -29.189377
 0.985000   -30.093329   561.543864
 0.990000   -25.471307   1336.764786
 0.995000   -16.725681   1986.237413
 1.000000   -5.608932   2460.462055
201 psinorm er(kV/m) der/dpsiN
 0.000000   0.662193   1400.615540
 0.005000   6.218250   821.807097
 0.010000   8.880264   469.486704
 0.015000   10.913117   377.959966
 0.020000   12.659864   326.971983
 0.025000   14.182837   289.751422
 0.030000   15.557378   263.602274
 0.035000   16.818859   243.250154
 0.040000   17.989880   225.721318
 0.045000   19.076073   210.333187
 0.050000   20.093212   197.310169
 0.055000   21.049174   187.103864
 0.060000   21.964250   178.775334
 0.065000   22.836928   169.097701
 0.070000   23.655227   160.321394
 0.075000   24.440142   155.115414
 0.080000   25.206381   147.619350
 0.085000   25.916335   141.816109
 0.090000   26.624542   137.252938
 0.095000   27.288864   129.835939
 0.100000   27.922902   126.724427
 0.105000   28.556109   120.265030
 0.110000   29.125552   117.071240
 0.115000   29.726821   111.856581
 0.120000   30.244118   108.572500
 0.125000   30.812546   104.657504
 0.130000   31.290693   101.339454
 0.135000   31.825941   98.498184
 0.140000   32.275675   94.814533
 0.145000   32.774086   93.166340
 0.150000   33.207338   88.917680
 0.155000   33.663263   88.323912
 0.160000   34.090577   83.311856
 0.165000   34.496381   82.639299
 0.170000   34.916970   77.572602
 0.175000   35.272107   76.394484
 0.180000   35.680915   72.791414
 0.185000   36.000022   68.313440
 0.190000   36.364050   69.572101
 0.195000   36.695743   62.538055
 0.200000   36.989430   62.824945
 0.205000   37.323992   57.489151
 0.210000   37.564322   53.222333
 0.215000   37.856215   55.087641
 0.220000   38.115198   46.931913
 0.225000   38.325534   46.172031
 0.230000   38.576918   43.225733
 0.235000   38.757792   37.078953
 0.240000   38.947708   39.175620
 0.245000   39.149548   31.603449
 0.250000   39.263742   28.833826
 0.255000   39.437886   32.432797
 0.260000   39.588070   25.036754
 0.265000   39.688254   24.597581
 0.270000   39.834046   26.131661
 0.275000   39.949570   21.107274
 0.280000   40.045119   22.960546
 0.285000   40.179176   22.795205
 0.290000   40.273071   18.501925
 0.295000   40.364195   20.922660
 0.300000   40.482297   19.392682
 0.305000   40.558122   15.656585
 0.310000   40.638863   17.599784
 0.315000   40.734120   14.219222
 0.320000   40.781056   9.232517
 0.325000   40.826445   9.669896
 0.330000   40.877755   5.668632
 0.335000   40.883131   0.082908
 0.340000   40.878584   -0.432026
 0.345000   40.878811   -3.410694
 0.350000   40.844477   -7.954328
 0.355000   40.799268   -8.100731
 0.360000   40.763469   -9.660318
 0.365000   40.702665   -13.981902
 0.370000   40.623650   -14.456227
 0.375000   40.558102   -14.501951
 0.380000   40.478631   -18.353002
 0.385000   40.374572   -19.301416
 0.390000   40.285617   -18.227670
 0.395000   40.192296   -21.466771
 0.400000   40.070949   -22.565787
 0.405000   39.966638   -21.084834
 0.410000   39.860101   -23.754763
 0.415000   39.729090   -25.983166
 0.420000   39.600269   -26.791236
 0.425000   39.461178   -31.414179
 0.430000   39.286127   -38.320242
 0.435000   39.077975   -44.544720
 0.440000   38.840680   -52.355545
 0.445000   38.554420   -62.789060
 0.450000   38.212789   -71.578427
 0.455000   37.838636   -79.048982
 0.460000   37.422300   -88.143073
 0.465000   36.957205   -95.598414
 0.470000   36.466315   -99.873075
 0.475000   35.958474   -102.350907
 0.480000   35.442806   -103.134602
 0.485000   34.927128   -101.045032
 0.490000   34.432356   -96.545919
 0.495000   33.961669   -91.869975
 0.500000   33.513656   -85.450344
 0.505000   33.107165   -78.139770
 0.510000   32.732259   -72.721632
 0.515000   32.379949   -68.383320
 0.520000   32.048425   -64.123920
 0.525000   31.738710   -60.568718
 0.530000   31.442738   -59.086838
 0.535000   31.147842   -57.894786
 0.540000   30.863790   -56.138692
 0.545000   30.586455   -55.369763
 0.550000   30.310093   -54.818864
 0.555000   30.038266   -53.475557
 0.560000   29.775337   -51.981109
 0.565000   29.518455   -51.499442
 0.570000   29.260343   -50.547705
 0.575000   29.012978   -48.924556
 0.580000   28.771097   -48.296710
 0.585000   28.530011   -47.947261
 0.590000   28.291625   -46.908268
 0.595000   28.060928   -45.700041
 0.600000   27.834624   -45.808678
 0.605000   27.602841   -45.411249
 0.610000   27.380512   -44.020013
 0.615000   27.162641   -43.649834
 0.620000   26.944013   -43.784032
 0.625000   26.724801   -43.089661
 0.630000   26.513117   -42.104490
 0.635000   26.303756   -42.559641
 0.640000   26.087520   -42.555896
 0.645000   25.878197   -41.462232
 0.650000   25.672898   -41.090495
 0.655000   25.467292   -41.903919
 0.660000   25.253859   -42.067468
 0.665000   25.046617   -41.886053
 0.670000   24.834998   -43.655534
 0.675000   24.610062   -46.433046
 0.680000   24.370668   -48.862259
 0.685000   24.121439   -51.279735
 0.690000   23.857870   -55.351609
 0.695000   23.567923   -59.266921
 0.700000   23.265201   -59.462348
 0.705000   22.973300   -58.398802
 0.710000   22.681213   -58.894604
 0.715000   22.384354   -57.291833
 0.720000   22.108295   -53.990015
 0.725000   21.844454   -52.351264
 0.730000   21.584782   -48.773370
 0.735000   21.356720   -42.507394
 0.740000   21.159708   -37.141400
 0.745000   20.985306   -33.831495
 0.750000   20.821393   -30.320549
 0.755000   20.682100   -24.749541
 0.760000   20.573898   -22.179638
 0.765000   20.460304   -24.695584
 0.770000   20.326942   -26.872464
 0.775000   20.191579   -29.251785
 0.780000   20.034424   -34.069220
 0.785000   19.850887   -39.192584
 0.790000   19.642498   -45.150694
 0.795000   19.399380   -52.037665
 0.800000   19.122122   -59.281236
 0.805000   18.806568   -66.669964
 0.810000   18.455422   -72.917542
 0.815000   18.077392   -78.814350
 0.820000   17.667279   -85.298872
 0.825000   17.224404   -90.972101
 0.830000   16.757558   -95.637839
 0.835000   16.268025   -100.149652
 0.840000   15.756061   -104.620727
 0.845000   15.221818   -107.788029
 0.850000   14.678181   -109.178373
 0.855000   14.130034   -109.987624
 0.860000   13.578305   -111.176694
 0.865000   13.018267   -112.500420
 0.870000   12.453300   -114.115311
 0.875000   11.877114   -117.758929
 0.880000   11.275711   -123.592441
 0.885000   10.641190   -131.088131
 0.890000   9.964830   -142.407262
 0.895000   9.217117   -159.994339
 0.900000   8.364886   -182.907209
 0.905000   7.388045   -211.745292
 0.910000   6.247433   -246.629367
 0.915000   4.921752   -284.416826
 0.920000   3.403265   -324.473794
 0.925000   1.677014   -369.715208
 0.930000   -0.293887   -419.847943
 0.935000   -2.521466   -478.471837
 0.940000   -5.078605   -538.177419
 0.945000   -7.903240   -578.148680
 0.950000   -10.860092   -603.084063
 0.955000   -13.934081   -646.018393
 0.960000   -17.320276   -652.182526
 0.965000   -20.455906   -595.603801
 0.970000   -23.276314   -516.074715
 0.975000   -25.616653   -368.828380
 0.980000   -26.964598   -57.362955
 0.985000   -26.190283   476.754794
 0.990000   -22.197050   1158.759466
 0.995000   -14.602688   1728.549702
 1.000000   -4.911553   2147.904329
201 psinorm ommvb() dommvb/dpsiN
 0.000000   11.573210   19999.753745
 0.005000   95.191430   13447.534111
 0.010000   146.048551   9966.002455
 0.015000   194.851454   9075.468186
 0.020000   236.803233   7753.433513
 0.025000   272.385789   6633.730967
 0.030000   303.140543   5765.939190
 0.035000   330.045181   5106.235040
 0.040000   354.202893   4454.080785
 0.045000   374.585989   3813.518100
 0.050000   392.338074   3444.707401
 0.055000   409.033063   3013.987625
 0.060000   422.477950   2614.164409
 0.065000   435.174707   2330.705598
 0.070000   445.785006   2050.687380
 0.075000   455.681581   1901.754520
 0.080000   464.802551   1568.564470
 0.085000   471.367226   1201.764200
 0.090000   476.820193   996.881473
 0.095000   481.336040   761.518174
 0.100000   484.435375   482.526670
 0.105000   486.161307   256.150380
 0.110000   486.996879   154.019301
 0.115000   487.701500   67.397270
 0.120000   487.670852   -85.253001
 0.125000   486.848970   -237.296947
 0.130000   485.297882   -370.270687
 0.135000   483.146263   -503.844552
 0.140000   480.259437   -632.468513
 0.145000   476.821578   -729.210030
 0.150000   472.967336   -814.806948
 0.155000   468.673509   -899.849456
 0.160000   463.968842   -978.096863
 0.165000   458.892540   -1046.997042
 0.170000   453.498871   -1103.209108
 0.175000   447.860449   -1141.366929
 0.180000   442.085202   -1157.204642
 0.185000   436.288402   -1202.070976
 0.190000   430.064492   -1380.994959
 0.195000   422.478453   -1455.356360
 0.200000   415.510929   -1346.152732
 0.205000   409.016926   -1298.164069
 0.210000   402.529288   -1294.854892
 0.215000   396.068377   -1289.768951
 0.220000   389.631599   -1278.654714
 0.225000   383.281829   -1293.068897
 0.230000   376.700910   -1469.788520
 0.235000   368.583944   -1404.586788
 0.240000   362.655042   -1169.439954
 0.245000   356.889545   -1138.414300
 0.250000   351.270899   -1108.319427
 0.255000   345.806350   -1124.327215
 0.260000   340.027627   -1261.096516
 0.265000   333.195385   -1154.139334
 0.270000   328.486233   -929.888780
 0.275000   323.896498   -902.354227
 0.280000   319.462691   -860.332432
 0.285000   315.293173   -1003.731575
 0.290000   309.425375   -951.079203
 0.295000   305.782381   -699.478985
 0.300000   302.430585   -655.062139
 0.305000   299.231760   -638.287030
 0.310000   296.047715   -754.344827
 0.315000   291.688312   -680.661543
 0.320000   289.241100   -473.197826
 0.325000   286.956333   -440.756178
 0.330000   284.833538   -467.314568
 0.335000   282.283188   -504.762821
 0.340000   279.785910   -404.404391
 0.345000   278.239144   -299.088731
 0.350000   276.795022   -277.796993
 0.355000   275.461174   -362.737946
 0.360000   273.167643   -324.570101
 0.365000   272.215473   -180.998061
 0.370000   271.357662   -163.252558
 0.375000   270.582947   -206.267253
 0.380000   269.294990   -211.986915
 0.385000   268.463078   -135.952769
 0.390000   267.935462   -100.906738
 0.395000   267.454011   -110.723291
 0.400000   266.828229   -128.456898
 0.405000   266.169442   -76.694522
 0.410000   266.061284   -19.842889
 0.415000   265.971013   -27.829504
 0.420000   265.782989   -93.520612
 0.425000   265.035807   -87.805307
 0.430000   264.904936   -32.070097
 0.435000   264.715106   -45.028215
 0.440000   264.454654   -129.434631
 0.445000   263.420759   -143.194972
 0.450000   263.022704   -68.280090
 0.455000   262.737958   -54.501780
 0.460000   262.477686   -126.184323
 0.465000   261.476115   -162.261136
 0.470000   260.855075   -102.703733
 0.475000   260.449078   -77.469513
 0.480000   260.080380   -103.818555
 0.485000   259.410892   -109.506616
 0.490000   258.985313   -44.971403
 0.495000   258.961178   5.191983
 0.500000   259.037233   10.774544
 0.505000   259.068924   2.914577
 0.510000   259.066379   43.465255
 0.515000   259.503576   93.566831
 0.520000   260.002047   103.716949
 0.525000   260.540746   71.691473
 0.530000   260.718962   89.675839
 0.535000   261.437504   148.736016
 0.540000   262.206322   158.430337
 0.545000   263.021808   140.692304
 0.550000   263.613245   141.706434
 0.555000   264.438872   186.497761
 0.560000   265.478223   213.286183
 0.565000   266.571734   212.746405
 0.570000   267.605687   198.852361
 0.575000   268.560257   223.508367
 0.580000   269.840771   262.877983
 0.585000   271.189037   276.374647
 0.590000   272.604517   271.182836
 0.595000   273.900866   288.605531
 0.600000   275.490572   334.421680
 0.605000   277.245082   359.179307
 0.610000   279.082365   373.906574
 0.615000   280.984148   392.271202
 0.620000   283.005078   433.757132
 0.625000   285.321719   472.597250
 0.630000   287.731050   492.683125
 0.635000   290.248551   516.902439
 0.640000   292.900074   548.742046
 0.645000   295.735971   586.539512
 0.650000   298.765470   620.496875
 0.655000   301.940940   650.582611
 0.660000   305.271296   685.015839
 0.665000   308.791098   724.905363
 0.670000   312.520349   759.980219
 0.675000   316.390900   795.452748
 0.680000   320.474877   836.934161
 0.685000   324.760242   875.200463
 0.690000   329.226881   928.783693
 0.695000   334.048079   978.335210
 0.700000   339.010233   1016.454998
 0.705000   344.212629   1066.558701
 0.710000   349.675820   1119.638495
 0.715000   355.409014   1177.438457
 0.720000   361.450205   1241.482694
 0.725000   367.823841   1288.806244
 0.730000   374.338267   1332.119467
 0.735000   381.145035   1390.406511
 0.740000   388.242333   1450.137600
 0.745000   395.646411   1514.250620
 0.750000   403.384839   1577.532788
 0.755000   411.421739   1624.295558
 0.760000   419.627794   1666.862721
 0.765000   428.090367   1719.026898
 0.770000   436.818063   1775.863843
 0.775000   445.849005   1843.103186
 0.780000   455.249095   1921.093919
 0.785000   465.059944   1975.467318
 0.790000   475.003768   2046.259328
 0.795000   485.522537   2153.142026
 0.800000   496.535189   2250.459111
 0.805000   508.027129   2349.011533
 0.810000   520.025304   2455.441513
 0.815000   532.581544   2569.490744
 0.820000   545.720211   2685.503873
 0.825000   559.436582   2750.797514
 0.830000   573.228187   2856.602998
 0.835000   588.002612   3025.503497
 0.840000   603.483222   3165.026193
 0.845000   619.652874   3301.765417
 0.850000   636.500876   3439.848787
 0.855000   654.051362   3578.542009
 0.860000   672.286296   3716.274478
 0.865000   691.214107   3879.388853
 0.870000   711.080184   4134.902387
 0.875000   732.563131   4482.958065
 0.880000   755.909765   4888.671040
 0.885000   781.449841   5321.568327
 0.890000   809.125448   5836.189852
 0.895000   839.811740   6561.154439
 0.900000   874.736993   7467.573539
 0.905000   914.487475   8582.583745
 0.910000   960.562830   10060.291743
 0.915000   1015.090393   12028.728357
 0.920000   1080.850114   14632.963867
 0.925000   1161.420031   18050.482867
 0.930000   1261.354942   22521.102676
 0.935000   1386.631058   28212.205921
 0.940000   1543.477002   35527.423743
 0.945000   1741.905295   45147.414623
 0.950000   1994.951148   57082.948125
 0.955000   2312.734777   68119.232520
 0.960000   2676.143473   76856.258931
 0.965000   3081.297366   81283.728320
 0.970000   3488.980756   75853.578848
 0.975000   3839.833154   56670.991680
 0.980000   4055.690673   33166.159812
 0.985000   4171.494753   29717.986595
 0.990000   4352.870539   45833.249419
 0.995000   4629.827247   289182.535191
 1.000000   7244.695891   756764.922426
201 psinorm ommpp() dommpp/dpsiN
 0.000000   61.126339   -19848.459736
 0.005000   -21.952550   -13383.095916
 0.010000   -72.704620   -9950.498251
 0.015000   -121.457533   -9068.090746
 0.020000   -163.385528   -7750.746163
 0.025000   -198.964994   -6635.133019
 0.030000   -229.736858   -5771.555076
 0.035000   -256.680545   -5115.538007
 0.040000   -280.892238   -4466.585944
 0.045000   -301.346405   -3829.048345
 0.050000   -319.182722   -3462.705129
 0.055000   -335.973456   -3033.797024
 0.060000   -349.520692   -2635.328547
 0.065000   -362.326741   -2352.960062
 0.070000   -373.050292   -2073.622097
 0.075000   -383.062962   -1925.195684
 0.080000   -392.302249   -1592.337599
 0.085000   -398.986338   -1225.921401
 0.090000   -404.561463   -1021.564580
 0.095000   -409.201984   -786.906523
 0.100000   -412.430528   -508.748973
 0.105000   -414.289474   -283.165845
 0.110000   -415.262187   -181.659633
 0.115000   -416.106070   -95.558456
 0.120000   -416.217771   56.882972
 0.125000   -415.537241   209.090320
 0.130000   -414.126868   342.374217
 0.135000   -412.113498   476.369452
 0.140000   -409.363174   605.418391
 0.145000   -406.059314   702.491316
 0.150000   -402.338261   788.520136
 0.155000   -398.174113   873.882122
 0.160000   -393.599439   952.048588
 0.165000   -388.653627   1020.553525
 0.170000   -383.393904   1076.173960
 0.175000   -377.891888   1113.629085
 0.180000   -372.257613   1128.402876
 0.185000   -366.607859   1172.007972
 0.190000   -360.537534   1349.551907
 0.195000   -353.112340   1422.685694
 0.200000   -346.310677   1312.233985
 0.205000   -339.990000   1262.826606
 0.210000   -333.682411   1257.534804
 0.215000   -327.414652   1249.958436
 0.220000   -321.182826   1236.753850
 0.225000   -315.047113   1249.220529
 0.230000   -308.690621   1423.853760
 0.235000   -300.808576   1356.073455
 0.240000   -295.129886   1118.578716
 0.245000   -289.622789   1086.129099
 0.250000   -284.268595   1055.016431
 0.255000   -279.072624   1070.345163
 0.260000   -273.565144   1206.900398
 0.265000   -267.003620   1099.696669
 0.270000   -262.568177   875.858233
 0.275000   -258.245038   849.853537
 0.280000   -254.069642   809.133934
 0.285000   -250.153699   953.415450
 0.290000   -244.535487   901.551059
 0.295000   -241.138188   650.638170
 0.300000   -238.029105   606.947688
 0.305000   -235.068711   590.529244
 0.310000   -232.123813   705.969765
 0.315000   -228.009014   630.770557
 0.320000   -225.816107   421.016358
 0.325000   -223.798850   385.966329
 0.330000   -221.956444   409.696810
 0.335000   -219.701882   443.746169
 0.340000   -217.518982   340.234931
 0.345000   -216.299533   232.616707
 0.350000   -215.192815   209.596038
 0.355000   -214.203572   293.077053
 0.360000   -212.262045   253.323299
 0.365000   -211.670339   108.505536
 0.370000   -211.176989   89.953927
 0.375000   -210.770800   132.282271
 0.380000   -209.854167   137.442739
 0.385000   -209.396373   60.832710
 0.390000   -209.245840   25.607856
 0.395000   -209.140294   35.679833
 0.400000   -208.889041   53.466228
 0.405000   -208.605632   1.640611
 0.410000   -208.872635   -55.251537
 0.415000   -209.158147   -48.137192
 0.420000   -209.354007   15.175349
 0.425000   -209.006394   4.630255
 0.430000   -209.307705   -58.042738
 0.435000   -209.586821   -53.556435
 0.440000   -209.843269   20.064911
 0.445000   -209.386172   22.214885
 0.450000   -209.621120   -63.644189
 0.455000   -210.022614   -88.172826
 0.460000   -210.502848   -26.413079
 0.465000   -210.286745   1.348635
 0.470000   -210.489362   -64.040375
 0.475000   -210.927148   -91.205658
 0.480000   -211.401419   -63.533901
 0.485000   -211.562487   -53.936243
 0.490000   -211.940781   -111.995947
 0.495000   -212.682447   -153.546147
 0.500000   -213.476242   -149.035138
 0.505000   -214.172798   -131.301622
 0.510000   -214.789259   -163.178225
 0.515000   -215.804580   -205.862712
 0.520000   -216.847886   -209.859435
 0.525000   -217.903175   -172.786319
 0.530000   -218.575749   -187.186312
 0.535000   -219.775038   -243.807292
 0.540000   -221.013822   -251.350391
 0.545000   -222.288542   -231.526048
 0.550000   -223.329082   -230.622669
 0.555000   -224.594768   -273.469019
 0.560000   -226.063773   -298.135952
 0.565000   -227.576128   -295.560314
 0.570000   -229.019376   -279.770846
 0.575000   -230.373836   -302.645356
 0.580000   -232.045829   -340.324180
 0.585000   -233.777078   -352.283353
 0.590000   -235.568663   -345.683368
 0.595000   -237.233912   -361.685906
 0.600000   -239.185522   -406.212422
 0.605000   -241.296036   -429.876160
 0.610000   -243.484283   -443.436392
 0.615000   -245.730400   -460.670198
 0.620000   -248.090985   -501.169336
 0.625000   -250.742093   -539.062640
 0.630000   -253.481612   -558.350036
 0.635000   -256.325594   -581.911438
 0.640000   -259.300726   -613.043584
 0.645000   -262.456030   -650.065634
 0.650000   -265.801383   -683.409430
 0.655000   -269.290124   -713.132277
 0.660000   -272.932705   -747.585248
 0.665000   -276.765976   -788.098732
 0.670000   -280.813693   -824.576185
 0.675000   -285.011738   -862.544563
 0.680000   -289.439138   -907.465464
 0.685000   -294.086393   -949.335718
 0.690000   -298.932495   -1006.563536
 0.695000   -304.152028   -1060.476878
 0.700000   -309.537264   -1099.875806
 0.705000   -315.150786   -1148.466422
 0.710000   -321.021928   -1200.422903
 0.715000   -327.155015   -1256.119903
 0.720000   -333.583127   -1317.275663
 0.725000   -340.327772   -1361.563451
 0.730000   -347.198762   -1399.065388
 0.735000   -354.318426   -1450.067629
 0.740000   -361.699438   -1503.987090
 0.745000   -369.358297   -1562.421216
 0.750000   -377.323650   -1620.602386
 0.755000   -385.564321   -1661.608339
 0.760000   -393.939734   -1701.334536
 0.765000   -402.577666   -1754.813599
 0.770000   -411.487870   -1814.178576
 0.775000   -420.719452   -1885.880803
 0.780000   -430.346678   -1969.384223
 0.785000   -440.413294   -2028.877443
 0.790000   -450.635452   -2107.151697
 0.795000   -461.484811   -2223.387792
 0.800000   -472.869330   -2328.962560
 0.805000   -484.774437   -2435.786248
 0.810000   -497.227193   -2550.135426
 0.815000   -510.275791   -2671.798238
 0.820000   -523.945175   -2794.934596
 0.825000   -538.225137   -2866.571402
 0.830000   -552.610889   -2978.370338
 0.835000   -568.008840   -3152.828378
 0.840000   -584.139173   -3296.901933
 0.845000   -600.977859   -3437.052059
 0.850000   -618.509693   -3577.117696
 0.855000   -636.749036   -3716.583375
 0.860000   -655.675527   -3854.930346
 0.865000   -675.298340   -4019.354443
 0.870000   -695.869072   -4277.083849
 0.875000   -718.069178   -4629.226351
 0.880000   -742.161335   -5041.392077
 0.885000   -768.483099   -5483.260969
 0.890000   -796.993945   -6011.793573
 0.895000   -828.601035   -6757.652962
 0.900000   -864.570474   -7691.406626
 0.905000   -905.515101   -8841.451125
 0.910000   -952.984986   -10361.420058
 0.915000   -1009.129302   -12374.606610
 0.920000   -1076.731052   -15026.720297
 0.925000   -1159.396505   -18499.112081
 0.930000   -1261.722173   -23029.648652
 0.935000   -1389.692991   -28785.089931
 0.940000   -1549.573072   -36166.523124
 0.945000   -1751.358222   -45836.600454
 0.950000   -2007.939076   -57803.983453
 0.955000   -2329.398057   -68854.165742
 0.960000   -2696.480734   -77576.184393
 0.965000   -3105.159901   -81961.404413
 0.970000   -3516.094778   -76447.468873
 0.975000   -3869.634590   -57068.264013
 0.980000   -4086.777418   -33195.349189
 0.985000   -4201.588082   -29156.442732
 0.990000   -4378.341845   -44496.484633
 0.995000   -4646.552928   -287196.297779
 1.000000   -7250.304823   -754304.460371
201 psinorm omevb() domevb/dpsiN
 0.000000   52.649652   149.592287
 0.005000   53.180326   62.677366
 0.010000   53.276426   13.822571
 0.015000   53.318552   5.913196
 0.020000   53.335558   1.440258
 0.025000   53.332955   -2.432260
 0.030000   53.311235   -6.429506
 0.035000   53.268660   -9.900326
 0.040000   53.212232   -12.886614
 0.045000   53.139794   -15.696182
 0.050000   53.055270   -17.948566
 0.055000   52.960308   -19.545583
 0.060000   52.859814   -20.686143
 0.065000   52.753446   -21.562796
 0.070000   52.644186   -22.029910
 0.075000   52.533147   -22.323780
 0.080000   52.420949   -22.443758
 0.085000   52.308710   -22.616464
 0.090000   52.194784   -22.931652
 0.095000   52.079393   -23.426851
 0.100000   51.960516   -24.051468
 0.105000   51.838879   -24.636024
 0.110000   51.714155   -25.053043
 0.115000   51.588348   -25.366835
 0.120000   51.460487   -25.369431
 0.125000   51.334654   -25.000622
 0.130000   51.210481   -24.485924
 0.135000   51.089795   -23.860905
 0.140000   50.971872   -23.233198
 0.145000   50.857463   -22.700006
 0.150000   50.744872   -22.067289
 0.155000   50.636790   -21.547990
 0.160000   50.529392   -21.430132
 0.165000   50.422488   -21.627620
 0.170000   50.313116   -22.022566
 0.175000   50.202263   -22.529671
 0.180000   50.087819   -23.399120
 0.185000   49.968272   -24.467025
 0.190000   49.843149   -25.654904
 0.195000   49.711723   -26.691536
 0.200000   49.576233   -27.749846
 0.205000   49.434224   -28.980022
 0.210000   49.286433   -30.775362
 0.215000   49.126470   -33.079780
 0.220000   48.955635   -34.985416
 0.225000   48.776616   -36.749527
 0.230000   48.588140   -38.653864
 0.235000   48.390078   -41.051742
 0.240000   48.177622   -43.220332
 0.245000   47.957874   -44.466378
 0.250000   47.732959   -45.307676
 0.255000   47.504798   -45.811674
 0.260000   47.274842   -45.852137
 0.265000   47.046276   -45.926556
 0.270000   46.815576   -45.343803
 0.275000   46.592838   -43.644822
 0.280000   46.379128   -42.175035
 0.285000   46.171088   -41.126611
 0.290000   45.967862   -40.174142
 0.295000   45.769346   -39.323902
 0.300000   45.574623   -38.436222
 0.305000   45.384984   -37.919850
 0.310000   45.195425   -38.379044
 0.315000   45.001194   -39.738524
 0.320000   44.798039   -41.874216
 0.325000   44.582452   -44.329476
 0.330000   44.354745   -47.005945
 0.335000   44.112392   -50.255094
 0.340000   43.852194   -53.259866
 0.345000   43.579793   -55.416114
 0.350000   43.298032   -57.000461
 0.355000   43.009789   -58.317560
 0.360000   42.714857   -59.762386
 0.365000   42.412165   -60.868793
 0.370000   42.106169   -61.537361
 0.375000   41.796791   -62.087962
 0.380000   41.485289   -62.513204
 0.385000   41.171659   -62.956943
 0.390000   40.855720   -63.005438
 0.395000   40.541605   -62.621512
 0.400000   40.229505   -62.442057
 0.405000   39.917184   -62.380472
 0.410000   39.605700   -62.298011
 0.415000   39.294204   -63.049162
 0.420000   38.975208   -65.308474
 0.425000   38.641120   -70.020880
 0.430000   38.275000   -76.843155
 0.435000   37.872688   -85.201345
 0.440000   37.422986   -95.874677
 0.445000   36.913941   -107.375200
 0.450000   36.349234   -118.211446
 0.455000   35.731827   -128.855728
 0.460000   35.060677   -138.674386
 0.465000   34.345083   -146.887256
 0.470000   33.591804   -152.618547
 0.475000   32.818897   -154.451208
 0.480000   32.047292   -153.032011
 0.485000   31.288577   -149.027850
 0.490000   30.557014   -142.459701
 0.495000   29.863980   -133.755796
 0.500000   29.219456   -123.573432
 0.505000   28.628246   -113.613015
 0.510000   28.083326   -104.853997
 0.515000   27.579706   -97.353889
 0.520000   27.109787   -91.119401
 0.525000   26.668512   -85.992591
 0.530000   26.249861   -82.330972
 0.535000   25.845202   -79.816452
 0.540000   25.451696   -77.591826
 0.545000   25.069284   -75.434029
 0.550000   24.697356   -73.446950
 0.555000   24.334815   -71.434315
 0.560000   23.983013   -69.247078
 0.565000   23.642344   -67.147375
 0.570000   23.311539   -65.190012
 0.575000   22.990444   -63.348475
 0.580000   22.678054   -61.599537
 0.585000   22.374448   -60.005789
 0.590000   22.077996   -58.543243
 0.595000   21.789016   -57.070592
 0.600000   21.507291   -55.730339
 0.605000   21.231712   -54.587698
 0.610000   20.961414   -53.373773
 0.615000   20.697975   -52.197913
 0.620000   20.439434   -51.167932
 0.625000   20.186295   -50.179769
 0.630000   19.937637   -49.341774
 0.635000   19.692878   -48.646168
 0.640000   19.451175   -47.902831
 0.645000   19.213849   -47.093343
 0.650000   18.980242   -46.447500
 0.655000   18.749374   -46.054120
 0.660000   18.519700   -46.045147
 0.665000   18.288923   -46.642150
 0.670000   18.053279   -48.019538
 0.675000   17.808728   -50.491908
 0.680000   17.548360   -53.909632
 0.685000   17.269631   -57.493512
 0.690000   16.973425   -61.119698
 0.695000   16.658434   -65.464762
 0.700000   16.318777   -66.728751
 0.705000   15.991147   -65.202080
 0.710000   15.666756   -64.066701
 0.715000   15.350480   -61.953129
 0.720000   15.047225   -59.055428
 0.725000   14.759925   -56.011728
 0.730000   14.487108   -50.193675
 0.735000   14.257989   -42.903127
 0.740000   14.058077   -37.086584
 0.745000   13.887123   -31.403373
 0.750000   13.744043   -26.298353
 0.755000   13.624139   -20.537431
 0.760000   13.538668   -17.691801
 0.765000   13.447221   -19.000866
 0.770000   13.348660   -21.521173
 0.775000   13.232010   -25.973503
 0.780000   13.088925   -31.471663
 0.785000   12.917293   -36.571590
 0.790000   12.723209   -44.026890
 0.795000   12.477024   -53.344299
 0.800000   12.189766   -61.554641
 0.805000   11.861478   -69.764612
 0.810000   11.492120   -77.605785
 0.815000   11.085420   -85.121880
 0.820000   10.640901   -92.125890
 0.825000   10.164161   -98.327034
 0.830000   9.657631   -104.157040
 0.835000   9.122590   -109.535561
 0.840000   8.562275   -113.905410
 0.845000   7.983536   -117.159791
 0.850000   7.390677   -119.057475
 0.855000   6.792962   -119.898249
 0.860000   6.191695   -120.867824
 0.865000   5.584283   -123.035897
 0.870000   4.961336   -126.958156
 0.875000   4.314702   -134.141893
 0.880000   3.619917   -145.927836
 0.885000   2.855423   -163.777321
 0.890000   1.982144   -192.121008
 0.895000   0.934213   -236.068806
 0.900000   -0.378545   -299.712581
 0.905000   -2.062912   -391.242493
 0.910000   -4.290969   -520.372560
 0.915000   -7.266638   -696.950784
 0.920000   -11.260477   -941.610679
 0.925000   -16.682745   -1283.587893
 0.930000   -24.096356   -1748.440026
 0.935000   -34.167145   -2354.477589
 0.940000   -47.641132   -3084.767612
 0.945000   -65.014821   -3829.856838
 0.950000   -85.939701   -4367.532224
 0.955000   -108.690143   -4343.027371
 0.960000   -129.369974   -3390.544589
 0.965000   -142.595589   -1462.732418
 0.970000   -143.997298   949.676644
 0.975000   -133.098823   3049.462338
 0.980000   -113.502675   4260.959206
 0.985000   -90.489231   4636.228244
 0.990000   -67.140393   4596.075919
 0.995000   -44.528472   4314.835829
 1.000000   -23.992034   3899.739121
201 psinorm omepp() domepp/dpsiN
 0.000000   20.049896   1.701721
 0.005000   20.058553   1.760828
 0.010000   20.067505   1.681633
 0.015000   20.075369   1.464244
 0.020000   20.082147   1.247093
 0.025000   20.087840   1.030208
 0.030000   20.092449   0.813620
 0.035000   20.095976   0.597359
 0.040000   20.098423   0.381455
 0.045000   20.099791   0.165938
 0.050000   20.100082   -0.049162
 0.055000   20.099299   -0.263816
 0.060000   20.097444   -0.477994
 0.065000   20.094519   -0.691668
 0.070000   20.090527   -0.904808
 0.075000   20.085471   -1.117385
 0.080000   20.079354   -1.329371
 0.085000   20.072177   -1.540737
 0.090000   20.063946   -1.751455
 0.095000   20.054663   -1.961497
 0.100000   20.044331   -2.170835
 0.105000   20.032955   -2.379442
 0.110000   20.020537   -2.587289
 0.115000   20.007082   -2.794350
 0.120000   19.992593   -3.000598
 0.125000   19.977076   -3.206005
 0.130000   19.960533   -3.410546
 0.135000   19.942970   -3.614195
 0.140000   19.924391   -3.816924
 0.145000   19.904801   -4.018709
 0.150000   19.884204   -4.219524
 0.155000   19.862606   -4.419343
 0.160000   19.840011   -4.618142
 0.165000   19.816424   -4.815896
 0.170000   19.791852   -5.012581
 0.175000   19.766298   -5.208172
 0.180000   19.739770   -5.402646
 0.185000   19.712272   -5.595979
 0.190000   19.683810   -5.788148
 0.195000   19.654391   -5.979129
 0.200000   19.624019   -6.168901
 0.205000   19.592702   -6.357440
 0.210000   19.560445   -6.544726
 0.215000   19.527254   -6.730735
 0.220000   19.493137   -6.915448
 0.225000   19.458100   -7.098841
 0.230000   19.422149   -7.280896
 0.235000   19.385291   -7.461591
 0.240000   19.347533   -7.640907
 0.245000   19.308882   -7.818823
 0.250000   19.269345   -7.995320
 0.255000   19.228929   -8.170379
 0.260000   19.187641   -8.343982
 0.265000   19.145489   -8.516109
 0.270000   19.102480   -8.686744
 0.275000   19.058621   -8.855867
 0.280000   19.013921   -9.023463
 0.285000   18.968387   -9.189513
 0.290000   18.922026   -9.354002
 0.295000   18.874847   -9.516913
 0.300000   18.826857   -9.678229
 0.305000   18.778064   -9.837937
 0.310000   18.728477   -9.996019
 0.315000   18.678104   -10.152462
 0.320000   18.626953   -10.307252
 0.325000   18.575032   -10.460373
 0.330000   18.522349   -10.611813
 0.335000   18.468914   -10.761558
 0.340000   18.414734   -10.909594
 0.345000   18.359818   -11.055911
 0.350000   18.304174   -11.200494
 0.355000   18.247813   -11.343333
 0.360000   18.190741   -11.484416
 0.365000   18.132969   -11.623732
 0.370000   18.074504   -11.761270
 0.375000   18.015356   -11.897020
 0.380000   17.955534   -12.030972
 0.385000   17.895046   -12.163116
 0.390000   17.833902   -12.293443
 0.395000   17.772112   -12.421945
 0.400000   17.709683   -12.548613
 0.405000   17.646626   -12.673439
 0.410000   17.582949   -12.796414
 0.415000   17.518661   -12.917533
 0.420000   17.453773   -13.036788
 0.425000   17.388294   -13.154172
 0.430000   17.322232   -13.269680
 0.435000   17.255597   -13.383305
 0.440000   17.188398   -13.495042
 0.445000   17.120646   -13.604886
 0.450000   17.052350   -13.712833
 0.455000   16.983518   -13.818877
 0.460000   16.914161   -13.923016
 0.465000   16.844288   -14.025245
 0.470000   16.773908   -14.125562
 0.475000   16.703032   -14.223963
 0.480000   16.631669   -14.320446
 0.485000   16.559828   -14.415009
 0.490000   16.487519   -14.507650
 0.495000   16.414751   -14.598368
 0.500000   16.341535   -14.687161
 0.505000   16.267880   -14.774030
 0.510000   16.193795   -14.858974
 0.515000   16.119290   -14.941992
 0.520000   16.044375   -15.023085
 0.525000   15.969059   -15.102254
 0.530000   15.893352   -15.179500
 0.535000   15.817264   -15.254824
 0.540000   15.740804   -15.328229
 0.545000   15.663982   -15.399715
 0.550000   15.586807   -15.469286
 0.555000   15.509289   -15.536944
 0.560000   15.431437   -15.602692
 0.565000   15.353262   -15.666534
 0.570000   15.274772   -15.728473
 0.575000   15.195977   -15.788514
 0.580000   15.116887   -15.846660
 0.585000   15.037511   -15.902917
 0.590000   14.957858   -15.957290
 0.595000   14.877938   -16.009783
 0.600000   14.797760   -16.060403
 0.605000   14.717334   -16.109155
 0.610000   14.636668   -16.156046
 0.615000   14.555773   -16.201082
 0.620000   14.474658   -16.244271
 0.625000   14.393331   -16.285620
 0.630000   14.311801   -16.325137
 0.635000   14.230079   -16.362830
 0.640000   14.148173   -16.398708
 0.645000   14.066092   -16.432779
 0.650000   13.983845   -16.465055
 0.655000   13.901442   -16.495546
 0.660000   13.818890   -16.524263
 0.665000   13.736199   -16.551219
 0.670000   13.653378   -16.576429
 0.675000   13.570435   -16.599907
 0.680000   13.487379   -16.621671
 0.685000   13.404218   -16.641743
 0.690000   13.320961   -16.660145
 0.695000   13.237616   -16.676905
 0.700000   13.154192   -16.692057
 0.705000   13.070696   -16.705642
 0.710000   12.987136   -16.717708
 0.715000   12.903519   -16.728316
 0.720000   12.819853   -16.737541
 0.725000   12.736143   -16.745478
 0.730000   12.652398   -16.752246
 0.735000   12.568621   -16.757992
 0.740000   12.484818   -16.762905
 0.745000   12.400992   -16.767223
 0.750000   12.317146   -16.771245
 0.755000   12.233279   -16.775350
 0.760000   12.149392   -16.780015
 0.765000   12.065479   -16.785835
 0.770000   11.981534   -16.793560
 0.775000   11.897544   -16.804114
 0.780000   11.813493   -16.818641
 0.785000   11.729357   -16.838536
 0.790000   11.645107   -16.865479
 0.795000   11.560702   -16.901466
 0.800000   11.476093   -16.948809
 0.805000   11.391214   -17.010103
 0.810000   11.305992   -17.088127
 0.815000   11.220333   -17.185614
 0.820000   11.134135   -17.304834
 0.825000   11.047285   -17.446854
 0.830000   10.959667   -17.610300
 0.835000   10.871182   -17.789320
 0.840000   10.781774   -17.970330
 0.845000   10.691479   -18.126851
 0.850000   10.600505   -18.211434
 0.855000   10.509364   -18.143117
 0.860000   10.419074   -17.788043
 0.865000   10.331484   -16.929693
 0.870000   10.249777   -15.223306
 0.875000   10.179251   -12.126392
 0.880000   10.128513   -6.793202
 0.885000   10.111319   2.084680
 0.890000   10.149360   16.517286
 0.895000   10.276492   39.570283
 0.900000   10.545063   75.879494
 0.905000   11.035286   132.375112
 0.910000   11.868814   219.244246
 0.915000   13.227729   351.072531
 0.920000   15.379539   547.854249
 0.925000   18.706271   834.958679
 0.930000   23.729126   1239.894049
 0.935000   31.105212   1781.593579
 0.940000   41.545062   2445.668230
 0.945000   55.561894   3140.671008
 0.950000   72.951772   3646.496896
 0.955000   92.026863   3608.094149
 0.960000   109.032713   2670.619127
 0.965000   118.733054   785.056325
 0.970000   116.883277   -1543.566669
 0.975000   103.297388   -3446.734672
 0.980000   82.415930   -4290.148582
 0.985000   60.395902   -4074.684380
 0.990000   41.669086   -3259.311133
 0.995000   27.802791   -2328.598416
 1.000000   18.383102   -1439.277066
201 psinorm kpol(km/s/T) dkpol/dpsiN
 0.000000   -0.042744   173.664735
 0.005000   0.637003   98.234389
 0.010000   0.939599   55.836542
 0.015000   1.195369   49.295103
 0.020000   1.432551   46.061532
 0.025000   1.655984   43.285157
 0.030000   1.865402   40.227795
 0.035000   2.058262   37.564517
 0.040000   2.241047   35.231770
 0.045000   2.410580   32.916144
 0.050000   2.570209   30.967969
 0.055000   2.720259   29.483830
 0.060000   2.865047   28.489346
 0.065000   3.005153   27.733903
 0.070000   3.142386   27.185579
 0.075000   3.277009   26.703361
 0.080000   3.409420   26.334964
 0.085000   3.540358   25.863934
 0.090000   3.668059   25.458614
 0.095000   3.794945   24.958906
 0.100000   3.917648   24.228005
 0.105000   4.037225   23.601070
 0.110000   4.153659   23.249954
 0.115000   4.269724   23.208426
 0.120000   4.385743   23.482576
 0.125000   4.504550   23.995171
 0.130000   4.625695   24.672651
 0.135000   4.751276   25.462877
 0.140000   4.880323   26.239433
 0.145000   5.013671   27.039668
 0.150000   5.150720   27.670986
 0.155000   5.290381   27.907015
 0.160000   5.429790   27.801412
 0.165000   5.568395   27.249353
 0.170000   5.702284   26.354251
 0.175000   5.831937   25.111626
 0.180000   5.953400   23.251948
 0.185000   6.064457   21.093441
 0.190000   6.164335   18.655870
 0.195000   6.251015   16.202072
 0.200000   6.326355   13.635828
 0.205000   6.387374   10.904691
 0.210000   6.435402   8.568151
 0.215000   6.473055   6.405424
 0.220000   6.499456   4.401885
 0.225000   6.517074   2.411620
 0.230000   6.523573   0.201256
 0.235000   6.519087   -1.978361
 0.240000   6.503789   -4.197329
 0.245000   6.477113   -6.574093
 0.250000   6.438048   -8.893510
 0.255000   6.388178   -11.198823
 0.260000   6.326060   -13.395836
 0.265000   6.254220   -15.447677
 0.270000   6.171583   -17.549438
 0.275000   6.078725   -19.495244
 0.280000   5.976631   -21.429043
 0.285000   5.864435   -23.562969
 0.290000   5.741001   -25.689059
 0.295000   5.607544   -27.968094
 0.300000   5.461320   -30.644109
 0.305000   5.301103   -33.455039
 0.310000   5.126770   -36.515441
 0.315000   4.935949   -39.939047
 0.320000   4.727379   -43.601998
 0.325000   4.499929   -47.418084
 0.330000   4.253198   -50.992337
 0.335000   3.990006   -54.072046
 0.340000   3.712478   -56.727367
 0.345000   3.422732   -58.839756
 0.350000   3.124080   -60.260250
 0.355000   2.820129   -61.322889
 0.360000   2.510851   -62.365233
 0.365000   2.196477   -63.276393
 0.370000   1.878087   -64.192146
 0.375000   1.554556   -65.295026
 0.380000   1.225137   -66.688428
 0.385000   0.887671   -68.594324
 0.390000   0.539194   -70.798690
 0.395000   0.179684   -73.045216
 0.400000   -0.191258   -75.139706
 0.405000   -0.571713   -76.695136
 0.410000   -0.958210   -77.622255
 0.415000   -1.347935   -78.790708
 0.420000   -1.746117   -81.193761
 0.425000   -2.159873   -85.159893
 0.430000   -2.597716   -90.764784
 0.435000   -3.067521   -98.138043
 0.440000   -3.579096   -107.837749
 0.445000   -4.145898   -118.382754
 0.450000   -4.762924   -128.135385
 0.455000   -5.427252   -137.070256
 0.460000   -6.133626   -144.543002
 0.465000   -6.872682   -149.937502
 0.470000   -7.633001   -151.814157
 0.475000   -8.390824   -148.896948
 0.480000   -9.121971   -142.013933
 0.485000   -9.810963   -132.058732
 0.490000   -10.442558   -119.593042
 0.495000   -11.006893   -105.181210
 0.500000   -11.494370   -89.613028
 0.505000   -11.903024   -75.130778
 0.510000   -12.245678   -62.713390
 0.515000   -12.530157   -52.201151
 0.520000   -12.767689   -43.649281
 0.525000   -12.966650   -36.924896
 0.530000   -13.136938   -32.569747
 0.535000   -13.292348   -30.019200
 0.540000   -13.437130   -28.048845
 0.545000   -13.572836   -26.213414
 0.550000   -13.699264   -24.490599
 0.555000   -13.817742   -22.730028
 0.560000   -13.926565   -20.732146
 0.565000   -14.025064   -18.654856
 0.570000   -14.113113   -16.517108
 0.575000   -14.190235   -14.241887
 0.580000   -14.255532   -11.787226
 0.585000   -14.308107   -9.421947
 0.590000   -14.349752   -7.100918
 0.595000   -14.379116   -4.664900
 0.600000   -14.396401   -2.372969
 0.605000   -14.402846   -0.340412
 0.610000   -14.399805   1.677962
 0.615000   -14.386066   3.550381
 0.620000   -14.364301   5.161339
 0.625000   -14.334453   6.682026
 0.630000   -14.297481   8.127716
 0.635000   -14.253176   9.449074
 0.640000   -14.202990   10.602598
 0.645000   -14.147150   11.811746
 0.650000   -14.084872   12.986195
 0.655000   -14.017288   14.012319
 0.660000   -13.944749   14.943480
 0.665000   -13.867853   15.869804
 0.670000   -13.786051   16.724982
 0.675000   -13.700603   17.443918
 0.680000   -13.611612   18.169385
 0.685000   -13.518909   19.012186
 0.690000   -13.421490   19.982966
 0.695000   -13.319080   21.148244
 0.700000   -13.210008   22.675822
 0.705000   -13.092321   24.513739
 0.710000   -12.964870   26.317280
 0.715000   -12.829149   27.957013
 0.720000   -12.685300   29.430939
 0.725000   -12.534839   30.452623
 0.730000   -12.380774   30.973223
 0.735000   -12.225107   30.839030
 0.740000   -12.072384   29.762678
 0.745000   -11.927480   27.958451
 0.750000   -11.792799   25.525828
 0.755000   -11.672222   22.580347
 0.760000   -11.566996   19.306318
 0.765000   -11.479159   15.881269
 0.770000   -11.408183   12.639322
 0.775000   -11.352766   9.704299
 0.780000   -11.311140   7.113833
 0.785000   -11.281627   4.562088
 0.790000   -11.265519   1.792296
 0.795000   -11.263704   -1.583125
 0.800000   -11.281350   -6.096596
 0.805000   -11.324670   -12.047386
 0.810000   -11.401824   -19.610545
 0.815000   -11.520776   -28.764155
 0.820000   -11.689466   -39.398338
 0.825000   -11.914759   -50.827409
 0.830000   -12.197740   -62.257493
 0.835000   -12.537334   -73.206759
 0.840000   -12.929807   -83.215873
 0.845000   -13.369493   -91.559618
 0.850000   -13.845404   -97.216588
 0.855000   -14.341659   -100.058525
 0.860000   -14.845989   -100.575400
 0.865000   -15.347413   -99.214550
 0.870000   -15.838134   -96.454127
 0.875000   -16.311954   -92.763126
 0.880000   -16.765766   -88.753969
 0.885000   -17.199494   -84.782718
 0.890000   -17.613593   -80.544675
 0.895000   -18.004940   -75.394347
 0.900000   -18.367536   -68.561636
 0.905000   -18.690557   -59.524861
 0.910000   -18.962785   -46.931539
 0.915000   -19.159872   -28.449396
 0.920000   -19.247279   -0.371414
 0.925000   -19.163586   36.309580
 0.930000   -18.884183   80.388462
 0.935000   -18.359702   137.688001
 0.940000   -17.507303   214.784586
 0.945000   -16.211856   302.165545
 0.950000   -14.485648   382.720948
 0.955000   -12.384646   435.021860
 0.960000   -10.135429   418.985500
 0.965000   -8.194791   293.911212
 0.970000   -7.196317   47.198352
 0.975000   -7.722808   -222.477769
 0.980000   -9.421095   -272.625588
 0.985000   -10.449064   157.870828
 0.990000   -7.842386   1077.493851
 0.995000   0.325875   2016.783967
 1.000000   12.325453   2783.047413
201 psinorm omghb() domghb/dpsiN
 0.000000   -0.000058   -0.013503
 0.005000   -0.000188   -0.038350
 0.010000   -0.000441   -0.017315
 0.015000   -0.000361   0.031375
 0.020000   -0.000128   0.051842
 0.025000   0.000158   0.060997
 0.030000   0.000482   0.085639
 0.035000   0.001014   0.107000
 0.040000   0.001552   0.117220
 0.045000   0.002186   0.129871
 0.050000   0.002851   0.127326
 0.055000   0.003460   0.121035
 0.060000   0.004061   0.112537
 0.065000   0.004585   0.100882
 0.070000   0.005070   0.098605
 0.075000   0.005571   0.103723
 0.080000   0.006107   0.099287
 0.085000   0.006564   0.101475
 0.090000   0.007122   0.118292
 0.095000   0.007747   0.121261
 0.100000   0.008335   0.138165
 0.105000   0.009128   0.144433
 0.110000   0.009779   0.126883
 0.115000   0.010397   0.106609
 0.120000   0.010845   0.099780
 0.125000   0.011395   0.086507
 0.130000   0.011710   0.048530
 0.135000   0.011880   0.033570
 0.140000   0.012046   0.043438
 0.145000   0.012315   0.051272
 0.150000   0.012559   0.056179
 0.155000   0.012877   0.083371
 0.160000   0.013392   0.097621
 0.165000   0.013853   0.115293
 0.170000   0.014545   0.144617
 0.175000   0.015299   0.198790
 0.180000   0.016533   0.235488
 0.185000   0.017654   0.223397
 0.190000   0.018767   0.224342
 0.195000   0.019897   0.251470
 0.200000   0.021282   0.308907
 0.205000   0.022986   0.322030
 0.210000   0.024502   0.354133
 0.215000   0.026528   0.402721
 0.220000   0.028529   0.436175
 0.225000   0.030889   0.453365
 0.230000   0.033063   0.426676
 0.235000   0.035156   0.397093
 0.240000   0.037034   0.386806
 0.245000   0.039024   0.388368
 0.250000   0.040918   0.428905
 0.255000   0.043313   0.209073
 0.260000   0.043008   0.004298
 0.265000   0.043356   0.049474
 0.270000   0.043503   0.011814
 0.275000   0.043474   -0.011100
 0.280000   0.043392   0.000802
 0.285000   0.043482   -0.091577
 0.290000   0.042476   -0.082286
 0.295000   0.042660   0.048022
 0.300000   0.042957   0.075737
 0.305000   0.043417   0.149466
 0.310000   0.044451   0.111604
 0.315000   0.044533   0.426874
 0.320000   0.048720   0.770410
 0.325000   0.052237   0.718873
 0.330000   0.055909   0.715096
 0.335000   0.059388   0.666878
 0.340000   0.062578   0.579585
 0.345000   0.065184   0.604537
 0.350000   0.068623   0.567585
 0.355000   0.070860   0.434465
 0.360000   0.072968   0.359066
 0.365000   0.074450   0.308857
 0.370000   0.076056   0.405169
 0.375000   0.078502   0.354304
 0.380000   0.079599   0.175950
 0.385000   0.080262   0.153544
 0.390000   0.081135   0.183276
 0.395000   0.082094   0.188875
 0.400000   0.083023   0.087786
 0.405000   0.082972   0.041912
 0.410000   0.083442   0.260354
 0.415000   0.085576   0.542456
 0.420000   0.088867   0.979811
 0.425000   0.095374   1.578157
 0.430000   0.104649   1.971886
 0.435000   0.115093   2.302047
 0.440000   0.127669   2.647445
 0.445000   0.141567   2.817173
 0.450000   0.155841   3.091769
 0.455000   0.172485   2.981518
 0.460000   0.185656   2.366364
 0.465000   0.196148   1.796115
 0.470000   0.203617   1.164081
 0.475000   0.207789   0.463338
 0.480000   0.208250   -0.366962
 0.485000   0.204120   -1.182734
 0.490000   0.196423   -1.721850
 0.495000   0.186901   -2.047501
 0.500000   0.175948   -2.220558
 0.505000   0.164696   -2.172595
 0.510000   0.154222   -2.080238
 0.515000   0.143893   -1.712453
 0.520000   0.137098   -1.209001
 0.525000   0.131803   -0.924062
 0.530000   0.127857   -0.633377
 0.535000   0.125469   -0.451229
 0.540000   0.123345   -0.424990
 0.545000   0.121220   -0.412247
 0.550000   0.119222   -0.422857
 0.555000   0.116991   -0.464714
 0.560000   0.114575   -0.434423
 0.565000   0.112647   -0.380031
 0.570000   0.110775   -0.404369
 0.575000   0.108603   -0.409739
 0.580000   0.106677   -0.347196
 0.585000   0.105131   -0.310229
 0.590000   0.103575   -0.299147
 0.595000   0.102140   -0.282117
 0.600000   0.100754   -0.254363
 0.605000   0.099596   -0.250149
 0.610000   0.098252   -0.251612
 0.615000   0.097080   -0.180972
 0.620000   0.096443   -0.168799
 0.625000   0.095392   -0.193430
 0.630000   0.094508   -0.180822
 0.635000   0.093584   -0.156478
 0.640000   0.092944   -0.125609
 0.645000   0.092328   -0.060717
 0.650000   0.092337   -0.051579
 0.655000   0.091812   -0.022628
 0.660000   0.092110   0.108268
 0.665000   0.092894   0.268474
 0.670000   0.094795   0.560830
 0.675000   0.098503   1.241599
 0.680000   0.107211   1.474113
 0.685000   0.113244   1.009247
 0.690000   0.117303   0.804280
 0.695000   0.121287   0.627546
 0.700000   0.123579   0.314876
 0.705000   0.124435   0.432031
 0.710000   0.127899   -0.164928
 0.715000   0.122786   -1.269092
 0.720000   0.115208   -1.354536
 0.725000   0.109241   -1.311596
 0.730000   0.102092   -1.485330
 0.735000   0.094387   -1.699909
 0.740000   0.085093   -2.103434
 0.745000   0.073353   -1.980780
 0.750000   0.065285   -1.388528
 0.755000   0.059468   -0.836429
 0.760000   0.056921   -0.233349
 0.765000   0.057134   0.106785
 0.770000   0.057989   0.669247
 0.775000   0.063827   1.854221
 0.780000   0.076531   2.330436
 0.785000   0.087131   2.355692
 0.790000   0.100088   2.541060
 0.795000   0.112542   2.492300
 0.800000   0.125011   2.716148
 0.805000   0.139703   2.943975
 0.810000   0.154451   2.658947
 0.815000   0.166293   2.349286
 0.820000   0.177944   2.292019
 0.825000   0.189213   2.200271
 0.830000   0.199946   2.127653
 0.835000   0.210489   1.735193
 0.840000   0.217298   1.255110
 0.845000   0.223041   0.964598
 0.850000   0.226944   0.623543
 0.855000   0.229276   0.451788
 0.860000   0.231462   0.630255
 0.865000   0.235579   0.558552
 0.870000   0.237048   0.762057
 0.875000   0.243199   1.727574
 0.880000   0.254323   2.793347
 0.885000   0.271133   4.052074
 0.890000   0.294844   6.612243
 0.895000   0.337255   8.492547
 0.900000   0.379770   9.979531
 0.905000   0.437050   12.710750
 0.910000   0.506877   14.983412
 0.915000   0.586884   16.589577
 0.920000   0.672773   20.212913
 0.925000   0.789014   21.205861
 0.930000   0.884832   20.735087
 0.935000   0.996364   21.815531
 0.940000   1.102987   20.933145
 0.945000   1.205696   18.280862
 0.950000   1.285795   18.307718
 0.955000   1.388773   5.067604
 0.960000   1.336472   -15.102814
 0.965000   1.237745   -26.013076
 0.970000   1.076341   -46.220106
 0.975000   0.775544   -91.897439
 0.980000   0.157366   -176.640427
 0.985000   -0.990860   -275.956212
 0.990000   -2.602196   -296.596117
 0.995000   -3.956822   -156.434854
 1.000000   -4.166544   72.545774
201 psinorm nz1(10^20/m^3) dnz1/dpsiN
 0.000000   0.018710   -0.000000
 0.005000   0.018710   -0.000150
 0.010000   0.018709   -0.000301
 0.015000   0.018707   -0.000452
 0.020000   0.018704   -0.000605
 0.025000   0.018701   -0.000759
 0.030000   0.018697   -0.000914
 0.035000   0.018692   -0.001071
 0.040000   0.018686   -0.001228
 0.045000   0.018679   -0.001386
 0.050000   0.018672   -0.001545
 0.055000   0.018664   -0.001705
 0.060000   0.018655   -0.001866
 0.065000   0.018645   -0.002027
 0.070000   0.018635   -0.002188
 0.075000   0.018623   -0.002350
 0.080000   0.018611   -0.002511
 0.085000   0.018598   -0.002673
 0.090000   0.018585   -0.002835
 0.095000   0.018570   -0.002996
 0.100000   0.018555   -0.003156
 0.105000   0.018538   -0.003317
 0.110000   0.018521   -0.003478
 0.115000   0.018504   -0.003637
 0.120000   0.018485   -0.003796
 0.125000   0.018466   -0.003954
 0.130000   0.018446   -0.004111
 0.135000   0.018425   -0.004267
 0.140000   0.018403   -0.004420
 0.145000   0.018380   -0.004572
 0.150000   0.018357   -0.004720
 0.155000   0.018333   -0.004865
 0.160000   0.018308   -0.005005
 0.165000   0.018283   -0.005140
 0.170000   0.018257   -0.005268
 0.175000   0.018230   -0.005390
 0.180000   0.018203   -0.005504
 0.185000   0.018175   -0.005610
 0.190000   0.018147   -0.005707
 0.195000   0.018118   -0.005794
 0.200000   0.018089   -0.005871
 0.205000   0.018060   -0.005940
 0.210000   0.018030   -0.005998
 0.215000   0.018000   -0.006046
 0.220000   0.017969   -0.006086
 0.225000   0.017939   -0.006120
 0.230000   0.017908   -0.006153
 0.235000   0.017877   -0.006184
 0.240000   0.017846   -0.006211
 0.245000   0.017815   -0.006233
 0.250000   0.017784   -0.006249
 0.255000   0.017753   -0.006260
 0.260000   0.017721   -0.006259
 0.265000   0.017690   -0.006241
 0.270000   0.017659   -0.006205
 0.275000   0.017628   -0.006151
 0.280000   0.017597   -0.006077
 0.285000   0.017567   -0.005980
 0.290000   0.017538   -0.005857
 0.295000   0.017509   -0.005706
 0.300000   0.017481   -0.005531
 0.305000   0.017453   -0.005332
 0.310000   0.017427   -0.005112
 0.315000   0.017402   -0.004868
 0.320000   0.017379   -0.004607
 0.325000   0.017356   -0.004336
 0.330000   0.017335   -0.004058
 0.335000   0.017316   -0.003775
 0.340000   0.017297   -0.003491
 0.345000   0.017281   -0.003208
 0.350000   0.017265   -0.002927
 0.355000   0.017251   -0.002645
 0.360000   0.017239   -0.002358
 0.365000   0.017228   -0.002063
 0.370000   0.017218   -0.001757
 0.375000   0.017210   -0.001440
 0.380000   0.017204   -0.001109
 0.385000   0.017199   -0.000764
 0.390000   0.017196   -0.000410
 0.395000   0.017195   -0.000050
 0.400000   0.017196   0.000312
 0.405000   0.017198   0.000673
 0.410000   0.017202   0.001027
 0.415000   0.017208   0.001370
 0.420000   0.017216   0.001698
 0.425000   0.017225   0.002008
 0.430000   0.017236   0.002297
 0.435000   0.017248   0.002563
 0.440000   0.017262   0.002808
 0.445000   0.017277   0.003037
 0.450000   0.017292   0.003252
 0.455000   0.017309   0.003451
 0.460000   0.017327   0.003636
 0.465000   0.017345   0.003809
 0.470000   0.017365   0.003971
 0.475000   0.017385   0.004116
 0.480000   0.017406   0.004236
 0.485000   0.017427   0.004326
 0.490000   0.017449   0.004382
 0.495000   0.017471   0.004399
 0.500000   0.017493   0.004374
 0.505000   0.017515   0.004303
 0.510000   0.017536   0.004186
 0.515000   0.017557   0.004025
 0.520000   0.017577   0.003821
 0.525000   0.017595   0.003574
 0.530000   0.017612   0.003286
 0.535000   0.017628   0.002964
 0.540000   0.017642   0.002611
 0.545000   0.017654   0.002229
 0.550000   0.017664   0.001818
 0.555000   0.017672   0.001380
 0.560000   0.017678   0.000915
 0.565000   0.017681   0.000424
 0.570000   0.017682   -0.000096
 0.575000   0.017680   -0.000645
 0.580000   0.017676   -0.001226
 0.585000   0.017668   -0.001835
 0.590000   0.017657   -0.002472
 0.595000   0.017643   -0.003132
 0.600000   0.017626   -0.003812
 0.605000   0.017605   -0.004510
 0.610000   0.017581   -0.005223
 0.615000   0.017553   -0.005947
 0.620000   0.017522   -0.006681
 0.625000   0.017486   -0.007424
 0.630000   0.017447   -0.008176
 0.635000   0.017405   -0.008933
 0.640000   0.017358   -0.009696
 0.645000   0.017308   -0.010460
 0.650000   0.017253   -0.011227
 0.655000   0.017195   -0.011994
 0.660000   0.017133   -0.012755
 0.665000   0.017068   -0.013517
 0.670000   0.016998   -0.014304
 0.675000   0.016925   -0.015167
 0.680000   0.016847   -0.016241
 0.685000   0.016762   -0.017604
 0.690000   0.016671   -0.019198
 0.695000   0.016570   -0.020997
 0.700000   0.016461   -0.022991
 0.705000   0.016340   -0.025140
 0.710000   0.016209   -0.027489
 0.715000   0.016066   -0.029890
 0.720000   0.015910   -0.032069
 0.725000   0.015745   -0.033988
 0.730000   0.015570   -0.035621
 0.735000   0.015389   -0.036886
 0.740000   0.015202   -0.037713
 0.745000   0.015012   -0.037971
 0.750000   0.014822   -0.037614
 0.755000   0.014635   -0.036723
 0.760000   0.014455   -0.035367
 0.765000   0.014282   -0.033617
 0.770000   0.014118   -0.031500
 0.775000   0.013967   -0.029113
 0.780000   0.013827   -0.026739
 0.785000   0.013699   -0.024506
 0.790000   0.013582   -0.022392
 0.795000   0.013475   -0.020438
 0.800000   0.013378   -0.018656
 0.805000   0.013289   -0.017079
 0.810000   0.013207   -0.015738
 0.815000   0.013131   -0.014540
 0.820000   0.013062   -0.013376
 0.825000   0.012998   -0.012211
 0.830000   0.012940   -0.011032
 0.835000   0.012887   -0.009846
 0.840000   0.012841   -0.008682
 0.845000   0.012801   -0.007559
 0.850000   0.012766   -0.006480
 0.855000   0.012736   -0.005450
 0.860000   0.012711   -0.004474
 0.865000   0.012691   -0.003556
 0.870000   0.012675   -0.002703
 0.875000   0.012664   -0.001919
 0.880000   0.012656   -0.001192
 0.885000   0.012652   -0.000509
 0.890000   0.012651   0.000141
 0.895000   0.012653   0.000767
 0.900000   0.012659   0.001364
 0.905000   0.012667   0.001911
 0.910000   0.012678   0.002372
 0.915000   0.012691   0.002640
 0.920000   0.012704   0.002458
 0.925000   0.012715   0.001284
 0.930000   0.012717   -0.002009
 0.935000   0.012695   -0.009164
 0.940000   0.012626   -0.022526
 0.945000   0.012470   -0.044904
 0.950000   0.012177   -0.078649
 0.955000   0.011684   -0.125414
 0.960000   0.010922   -0.180462
 0.965000   0.009879   -0.231897
 0.970000   0.008603   -0.266677
 0.975000   0.007212   -0.274763
 0.980000   0.005856   -0.254859
 0.985000   0.004664   -0.215220
 0.990000   0.003704   -0.167955
 0.995000   0.002984   -0.123736
 1.000000   0.002466   -0.083391
201 psinorm vtor1(km/s) dvtor1/dpsiN
 0.000000   127.813957   618.641365
 0.005000   130.214222   341.464546
 0.010000   131.228602   178.593711
 0.015000   132.000159   140.927312
 0.020000   132.637875   118.957736
 0.025000   133.189736   104.688582
 0.030000   133.684761   94.349129
 0.035000   134.133227   85.449929
 0.040000   134.539260   77.878744
 0.045000   134.912015   71.629326
 0.050000   135.255554   66.002909
 0.055000   135.572044   60.716264
 0.060000   135.862716   55.950828
 0.065000   136.131552   51.797645
 0.070000   136.380693   47.926396
 0.075000   136.610816   44.298848
 0.080000   136.823681   41.017030
 0.085000   137.020986   37.964336
 0.090000   137.203325   34.920406
 0.095000   137.370190   31.983857
 0.100000   137.523163   29.224335
 0.105000   137.662434   26.390024
 0.110000   137.787063   23.505822
 0.115000   137.897492   20.689015
 0.120000   137.993954   17.873066
 0.125000   138.076223   14.971600
 0.130000   138.143670   12.029717
 0.135000   138.196520   9.073863
 0.140000   138.234408   6.049460
 0.145000   138.257014   2.945625
 0.150000   138.263864   -0.231611
 0.155000   138.254698   -3.480673
 0.160000   138.229058   -6.872206
 0.165000   138.185976   -10.365337
 0.170000   138.125404   -13.861794
 0.175000   138.047358   -17.386136
 0.180000   137.951543   -20.964658
 0.185000   137.837712   -24.535392
 0.190000   137.706189   -28.056534
 0.195000   137.557146   -31.494502
 0.200000   137.391244   -34.741170
 0.205000   137.209735   -37.738262
 0.210000   137.013861   -40.487331
 0.215000   136.804861   -42.994154
 0.220000   136.583920   -45.163556
 0.225000   136.353226   -46.867441
 0.230000   136.115245   -48.310470
 0.235000   135.870121   -49.622078
 0.240000   135.619025   -50.701259
 0.245000   135.363108   -51.582086
 0.250000   135.103204   -52.300528
 0.255000   134.840103   -52.735975
 0.260000   134.575844   -53.071885
 0.265000   134.309384   -53.484134
 0.270000   134.041003   -53.859073
 0.275000   133.770794   -54.228765
 0.280000   133.498715   -54.639105
 0.285000   133.224403   -55.158628
 0.290000   132.947129   -55.961739
 0.295000   132.664785   -57.091306
 0.300000   132.376216   -58.433383
 0.305000   132.080451   -59.930944
 0.310000   131.776906   -61.476228
 0.315000   131.465689   -62.993898
 0.320000   131.146967   -64.399059
 0.325000   130.821698   -65.634473
 0.330000   130.490623   -66.723726
 0.335000   130.154461   -67.670488
 0.340000   129.813918   -68.487565
 0.345000   129.469586   -69.104638
 0.350000   129.122871   -69.521177
 0.355000   128.774374   -69.821740
 0.360000   128.424654   -70.005320
 0.365000   128.074321   -70.071521
 0.370000   127.723939   -70.024734
 0.375000   127.374073   -69.821108
 0.380000   127.025728   -69.525210
 0.385000   126.678821   -69.230763
 0.390000   126.333420   -68.899509
 0.395000   125.989826   -68.515138
 0.400000   125.648269   -68.094123
 0.405000   125.308885   -67.622810
 0.410000   124.972041   -67.296126
 0.415000   124.635924   -67.513688
 0.420000   124.296904   -68.566039
 0.425000   123.950263   -70.614461
 0.430000   123.590759   -73.721081
 0.435000   123.213052   -78.244610
 0.440000   122.808313   -84.154320
 0.445000   122.371509   -90.614092
 0.450000   121.902172   -97.337714
 0.455000   121.398132   -104.422920
 0.460000   120.857943   -111.703807
 0.465000   120.281094   -119.366997
 0.470000   119.664273   -127.166414
 0.475000   119.009430   -133.976964
 0.480000   118.324503   -139.571178
 0.485000   117.613718   -144.250697
 0.490000   116.881996   -147.882410
 0.495000   116.134894   -150.390843
 0.500000   115.378088   -151.579913
 0.505000   114.619095   -151.434566
 0.510000   113.863742   -150.422607
 0.515000   113.114869   -148.909646
 0.520000   112.374646   -147.007124
 0.525000   111.644798   -144.733641
 0.530000   110.927309   -142.044517
 0.535000   110.224352   -139.143688
 0.540000   109.535872   -136.196609
 0.545000   108.862386   -133.188424
 0.550000   108.203988   -130.193495
 0.555000   107.560451   -127.244701
 0.560000   106.931541   -124.323637
 0.565000   106.317215   -121.664850
 0.570000   105.714893   -119.406650
 0.575000   105.123148   -117.454186
 0.580000   104.540351   -115.840521
 0.585000   103.964743   -114.587217
 0.590000   103.394479   -113.715388
 0.595000   102.827589   -113.104246
 0.600000   102.263436   -112.580440
 0.605000   101.701785   -112.111688
 0.610000   101.142319   -111.699376
 0.615000   100.584791   -111.352115
 0.620000   100.028798   -111.000138
 0.625000   99.474790   -110.728563
 0.630000   98.921512   -110.667200
 0.635000   98.368118   -110.779803
 0.640000   97.813714   -111.076749
 0.645000   97.257350   -111.577978
 0.650000   96.697935   -112.231674
 0.655000   96.135034   -113.193786
 0.660000   95.565997   -114.646216
 0.665000   94.988571   -116.537009
 0.670000   94.400627   -118.871923
 0.675000   93.799852   -121.666685
 0.680000   93.183960   -124.927983
 0.685000   92.550572   -128.289062
 0.690000   91.901069   -131.213384
 0.695000   91.238438   -133.526347
 0.700000   90.565806   -135.225192
 0.705000   89.886187   -136.376379
 0.710000   89.202042   -136.978486
 0.715000   88.516402   -137.352628
 0.720000   87.828516   -137.932512
 0.725000   87.137077   -138.698091
 0.730000   86.441535   -139.596050
 0.735000   85.741116   -140.675925
 0.740000   85.034776   -141.978905
 0.745000   84.321327   -143.693536
 0.750000   83.597840   -146.090646
 0.755000   82.860421   -149.426859
 0.760000   82.103572   -154.009886
 0.765000   81.320322   -160.055716
 0.770000   80.503014   -168.034303
 0.775000   79.639979   -177.856442
 0.780000   78.724450   -187.764322
 0.785000   77.762335   -196.806548
 0.790000   76.756385   -205.114763
 0.795000   75.711188   -212.340070
 0.800000   74.632984   -218.390246
 0.805000   73.527285   -222.986819
 0.810000   72.403116   -225.219450
 0.815000   71.275091   -225.270893
 0.820000   70.150407   -224.003145
 0.825000   69.035059   -221.613500
 0.830000   67.934272   -218.317594
 0.835000   66.851883   -214.328693
 0.840000   65.790985   -209.163506
 0.845000   64.760248   -202.873192
 0.850000   63.762253   -196.442868
 0.855000   62.795820   -190.673623
 0.860000   61.855517   -186.565046
 0.865000   60.930169   -185.792283
 0.870000   59.997594   -188.564034
 0.875000   59.044529   -194.963954
 0.880000   58.047954   -206.677163
 0.885000   56.977757   -225.304652
 0.890000   55.794908   -252.780125
 0.895000   54.449956   -292.669229
 0.900000   52.868215   -345.345822
 0.905000   50.996498   -410.229966
 0.910000   48.765916   -488.283813
 0.915000   46.113660   -577.211082
 0.920000   42.993805   -672.403588
 0.925000   39.389624   -767.955717
 0.930000   35.314248   -851.953186
 0.935000   30.870092   -911.262801
 0.940000   26.201620   -937.118388
 0.945000   21.498908   -922.380628
 0.950000   16.977813   -864.767172
 0.955000   12.851236   -765.555489
 0.960000   9.322259   -635.801446
 0.965000   6.493222   -492.215333
 0.970000   4.400105   -347.610396
 0.975000   3.017118   -213.481214
 0.980000   2.265293   -98.573918
 0.985000   2.031379   -8.108208
 0.990000   2.184211   56.360916
 0.995000   2.594988   97.317186
 1.000000   3.157383   127.640810
201 psinorm vpol1(km/s) dvpol1/dpsiN
 0.000000   -0.000234   5.796875
 0.005000   0.030062   6.321875
 0.010000   0.062984   6.814063
 0.015000   0.098203   7.265625
 0.020000   0.135641   7.662500
 0.025000   0.174828   7.964063
 0.030000   0.215281   8.123438
 0.035000   0.256063   8.204687
 0.040000   0.297328   8.235937
 0.045000   0.338422   8.215625
 0.050000   0.379484   8.185937
 0.055000   0.420281   8.173438
 0.060000   0.461219   8.204688
 0.065000   0.502328   8.257812
 0.070000   0.543797   8.325000
 0.075000   0.585578   8.385938
 0.080000   0.627656   8.456250
 0.085000   0.670141   8.507813
 0.090000   0.712734   8.543750
 0.095000   0.755578   8.551562
 0.100000   0.798250   8.515625
 0.105000   0.840734   8.476562
 0.110000   0.883016   8.487500
 0.115000   0.925609   8.559375
 0.120000   0.968609   8.701562
 0.125000   1.012625   8.892187
 0.130000   1.057531   9.123437
 0.135000   1.103859   9.390625
 0.140000   1.151438   9.654688
 0.145000   1.200406   9.934375
 0.150000   1.250781   10.168750
 0.155000   1.302094   10.320312
 0.160000   1.353984   10.368750
 0.165000   1.405781   10.301562
 0.170000   1.457000   10.151562
 0.175000   1.507297   9.884375
 0.180000   1.555844   9.459375
 0.185000   1.601891   8.915625
 0.190000   1.645000   8.301562
 0.195000   1.684906   7.640625
 0.200000   1.721406   6.923438
 0.205000   1.754141   6.175000
 0.210000   1.783156   5.484375
 0.215000   1.808984   4.850000
 0.220000   1.831656   4.229687
 0.225000   1.851281   3.592188
 0.230000   1.867578   2.918750
 0.235000   1.880469   2.200000
 0.240000   1.889578   1.471875
 0.245000   1.895188   0.704688
 0.250000   1.896625   -0.089063
 0.255000   1.894297   -0.859375
 0.260000   1.888031   -1.620312
 0.265000   1.878094   -2.362500
 0.270000   1.864406   -3.085938
 0.275000   1.847234   -3.806250
 0.280000   1.826344   -4.532813
 0.285000   1.801906   -5.282813
 0.290000   1.773516   -6.081250
 0.295000   1.741094   -6.929687
 0.300000   1.704219   -7.870313
 0.305000   1.662391   -8.901562
 0.310000   1.615203   -10.014062
 0.315000   1.562250   -11.220313
 0.320000   1.503000   -12.546875
 0.325000   1.436781   -13.926562
 0.330000   1.363734   -15.212500
 0.335000   1.284656   -16.376562
 0.340000   1.199969   -17.406250
 0.345000   1.110594   -18.240625
 0.350000   1.017562   -18.875000
 0.355000   0.921844   -19.390625
 0.360000   0.823656   -19.878125
 0.365000   0.723063   -20.337500
 0.370000   0.620281   -20.796875
 0.375000   0.515094   -21.303125
 0.380000   0.407250   -21.912500
 0.385000   0.295969   -22.693750
 0.390000   0.180313   -23.570312
 0.395000   0.060266   -24.464062
 0.400000   -0.064328   -25.307812
 0.405000   -0.192812   -25.970312
 0.410000   -0.324031   -26.420312
 0.415000   -0.457016   -26.945313
 0.420000   -0.593484   -27.890625
 0.425000   -0.735922   -29.378125
 0.430000   -0.887266   -31.417187
 0.435000   -1.050094   -34.070312
 0.440000   -1.227969   -37.551562
 0.445000   -1.425609   -41.325000
 0.450000   -1.641219   -44.834375
 0.455000   -1.873953   -48.093750
 0.460000   -2.122156   -50.857812
 0.465000   -2.382531   -52.885937
 0.470000   -2.651016   -53.706250
 0.475000   -2.919594   -52.881250
 0.480000   -3.179828   -50.617188
 0.485000   -3.425766   -47.257812
 0.490000   -3.652406   -43.043750
 0.495000   -3.856203   -38.095312
 0.500000   -4.033359   -32.687500
 0.505000   -4.183078   -27.662500
 0.510000   -4.309984   -23.359375
 0.515000   -4.416672   -19.656250
 0.520000   -4.506547   -16.632812
 0.525000   -4.583000   -14.293750
 0.530000   -4.649484   -12.748437
 0.535000   -4.710484   -11.814062
 0.540000   -4.767625   -11.117188
 0.545000   -4.821656   -10.479687
 0.550000   -4.872422   -9.831250
 0.555000   -4.919969   -9.173438
 0.560000   -4.964156   -8.476563
 0.565000   -5.004734   -7.717187
 0.570000   -5.041328   -6.912500
 0.575000   -5.073859   -6.087500
 0.580000   -5.102203   -5.214063
 0.585000   -5.126000   -4.323438
 0.590000   -5.145437   -3.448438
 0.595000   -5.160484   -2.576562
 0.600000   -5.171203   -1.732812
 0.605000   -5.177812   -0.956250
 0.610000   -5.180766   -0.204688
 0.615000   -5.179859   0.471875
 0.620000   -5.176047   1.092188
 0.625000   -5.168938   1.685937
 0.630000   -5.159187   2.217188
 0.635000   -5.146766   2.709375
 0.640000   -5.132094   3.168750
 0.645000   -5.115078   3.639063
 0.650000   -5.095703   4.070313
 0.655000   -5.074375   4.468750
 0.660000   -5.051016   4.845312
 0.665000   -5.025922   5.200000
 0.670000   -4.999016   5.517188
 0.675000   -4.970750   5.812500
 0.680000   -4.940891   6.110937
 0.685000   -4.909641   6.425000
 0.690000   -4.876641   6.792187
 0.695000   -4.841719   7.246875
 0.700000   -4.804172   7.826563
 0.705000   -4.763453   8.503125
 0.710000   -4.719141   9.179688
 0.715000   -4.671656   9.804688
 0.720000   -4.621094   10.357812
 0.725000   -4.568078   10.739062
 0.730000   -4.513703   10.951563
 0.735000   -4.458563   10.926562
 0.740000   -4.404438   10.543750
 0.745000   -4.353125   9.895312
 0.750000   -4.305484   9.026563
 0.755000   -4.262859   7.967188
 0.760000   -4.225812   6.776562
 0.765000   -4.195094   5.534375
 0.770000   -4.170469   4.364062
 0.775000   -4.151453   3.300000
 0.780000   -4.137469   2.354688
 0.785000   -4.127906   1.431250
 0.790000   -4.123156   0.431250
 0.795000   -4.123594   -0.800000
 0.800000   -4.131156   -2.453125
 0.805000   -4.148125   -4.618750
 0.810000   -4.177344   -7.375000
 0.815000   -4.221875   -10.731250
 0.820000   -4.284656   -14.631250
 0.825000   -4.368188   -18.803125
 0.830000   -4.472688   -22.979688
 0.835000   -4.597984   -27.003125
 0.840000   -4.742719   -30.673437
 0.845000   -4.904719   -33.710937
 0.850000   -5.079828   -35.771875
 0.855000   -5.262437   -36.821875
 0.860000   -5.448047   -37.003125
 0.865000   -5.632469   -36.478125
 0.870000   -5.812828   -35.453125
 0.875000   -5.987000   -34.101562
 0.880000   -6.153844   -32.625000
 0.885000   -6.313250   -31.157812
 0.890000   -6.465422   -29.600000
 0.895000   -6.609250   -27.710937
 0.900000   -6.742531   -25.293750
 0.905000   -6.862188   -22.087500
 0.910000   -6.963406   -17.487500
 0.915000   -7.037063   -10.704687
 0.920000   -7.070453   -1.181250
 0.925000   -7.048875   11.521875
 0.930000   -6.955234   27.795312
 0.935000   -6.770922   48.809375
 0.940000   -6.467141   75.790625
 0.945000   -6.013016   107.265625
 0.950000   -5.394484   138.248437
 0.955000   -4.630531   158.989063
 0.960000   -3.804594   154.226563
 0.965000   -3.088266   108.203125
 0.970000   -2.722562   15.521094
 0.975000   -2.933055   -86.692187
 0.980000   -3.589484   -104.989062
 0.985000   -3.982945   59.879687
 0.990000   -2.990687   410.727344
 0.995000   0.124328   769.370312
 1.000000   4.703016   1062.104687
3 N Z A of ION SPECIES
 6.000000   6.000000   12.010700
 1.000000   1.000000   2.000000
 1.000000   1.000000   2.000000
