201 psinorm ne(10^20/m^3) dne/dpsiN
 0.000000   0.487089   -0.434509
 0.005000   0.484925   -0.431371
 0.010000   0.482776   -0.428246
 0.015000   0.480642   -0.425145
 0.020000   0.478524   -0.422068
 0.025000   0.476422   -0.419015
 0.030000   0.474334   -0.415986
 0.035000   0.472262   -0.412981
 0.040000   0.470204   -0.410000
 0.045000   0.468162   -0.407042
 0.050000   0.466134   -0.404106
 0.055000   0.464121   -0.401194
 0.060000   0.462122   -0.398304
 0.065000   0.460138   -0.395437
 0.070000   0.458168   -0.392592
 0.075000   0.456212   -0.389768
 0.080000   0.454270   -0.386967
 0.085000   0.452342   -0.384187
 0.090000   0.450428   -0.381429
 0.095000   0.448528   -0.378692
 0.100000   0.446641   -0.375976
 0.105000   0.444768   -0.373281
 0.110000   0.442908   -0.370606
 0.115000   0.441062   -0.367952
 0.120000   0.439229   -0.365318
 0.125000   0.437409   -0.362705
 0.130000   0.435602   -0.360111
 0.135000   0.433808   -0.357537
 0.140000   0.432026   -0.354982
 0.145000   0.430258   -0.352447
 0.150000   0.428502   -0.349931
 0.155000   0.426758   -0.347435
 0.160000   0.425028   -0.344957
 0.165000   0.423309   -0.342497
 0.170000   0.421603   -0.340056
 0.175000   0.419908   -0.337634
 0.180000   0.418226   -0.335230
 0.185000   0.416556   -0.332844
 0.190000   0.414898   -0.330475
 0.195000   0.413251   -0.328125
 0.200000   0.411617   -0.325792
 0.205000   0.409993   -0.323476
 0.210000   0.408382   -0.321177
 0.215000   0.406782   -0.318896
 0.220000   0.405193   -0.316632
 0.225000   0.403615   -0.314384
 0.230000   0.402049   -0.312153
 0.235000   0.400494   -0.309938
 0.240000   0.398950   -0.307740
 0.245000   0.397416   -0.305558
 0.250000   0.395894   -0.303392
 0.255000   0.394382   -0.301242
 0.260000   0.392882   -0.299108
 0.265000   0.391391   -0.296989
 0.270000   0.389912   -0.294886
 0.275000   0.388443   -0.292798
 0.280000   0.386984   -0.290725
 0.285000   0.385535   -0.288667
 0.290000   0.384097   -0.286625
 0.295000   0.382669   -0.284597
 0.300000   0.381251   -0.282583
 0.305000   0.379843   -0.280585
 0.310000   0.378445   -0.278600
 0.315000   0.377057   -0.276630
 0.320000   0.375679   -0.274675
 0.325000   0.374310   -0.272733
 0.330000   0.372952   -0.270805
 0.335000   0.371602   -0.268891
 0.340000   0.370263   -0.266990
 0.345000   0.368932   -0.265103
 0.350000   0.367612   -0.263230
 0.355000   0.366300   -0.261370
 0.360000   0.364998   -0.259523
 0.365000   0.363705   -0.257689
 0.370000   0.362421   -0.255868
 0.375000   0.361146   -0.254059
 0.380000   0.359880   -0.252264
 0.385000   0.358624   -0.250481
 0.390000   0.357376   -0.248711
 0.395000   0.356137   -0.246953
 0.400000   0.354906   -0.245207
 0.405000   0.353684   -0.243474
 0.410000   0.352471   -0.241753
 0.415000   0.351267   -0.240043
 0.420000   0.350071   -0.238346
 0.425000   0.348883   -0.236660
 0.430000   0.347704   -0.234986
 0.435000   0.346534   -0.233323
 0.440000   0.345371   -0.231672
 0.445000   0.344217   -0.230032
 0.450000   0.343071   -0.228403
 0.455000   0.341933   -0.226786
 0.460000   0.340803   -0.225179
 0.465000   0.339681   -0.223584
 0.470000   0.338567   -0.221999
 0.475000   0.337461   -0.220426
 0.480000   0.336363   -0.218862
 0.485000   0.335272   -0.217310
 0.490000   0.334190   -0.215768
 0.495000   0.333115   -0.214236
 0.500000   0.332047   -0.212715
 0.505000   0.330988   -0.211203
 0.510000   0.329935   -0.209702
 0.515000   0.328891   -0.208211
 0.520000   0.327853   -0.206730
 0.525000   0.326823   -0.205259
 0.530000   0.325801   -0.203797
 0.535000   0.324785   -0.202345
 0.540000   0.323777   -0.200903
 0.545000   0.322776   -0.199470
 0.550000   0.321783   -0.198047
 0.555000   0.320796   -0.196633
 0.560000   0.319816   -0.195229
 0.565000   0.318844   -0.193833
 0.570000   0.317878   -0.192447
 0.575000   0.316919   -0.191069
 0.580000   0.315967   -0.189701
 0.585000   0.315022   -0.188341
 0.590000   0.314084   -0.186990
 0.595000   0.313152   -0.185648
 0.600000   0.312227   -0.184315
 0.605000   0.311309   -0.182990
 0.610000   0.310397   -0.181674
 0.615000   0.309492   -0.180366
 0.620000   0.308594   -0.179066
 0.625000   0.307702   -0.177775
 0.630000   0.306816   -0.176491
 0.635000   0.305937   -0.175216
 0.640000   0.305064   -0.173949
 0.645000   0.304197   -0.172690
 0.650000   0.303337   -0.171439
 0.655000   0.302483   -0.170196
 0.660000   0.301635   -0.168960
 0.665000   0.300793   -0.167732
 0.670000   0.299958   -0.166512
 0.675000   0.299128   -0.165299
 0.680000   0.298305   -0.164094
 0.685000   0.297487   -0.162896
 0.690000   0.296676   -0.161706
 0.695000   0.295870   -0.160523
 0.700000   0.295070   -0.159347
 0.705000   0.294277   -0.158178
 0.710000   0.293489   -0.157016
 0.715000   0.292706   -0.155861
 0.720000   0.291930   -0.154713
 0.725000   0.291159   -0.153572
 0.730000   0.290394   -0.152438
 0.735000   0.289635   -0.151309
 0.740000   0.288881   -0.150188
 0.745000   0.288133   -0.149072
 0.750000   0.287391   -0.147962
 0.755000   0.286653   -0.146857
 0.760000   0.285922   -0.145757
 0.765000   0.285196   -0.144661
 0.770000   0.284475   -0.143567
 0.775000   0.283760   -0.142476
 0.780000   0.283051   -0.141383
 0.785000   0.282346   -0.140288
 0.790000   0.281648   -0.139185
 0.795000   0.280955   -0.138071
 0.800000   0.280267   -0.136938
 0.805000   0.279585   -0.135776
 0.810000   0.278909   -0.134573
 0.815000   0.278239   -0.133310
 0.820000   0.277576   -0.131965
 0.825000   0.276920   -0.130503
 0.830000   0.276271   -0.128881
 0.835000   0.275631   -0.127041
 0.840000   0.275001   -0.124905
 0.845000   0.274382   -0.122370
 0.850000   0.273777   -0.119303
 0.855000   0.273189   -0.115532
 0.860000   0.272622   -0.110839
 0.865000   0.272081   -0.104956
 0.870000   0.271572   -0.097560
 0.875000   0.271105   -0.088284
 0.880000   0.270689   -0.076740
 0.885000   0.270338   -0.062583
 0.890000   0.270063   -0.045628
 0.895000   0.269881   -0.026078
 0.900000   0.269803   -0.004917
 0.905000   0.269832   0.015418
 0.910000   0.269957   0.029977
 0.915000   0.270132   0.029692
 0.920000   0.270254   -0.000751
 0.925000   0.270124   -0.085163
 0.930000   0.269402   -0.256749
 0.935000   0.267557   -0.554436
 0.940000   0.263858   -1.009861
 0.945000   0.257458   -1.622467
 0.950000   0.247633   -2.331315
 0.955000   0.234145   -3.008906
 0.960000   0.217544   -3.501888
 0.965000   0.199126   -3.705243
 0.970000   0.180492   -3.613449
 0.975000   0.162992   -3.307331
 0.980000   0.147418   -2.897340
 0.985000   0.134018   -2.473790
 0.990000   0.122680   -2.088931
 0.995000   0.113129   -1.762806
 1.000000   0.105052   -1.467849
201 psinorm te(KeV) dte/dpsiN
 0.000000   4.094845   -3.278164
 0.005000   4.078414   -3.294139
 0.010000   4.061903   -3.309963
 0.015000   4.045314   -3.325486
 0.020000   4.028648   -3.340707
 0.025000   4.011907   -3.355625
 0.030000   3.995092   -3.370241
 0.035000   3.978205   -3.384554
 0.040000   3.961247   -3.398564
 0.045000   3.944219   -3.412270
 0.050000   3.927124   -3.425673
 0.055000   3.909962   -3.438772
 0.060000   3.892736   -3.451567
 0.065000   3.875447   -3.464059
 0.070000   3.858096   -3.476246
 0.075000   3.840684   -3.488130
 0.080000   3.823214   -3.499710
 0.085000   3.805687   -3.510987
 0.090000   3.788104   -3.521960
 0.095000   3.770467   -3.532630
 0.100000   3.752778   -3.542997
 0.105000   3.735038   -3.553062
 0.110000   3.717247   -3.562824
 0.115000   3.699409   -3.572285
 0.120000   3.681525   -3.581444
 0.125000   3.663595   -3.590302
 0.130000   3.645622   -3.598860
 0.135000   3.627606   -3.607118
 0.140000   3.609550   -3.615077
 0.145000   3.591455   -3.622737
 0.150000   3.573323   -3.630099
 0.155000   3.555154   -3.637164
 0.160000   3.536951   -3.643932
 0.165000   3.518715   -3.650405
 0.170000   3.500447   -3.656583
 0.175000   3.482149   -3.662467
 0.180000   3.463823   -3.668058
 0.185000   3.445469   -3.673356
 0.190000   3.427089   -3.678364
 0.195000   3.408685   -3.683081
 0.200000   3.390258   -3.687509
 0.205000   3.371810   -3.691649
 0.210000   3.353342   -3.695503
 0.215000   3.334855   -3.699070
 0.220000   3.316351   -3.702353
 0.225000   3.297831   -3.705353
 0.230000   3.279298   -3.708071
 0.235000   3.260751   -3.710508
 0.240000   3.242192   -3.712665
 0.245000   3.223624   -3.714544
 0.250000   3.205047   -3.716147
 0.255000   3.186463   -3.717474
 0.260000   3.167872   -3.718528
 0.265000   3.149277   -3.719309
 0.270000   3.130679   -3.719820
 0.275000   3.112079   -3.720061
 0.280000   3.093479   -3.720034
 0.285000   3.074879   -3.719742
 0.290000   3.056281   -3.719185
 0.295000   3.037687   -3.718365
 0.300000   3.019098   -3.717284
 0.305000   3.000514   -3.715944
 0.310000   2.981938   -3.714346
 0.315000   2.963371   -3.712492
 0.320000   2.944813   -3.710384
 0.325000   2.926267   -3.708023
 0.330000   2.907733   -3.705412
 0.335000   2.889213   -3.702553
 0.340000   2.870707   -3.699447
 0.345000   2.852218   -3.696096
 0.350000   2.833746   -3.692503
 0.355000   2.815293   -3.688668
 0.360000   2.796860   -3.684595
 0.365000   2.778447   -3.680284
 0.370000   2.760057   -3.675739
 0.375000   2.741690   -3.670961
 0.380000   2.723347   -3.665953
 0.385000   2.705030   -3.660715
 0.390000   2.686740   -3.655251
 0.395000   2.668478   -3.649562
 0.400000   2.650245   -3.643652
 0.405000   2.632041   -3.637521
 0.410000   2.613869   -3.631172
 0.415000   2.595730   -3.624607
 0.420000   2.577623   -3.617828
 0.425000   2.559551   -3.610838
 0.430000   2.541515   -3.603639
 0.435000   2.523515   -3.596233
 0.440000   2.505553   -3.588623
 0.445000   2.487629   -3.580810
 0.450000   2.469744   -3.572796
 0.455000   2.451901   -3.564585
 0.460000   2.434099   -3.556179
 0.465000   2.416339   -3.547579
 0.470000   2.398623   -3.538789
 0.475000   2.380951   -3.529810
 0.480000   2.363325   -3.520645
 0.485000   2.345745   -3.511296
 0.490000   2.328212   -3.501766
 0.495000   2.310727   -3.492056
 0.500000   2.293291   -3.482170
 0.505000   2.275905   -3.472110
 0.510000   2.258570   -3.461878
 0.515000   2.241286   -3.451476
 0.520000   2.224055   -3.440908
 0.525000   2.206877   -3.430174
 0.530000   2.189754   -3.419279
 0.535000   2.172685   -3.408224
 0.540000   2.155671   -3.397011
 0.545000   2.138715   -3.385644
 0.550000   2.121815   -3.374124
 0.555000   2.104973   -3.362454
 0.560000   2.088190   -3.350636
 0.565000   2.071467   -3.338673
 0.570000   2.054804   -3.326568
 0.575000   2.038201   -3.314322
 0.580000   2.021660   -3.301939
 0.585000   2.005182   -3.289420
 0.590000   1.988766   -3.276768
 0.595000   1.972414   -3.263986
 0.600000   1.956126   -3.251076
 0.605000   1.939903   -3.238040
 0.610000   1.923746   -3.224881
 0.615000   1.907655   -3.211602
 0.620000   1.891630   -3.198204
 0.625000   1.875673   -3.184690
 0.630000   1.859783   -3.171063
 0.635000   1.843962   -3.157325
 0.640000   1.828210   -3.143478
 0.645000   1.812527   -3.129525
 0.650000   1.796915   -3.115468
 0.655000   1.781372   -3.101310
 0.660000   1.765901   -3.087053
 0.665000   1.750502   -3.072700
 0.670000   1.735174   -3.058252
 0.675000   1.719919   -3.043712
 0.680000   1.704737   -3.029083
 0.685000   1.689629   -3.014367
 0.690000   1.674594   -2.999566
 0.695000   1.659633   -2.984683
 0.700000   1.644747   -2.969720
 0.705000   1.629936   -2.954679
 0.710000   1.615200   -2.939562
 0.715000   1.600540   -2.924372
 0.720000   1.585956   -2.909112
 0.725000   1.571449   -2.893783
 0.730000   1.557018   -2.878387
 0.735000   1.542665   -2.862928
 0.740000   1.528389   -2.847407
 0.745000   1.514191   -2.831826
 0.750000   1.500071   -2.816188
 0.755000   1.486029   -2.800495
 0.760000   1.472066   -2.784749
 0.765000   1.458182   -2.768952
 0.770000   1.444376   -2.753106
 0.775000   1.430651   -2.737214
 0.780000   1.417004   -2.721278
 0.785000   1.403438   -2.705300
 0.790000   1.389951   -2.689282
 0.795000   1.376545   -2.673225
 0.800000   1.363219   -2.657133
 0.805000   1.349974   -2.641007
 0.810000   1.336809   -2.624849
 0.815000   1.323725   -2.608661
 0.820000   1.310722   -2.592444
 0.825000   1.297801   -2.576201
 0.830000   1.284960   -2.559933
 0.835000   1.272201   -2.543641
 0.840000   1.259524   -2.527324
 0.845000   1.246928   -2.510984
 0.850000   1.234414   -2.494619
 0.855000   1.221982   -2.478226
 0.860000   1.209632   -2.461800
 0.865000   1.197364   -2.445334
 0.870000   1.185179   -2.428817
 0.875000   1.173076   -2.412237
 0.880000   1.161056   -2.395585
 0.885000   1.149120   -2.378865
 0.890000   1.137268   -2.362115
 0.895000   1.125499   -2.345465
 0.900000   1.113813   -2.329245
 0.905000   1.102206   -2.314209
 0.910000   1.090671   -2.301984
 0.915000   1.079187   -2.295932
 0.920000   1.067711   -2.302832
 0.925000   1.056158   -2.336049
 0.930000   1.044351   -2.421471
 0.935000   1.031944   -2.608353
 0.940000   1.018267   -2.988419
 0.945000   1.002059   -3.727214
 0.950000   0.980995   -5.108030
 0.955000   0.950979   -7.568713
 0.960000   0.905308   -11.648508
 0.965000   0.834494   -17.640787
 0.970000   0.728900   -24.742021
 0.975000   0.587074   -30.222836
 0.980000   0.426672   -30.556011
 0.985000   0.281514   -24.961337
 0.990000   0.177059   -16.740639
 0.995000   0.114107   -9.759552
 1.000000   0.079463   -4.098120
201 psinorm ni(10^20/m^3) dni/dpsiN
 0.000000   0.294122   -0.553433
 0.005000   0.291637   -0.440397
 0.010000   0.289718   -0.348023
 0.015000   0.288157   -0.283445
 0.020000   0.286883   -0.229860
 0.025000   0.285858   -0.182796
 0.030000   0.285056   -0.142059
 0.035000   0.284438   -0.107837
 0.040000   0.283977   -0.078906
 0.045000   0.283649   -0.054358
 0.050000   0.283434   -0.033753
 0.055000   0.283311   -0.017162
 0.060000   0.283262   -0.003483
 0.065000   0.283276   0.007473
 0.070000   0.283337   0.015669
 0.075000   0.283433   0.021810
 0.080000   0.283555   0.025909
 0.085000   0.283692   0.028215
 0.090000   0.283837   0.029063
 0.095000   0.283983   0.028722
 0.100000   0.284124   0.026832
 0.105000   0.284251   0.023748
 0.110000   0.284362   0.020123
 0.115000   0.284452   0.015809
 0.120000   0.284520   0.010845
 0.125000   0.284561   0.005332
 0.130000   0.284573   -0.000653
 0.135000   0.284554   -0.006979
 0.140000   0.284503   -0.013865
 0.145000   0.284416   -0.020977
 0.150000   0.284293   -0.027877
 0.155000   0.284137   -0.034746
 0.160000   0.283946   -0.041627
 0.165000   0.283721   -0.048478
 0.170000   0.283461   -0.055239
 0.175000   0.283168   -0.061932
 0.180000   0.282842   -0.068564
 0.185000   0.282483   -0.074992
 0.190000   0.282092   -0.081197
 0.195000   0.281671   -0.087219
 0.200000   0.281220   -0.093011
 0.205000   0.280741   -0.098572
 0.210000   0.280234   -0.103896
 0.215000   0.279702   -0.108978
 0.220000   0.279144   -0.113836
 0.225000   0.278563   -0.118496
 0.230000   0.277959   -0.123039
 0.235000   0.277333   -0.127653
 0.240000   0.276683   -0.131821
 0.245000   0.276015   -0.135316
 0.250000   0.275330   -0.138556
 0.255000   0.274629   -0.141538
 0.260000   0.273914   -0.144306
 0.265000   0.273186   -0.147197
 0.270000   0.272442   -0.150076
 0.275000   0.271685   -0.152463
 0.280000   0.270918   -0.154539
 0.285000   0.270140   -0.156540
 0.290000   0.269352   -0.158513
 0.295000   0.268555   -0.160804
 0.300000   0.267744   -0.162976
 0.305000   0.266925   -0.164708
 0.310000   0.266097   -0.166414
 0.315000   0.265261   -0.168124
 0.320000   0.264416   -0.170087
 0.325000   0.263560   -0.171963
 0.330000   0.262696   -0.173505
 0.335000   0.261825   -0.175022
 0.340000   0.260946   -0.176578
 0.345000   0.260059   -0.178189
 0.350000   0.259164   -0.179607
 0.355000   0.258263   -0.180807
 0.360000   0.257356   -0.181948
 0.365000   0.256444   -0.183209
 0.370000   0.255524   -0.184395
 0.375000   0.254600   -0.185342
 0.380000   0.253671   -0.186260
 0.385000   0.252737   -0.187266
 0.390000   0.251798   -0.188255
 0.395000   0.250854   -0.189077
 0.400000   0.249907   -0.189821
 0.405000   0.248956   -0.190600
 0.410000   0.248001   -0.191353
 0.415000   0.247043   -0.191944
 0.420000   0.246082   -0.192423
 0.425000   0.245119   -0.192908
 0.430000   0.244153   -0.193355
 0.435000   0.243185   -0.193637
 0.440000   0.242216   -0.193788
 0.445000   0.241247   -0.193934
 0.450000   0.240277   -0.194022
 0.455000   0.239307   -0.193923
 0.460000   0.238338   -0.193688
 0.465000   0.237370   -0.193453
 0.470000   0.236403   -0.193150
 0.475000   0.235439   -0.192657
 0.480000   0.234477   -0.192039
 0.485000   0.233518   -0.191418
 0.490000   0.232562   -0.190686
 0.495000   0.231611   -0.189723
 0.500000   0.230665   -0.188623
 0.505000   0.229725   -0.187480
 0.510000   0.228790   -0.186175
 0.515000   0.227863   -0.184616
 0.520000   0.226944   -0.182923
 0.525000   0.226034   -0.181150
 0.530000   0.225133   -0.179194
 0.535000   0.224242   -0.177001
 0.540000   0.223363   -0.174681
 0.545000   0.222495   -0.172258
 0.550000   0.221640   -0.169655
 0.555000   0.220799   -0.166855
 0.560000   0.219972   -0.163943
 0.565000   0.219159   -0.160926
 0.570000   0.218362   -0.157747
 0.575000   0.217582   -0.154409
 0.580000   0.216818   -0.150973
 0.585000   0.216072   -0.147433
 0.590000   0.215344   -0.143750
 0.595000   0.214635   -0.139940
 0.600000   0.213945   -0.136039
 0.605000   0.213274   -0.132045
 0.610000   0.212624   -0.127946
 0.615000   0.211995   -0.123762
 0.620000   0.211386   -0.119514
 0.625000   0.210800   -0.115196
 0.630000   0.210235   -0.110794
 0.635000   0.209692   -0.106293
 0.640000   0.209172   -0.101657
 0.645000   0.208675   -0.096843
 0.650000   0.208203   -0.091786
 0.655000   0.207757   -0.086514
 0.660000   0.207338   -0.081093
 0.665000   0.206946   -0.075492
 0.670000   0.206583   -0.069769
 0.675000   0.206249   -0.064002
 0.680000   0.205943   -0.058158
 0.685000   0.205667   -0.052303
 0.690000   0.205420   -0.046487
 0.695000   0.205202   -0.040552
 0.700000   0.205015   -0.034311
 0.705000   0.204859   -0.027657
 0.710000   0.204738   -0.020326
 0.715000   0.204656   -0.012482
 0.720000   0.204613   -0.004651
 0.725000   0.204609   0.003050
 0.730000   0.204644   0.010602
 0.735000   0.204715   0.017838
 0.740000   0.204822   0.024684
 0.745000   0.204962   0.030828
 0.750000   0.205130   0.035763
 0.755000   0.205320   0.039455
 0.760000   0.205525   0.041944
 0.765000   0.205739   0.043131
 0.770000   0.205956   0.042913
 0.775000   0.206168   0.041153
 0.780000   0.206368   0.038164
 0.785000   0.206550   0.034386
 0.790000   0.206712   0.029993
 0.795000   0.206850   0.025228
 0.800000   0.206964   0.020222
 0.805000   0.207052   0.015141
 0.810000   0.207115   0.010561
 0.815000   0.207158   0.006674
 0.820000   0.207182   0.003305
 0.825000   0.207191   0.000508
 0.830000   0.207187   -0.001687
 0.835000   0.207174   -0.003331
 0.840000   0.207154   -0.004634
 0.845000   0.207128   -0.005725
 0.850000   0.207097   -0.006456
 0.855000   0.207063   -0.006577
 0.860000   0.207031   -0.005815
 0.865000   0.207005   -0.003887
 0.870000   0.206992   -0.000289
 0.875000   0.207002   0.005519
 0.880000   0.207047   0.013990
 0.885000   0.207142   0.025612
 0.890000   0.207303   0.040695
 0.895000   0.207549   0.059303
 0.900000   0.207896   0.080343
 0.905000   0.208352   0.101136
 0.910000   0.208908   0.116903
 0.915000   0.209521   0.118829
 0.920000   0.210096   0.091989
 0.925000   0.210441   0.014224
 0.930000   0.210238   -0.146953
 0.935000   0.208972   -0.429845
 0.940000   0.205940   -0.862993
 0.945000   0.200342   -1.441555
 0.950000   0.191524   -2.098818
 0.955000   0.179354   -2.696888
 0.960000   0.164555   -3.078172
 0.965000   0.148572   -3.141320
 0.970000   0.133142   -2.888393
 0.975000   0.119688   -2.421510
 0.980000   0.108927   -1.883997
 0.985000   0.100848   -1.396710
 0.990000   0.094960   -1.034797
 0.995000   0.090500   -0.811326
 1.000000   0.086847   -0.650013
201 psinorm ti(KeV) dti/dpsiN
 0.000000   5.695846   0.001782
 0.005000   5.695143   -0.283104
 0.010000   5.693015   -0.570500
 0.015000   5.689438   -0.862739
 0.020000   5.684388   -1.159452
 0.025000   5.677843   -1.460257
 0.030000   5.669785   -1.764754
 0.035000   5.660196   -2.072540
 0.040000   5.649060   -2.383409
 0.045000   5.636362   -2.697071
 0.050000   5.622089   -3.012956
 0.055000   5.606232   -3.330317
 0.060000   5.588786   -3.648106
 0.065000   5.569751   -3.965005
 0.070000   5.549136   -4.279105
 0.075000   5.526960   -4.588603
 0.080000   5.503250   -4.892461
 0.085000   5.478035   -5.189693
 0.090000   5.451353   -5.479288
 0.095000   5.423243   -5.760387
 0.100000   5.393749   -6.030947
 0.105000   5.362933   -6.290488
 0.110000   5.330844   -6.540018
 0.115000   5.297533   -6.778748
 0.120000   5.263057   -7.005989
 0.125000   5.227473   -7.221769
 0.130000   5.190839   -7.425597
 0.135000   5.153217   -7.619749
 0.140000   5.114641   -7.807203
 0.145000   5.075145   -7.986791
 0.150000   5.034774   -8.156745
 0.155000   4.993578   -8.316168
 0.160000   4.951612   -8.464353
 0.165000   4.908934   -8.601230
 0.170000   4.865600   -8.726722
 0.175000   4.821667   -8.839853
 0.180000   4.777201   -8.939557
 0.185000   4.732271   -9.025173
 0.190000   4.686949   -9.095712
 0.195000   4.641314   -9.150374
 0.200000   4.595446   -9.190901
 0.205000   4.549405   -9.218771
 0.210000   4.503258   -9.234493
 0.215000   4.457060   -9.240090
 0.220000   4.410857   -9.238302
 0.225000   4.364677   -9.233739
 0.230000   4.318520   -9.229072
 0.235000   4.272386   -9.223427
 0.240000   4.226285   -9.216354
 0.245000   4.180223   -9.207870
 0.250000   4.134207   -9.198794
 0.255000   4.088235   -9.192858
 0.260000   4.042278   -9.182605
 0.265000   3.996409   -9.160338
 0.270000   3.950675   -9.127678
 0.275000   3.905132   -9.082895
 0.280000   3.859846   -9.025070
 0.285000   3.814881   -8.954630
 0.290000   3.770299   -8.866915
 0.295000   3.726212   -8.760410
 0.300000   3.682695   -8.639071
 0.305000   3.639822   -8.503279
 0.310000   3.597662   -8.353368
 0.315000   3.556288   -8.183655
 0.320000   3.515826   -7.997899
 0.325000   3.476309   -7.807519
 0.330000   3.437751   -7.616892
 0.335000   3.400140   -7.430342
 0.340000   3.363447   -7.250610
 0.345000   3.327634   -7.079428
 0.350000   3.292653   -6.919996
 0.355000   3.258434   -6.772092
 0.360000   3.224932   -6.632651
 0.365000   3.192107   -6.500919
 0.370000   3.159923   -6.376131
 0.375000   3.128346   -6.262173
 0.380000   3.097301   -6.155386
 0.385000   3.066792   -6.047194
 0.390000   3.036829   -5.936413
 0.395000   3.007428   -5.820712
 0.400000   2.978622   -5.696801
 0.405000   2.950460   -5.562245
 0.410000   2.923000   -5.413074
 0.415000   2.896329   -5.249988
 0.420000   2.870500   -5.078359
 0.425000   2.845546   -4.900934
 0.430000   2.821490   -4.720140
 0.435000   2.798344   -4.535320
 0.440000   2.776137   -4.351439
 0.445000   2.754830   -4.178942
 0.450000   2.734348   -4.018919
 0.455000   2.714641   -3.869194
 0.460000   2.695656   -3.730233
 0.465000   2.677338   -3.601017
 0.470000   2.659646   -3.483208
 0.475000   2.642506   -3.380875
 0.480000   2.625837   -3.292983
 0.485000   2.609577   -3.217207
 0.490000   2.593665   -3.153289
 0.495000   2.578044   -3.101663
 0.500000   2.562648   -3.062363
 0.505000   2.547420   -3.029863
 0.510000   2.532350   -2.998910
 0.515000   2.517431   -2.968885
 0.520000   2.502661   -2.939475
 0.525000   2.488036   -2.911127
 0.530000   2.473550   -2.884847
 0.535000   2.459188   -2.861905
 0.540000   2.444930   -2.842855
 0.545000   2.430759   -2.827500
 0.550000   2.416655   -2.815670
 0.555000   2.402602   -2.807114
 0.560000   2.388584   -2.801298
 0.565000   2.374589   -2.798538
 0.570000   2.360599   -2.799039
 0.575000   2.346599   -2.802217
 0.580000   2.332577   -2.807862
 0.585000   2.318520   -2.815743
 0.590000   2.304419   -2.825441
 0.595000   2.290266   -2.837177
 0.600000   2.276048   -2.850967
 0.605000   2.261756   -2.866137
 0.610000   2.247386   -2.882303
 0.615000   2.232933   -2.898998
 0.620000   2.218396   -2.915704
 0.625000   2.203776   -2.932077
 0.630000   2.189075   -2.947906
 0.635000   2.174297   -2.962915
 0.640000   2.159446   -2.976845
 0.645000   2.144529   -2.989450
 0.650000   2.129552   -3.000548
 0.655000   2.114523   -3.009896
 0.660000   2.099453   -3.017221
 0.665000   2.084351   -3.022442
 0.670000   2.069228   -3.025718
 0.675000   2.054094   -3.027460
 0.680000   2.038954   -3.029194
 0.685000   2.023802   -3.031726
 0.690000   2.008637   -3.034039
 0.695000   1.993462   -3.035351
 0.700000   1.978283   -3.034751
 0.705000   1.963114   -3.030710
 0.710000   1.947976   -3.021869
 0.715000   1.932895   -3.006891
 0.720000   1.917907   -2.986336
 0.725000   1.903032   -2.962111
 0.730000   1.888286   -2.934836
 0.735000   1.873684   -2.904661
 0.740000   1.859239   -2.871845
 0.745000   1.844965   -2.836364
 0.750000   1.830876   -2.798137
 0.755000   1.816984   -2.757829
 0.760000   1.803297   -2.716580
 0.765000   1.789818   -2.675787
 0.770000   1.776540   -2.637794
 0.775000   1.763440   -2.605216
 0.780000   1.750487   -2.577407
 0.785000   1.737666   -2.552883
 0.790000   1.724959   -2.531352
 0.795000   1.712352   -2.511762
 0.800000   1.699841   -2.493449
 0.805000   1.687418   -2.475149
 0.810000   1.675089   -2.454758
 0.815000   1.662870   -2.433268
 0.820000   1.650757   -2.413479
 0.825000   1.638736   -2.397227
 0.830000   1.626784   -2.386676
 0.835000   1.614869   -2.384327
 0.840000   1.602941   -2.391355
 0.845000   1.590955   -2.407717
 0.850000   1.578864   -2.433458
 0.855000   1.566621   -2.468709
 0.860000   1.554177   -2.514391
 0.865000   1.541477   -2.577627
 0.870000   1.528401   -2.665782
 0.875000   1.514819   -2.781726
 0.880000   1.500583   -2.928250
 0.885000   1.485536   -3.107276
 0.890000   1.469511   -3.321334
 0.895000   1.452323   -3.590488
 0.900000   1.433606   -3.908177
 0.905000   1.413241   -4.267002
 0.910000   1.390936   -4.688570
 0.915000   1.366356   -5.179653
 0.920000   1.339139   -5.744363
 0.925000   1.308912   -6.427460
 0.930000   1.274865   -7.197376
 0.935000   1.236938   -7.995531
 0.940000   1.194909   -8.827860
 0.945000   1.148660   -9.665122
 0.950000   1.098258   -10.465485
 0.955000   1.044005   -11.216892
 0.960000   0.986089   -11.819910
 0.965000   0.925806   -12.171623
 0.970000   0.864373   -12.281121
 0.975000   0.802995   -12.152411
 0.980000   0.742849   -11.799687
 0.985000   0.684998   -11.262422
 0.990000   0.630225   -10.560605
 0.995000   0.579392   -9.716089
 1.000000   0.533064   -8.815071
201 psinorm nb(10^20/m^3) dnb/dpsiN
 0.000000   0.099632   0.118909
 0.005000   0.099956   0.010623
 0.010000   0.099738   -0.076988
 0.015000   0.099186   -0.136782
 0.020000   0.098371   -0.185565
 0.025000   0.097330   -0.227813
 0.030000   0.096092   -0.263725
 0.035000   0.094693   -0.293120
 0.040000   0.093161   -0.317233
 0.045000   0.091521   -0.336982
 0.050000   0.089791   -0.352813
 0.055000   0.087993   -0.364664
 0.060000   0.086145   -0.373644
 0.065000   0.084256   -0.379946
 0.070000   0.082345   -0.383543
 0.075000   0.080421   -0.385136
 0.080000   0.078494   -0.384736
 0.085000   0.076573   -0.382606
 0.090000   0.074668   -0.379091
 0.095000   0.072783   -0.374470
 0.100000   0.070923   -0.368401
 0.105000   0.069099   -0.361233
 0.110000   0.067311   -0.353598
 0.115000   0.065563   -0.345346
 0.120000   0.063857   -0.336519
 0.125000   0.062197   -0.327215
 0.130000   0.060585   -0.317523
 0.135000   0.059022   -0.307578
 0.140000   0.057509   -0.297155
 0.145000   0.056051   -0.286588
 0.150000   0.054644   -0.276316
 0.155000   0.053287   -0.266161
 0.160000   0.051982   -0.256086
 0.165000   0.050727   -0.246136
 0.170000   0.049521   -0.236368
 0.175000   0.048363   -0.226757
 0.180000   0.047253   -0.217297
 0.185000   0.046190   -0.208132
 0.190000   0.045172   -0.199279
 0.195000   0.044197   -0.190698
 0.200000   0.043265   -0.182440
 0.205000   0.042373   -0.174512
 0.210000   0.041520   -0.166923
 0.215000   0.040704   -0.159675
 0.220000   0.039923   -0.152753
 0.225000   0.039176   -0.146126
 0.230000   0.038462   -0.139695
 0.235000   0.037779   -0.133252
 0.240000   0.037129   -0.127306
 0.245000   0.036506   -0.122079
 0.250000   0.035908   -0.117149
 0.255000   0.035334   -0.112507
 0.260000   0.034783   -0.108145
 0.265000   0.034253   -0.103760
 0.270000   0.033746   -0.099481
 0.275000   0.033258   -0.095798
 0.280000   0.032788   -0.092538
 0.285000   0.032333   -0.089464
 0.290000   0.031893   -0.086558
 0.295000   0.031467   -0.083485
 0.300000   0.031058   -0.080657
 0.305000   0.030661   -0.078391
 0.310000   0.030274   -0.076270
 0.315000   0.029898   -0.074268
 0.320000   0.029532   -0.072124
 0.325000   0.029177   -0.070157
 0.330000   0.028830   -0.068601
 0.335000   0.028491   -0.067134
 0.340000   0.028159   -0.065676
 0.345000   0.027834   -0.064208
 0.350000   0.027517   -0.062947
 0.355000   0.027204   -0.061901
 0.360000   0.026898   -0.060915
 0.365000   0.026595   -0.059811
 0.370000   0.026299   -0.058786
 0.375000   0.026007   -0.058004
 0.380000   0.025719   -0.057259
 0.385000   0.025435   -0.056433
 0.390000   0.025155   -0.055621
 0.395000   0.024879   -0.054966
 0.400000   0.024605   -0.054365
 0.405000   0.024335   -0.053696
 0.410000   0.024068   -0.053010
 0.415000   0.023805   -0.052433
 0.420000   0.023544   -0.051912
 0.425000   0.023286   -0.051321
 0.430000   0.023031   -0.050700
 0.435000   0.022779   -0.050167
 0.440000   0.022529   -0.049684
 0.445000   0.022282   -0.049120
 0.450000   0.022038   -0.048526
 0.455000   0.021797   -0.048027
 0.460000   0.021558   -0.047571
 0.465000   0.021321   -0.047021
 0.470000   0.021088   -0.046448
 0.475000   0.020857   -0.045976
 0.480000   0.020628   -0.045535
 0.485000   0.020401   -0.044995
 0.490000   0.020178   -0.044457
 0.495000   0.019957   -0.044033
 0.500000   0.019737   -0.043619
 0.505000   0.019520   -0.043114
 0.510000   0.019306   -0.042631
 0.515000   0.019094   -0.042259
 0.520000   0.018884   -0.041876
 0.525000   0.018675   -0.041428
 0.530000   0.018469   -0.041013
 0.535000   0.018265   -0.040689
 0.540000   0.018063   -0.040348
 0.545000   0.017862   -0.039971
 0.550000   0.017663   -0.039638
 0.555000   0.017465   -0.039372
 0.560000   0.017269   -0.039090
 0.565000   0.017074   -0.038794
 0.570000   0.016881   -0.038547
 0.575000   0.016689   -0.038347
 0.580000   0.016498   -0.038140
 0.585000   0.016308   -0.037935
 0.590000   0.016118   -0.037774
 0.595000   0.015930   -0.037648
 0.600000   0.015742   -0.037525
 0.605000   0.015555   -0.037415
 0.610000   0.015368   -0.037341
 0.615000   0.015181   -0.037290
 0.620000   0.014995   -0.037251
 0.625000   0.014809   -0.037237
 0.630000   0.014622   -0.037250
 0.635000   0.014436   -0.037281
 0.640000   0.014250   -0.037334
 0.645000   0.014063   -0.037425
 0.650000   0.013875   -0.037538
 0.655000   0.013687   -0.037657
 0.660000   0.013499   -0.037798
 0.665000   0.013309   -0.037992
 0.670000   0.013119   -0.038205
 0.675000   0.012927   -0.038402
 0.680000   0.012735   -0.038612
 0.685000   0.012541   -0.038871
 0.690000   0.012346   -0.039150
 0.695000   0.012150   -0.039398
 0.700000   0.011952   -0.039642
 0.705000   0.011753   -0.039906
 0.710000   0.011553   -0.040213
 0.715000   0.011351   -0.040513
 0.720000   0.011148   -0.040783
 0.725000   0.010943   -0.041057
 0.730000   0.010737   -0.041363
 0.735000   0.010530   -0.041693
 0.740000   0.010321   -0.041995
 0.745000   0.010110   -0.042275
 0.750000   0.009898   -0.042553
 0.755000   0.009684   -0.042852
 0.760000   0.009469   -0.043157
 0.765000   0.009253   -0.043421
 0.770000   0.009035   -0.043654
 0.775000   0.008816   -0.043876
 0.780000   0.008596   -0.044091
 0.785000   0.008375   -0.044304
 0.790000   0.008153   -0.044485
 0.795000   0.007930   -0.044629
 0.800000   0.007707   -0.044753
 0.805000   0.007483   -0.044858
 0.810000   0.007258   -0.044944
 0.815000   0.007033   -0.045001
 0.820000   0.006808   -0.045019
 0.825000   0.006583   -0.045001
 0.830000   0.006358   -0.044950
 0.835000   0.006134   -0.044862
 0.840000   0.005910   -0.044735
 0.845000   0.005686   -0.044549
 0.850000   0.005464   -0.044306
 0.855000   0.005243   -0.044027
 0.860000   0.005024   -0.043714
 0.865000   0.004806   -0.043389
 0.870000   0.004590   -0.043092
 0.875000   0.004375   -0.042840
 0.880000   0.004162   -0.042633
 0.885000   0.003949   -0.042465
 0.890000   0.003737   -0.042328
 0.895000   0.003526   -0.042219
 0.900000   0.003315   -0.042122
 0.905000   0.003105   -0.042014
 0.910000   0.002895   -0.041871
 0.915000   0.002686   -0.041646
 0.920000   0.002478   -0.041268
 0.925000   0.002273   -0.040670
 0.930000   0.002072   -0.039825
 0.935000   0.001875   -0.038758
 0.940000   0.001684   -0.037562
 0.945000   0.001499   -0.036389
 0.950000   0.001320   -0.035372
 0.955000   0.001146   -0.034379
 0.960000   0.000976   -0.032899
 0.965000   0.000817   -0.030400
 0.970000   0.000672   -0.026790
 0.975000   0.000549   -0.022497
 0.980000   0.000447   -0.018371
 0.985000   0.000365   -0.015440
 0.990000   0.000293   -0.014087
 0.995000   0.000224   -0.016543
 1.000000   0.000127   -0.022080
201 psinorm pb(KPa) dpb/dpsiN
 0.000000   40.849871   29.764551
 0.005000   40.899139   -10.057286
 0.010000   40.749298   -43.504766
 0.015000   40.464092   -67.267117
 0.020000   40.076627   -86.392072
 0.025000   39.600171   -103.103468
 0.030000   39.045592   -117.327116
 0.035000   38.426900   -128.865001
 0.040000   37.756942   -138.080186
 0.045000   37.046098   -145.468089
 0.050000   36.302261   -151.134028
 0.055000   35.534758   -155.194861
 0.060000   34.750313   -158.246119
 0.065000   33.952296   -160.261014
 0.070000   33.147703   -161.214260
 0.075000   32.340154   -161.394952
 0.080000   31.533753   -160.802768
 0.085000   30.732126   -159.519836
 0.090000   29.938555   -157.706577
 0.095000   29.155060   -155.478699
 0.100000   28.383768   -152.692315
 0.105000   27.628137   -149.502807
 0.110000   26.888740   -146.158214
 0.115000   26.166555   -142.575800
 0.120000   25.462982   -138.773617
 0.125000   24.778819   -134.803283
 0.130000   24.114949   -130.695108
 0.135000   23.471868   -126.493271
 0.140000   22.850016   -122.094486
 0.145000   22.250923   -117.653875
 0.150000   21.673477   -113.374141
 0.155000   21.117181   -109.162452
 0.160000   20.581853   -104.990597
 0.165000   20.067276   -100.876437
 0.170000   19.573089   -96.847253
 0.175000   19.098803   -92.889827
 0.180000   18.644190   -89.042627
 0.185000   18.208377   -85.323485
 0.190000   17.790955   -81.690809
 0.195000   17.391469   -78.170487
 0.200000   17.009251   -74.784850
 0.205000   16.643620   -71.537604
 0.210000   16.293875   -68.430948
 0.215000   15.959311   -65.465008
 0.220000   15.639224   -62.632059
 0.225000   15.332990   -59.914118
 0.230000   15.040083   -57.277495
 0.235000   14.760215   -54.653917
 0.240000   14.493544   -52.239178
 0.245000   14.237823   -50.111576
 0.250000   13.992428   -48.106540
 0.255000   13.756758   -46.219892
 0.260000   13.530229   -44.447469
 0.265000   13.312283   -42.672115
 0.270000   13.103508   -40.945951
 0.275000   12.902824   -39.465433
 0.280000   12.708854   -38.156263
 0.285000   12.521261   -36.913019
 0.290000   12.339724   -35.733524
 0.295000   12.163926   -34.494696
 0.300000   11.994777   -33.353945
 0.305000   11.830386   -32.431910
 0.310000   11.670458   -31.567800
 0.315000   11.514708   -30.751910
 0.320000   11.362939   -29.884888
 0.325000   11.215860   -29.084131
 0.330000   11.072097   -28.434990
 0.335000   10.931510   -27.819458
 0.340000   10.793903   -27.218436
 0.345000   10.659325   -26.625019
 0.350000   10.527653   -26.112232
 0.355000   10.398203   -25.680462
 0.360000   10.270848   -25.273282
 0.365000   10.145470   -24.826785
 0.370000   10.022580   -24.411826
 0.375000   9.901352   -24.087068
 0.380000   9.781709   -23.777034
 0.385000   9.663582   -23.440564
 0.390000   9.547304   -23.115389
 0.395000   9.432428   -22.848295
 0.400000   9.318821   -22.596898
 0.405000   9.206459   -22.322805
 0.410000   9.095593   -22.044036
 0.415000   8.986018   -21.803527
 0.420000   8.877557   -21.582829
 0.425000   8.770190   -21.339830
 0.430000   8.664159   -21.087183
 0.435000   8.559318   -20.864774
 0.440000   8.455511   -20.658554
 0.445000   8.352733   -20.425444
 0.450000   8.251257   -20.182300
 0.455000   8.150910   -19.970603
 0.460000   8.051551   -19.773630
 0.465000   7.953173   -19.545209
 0.470000   7.856099   -19.309020
 0.475000   7.760083   -19.107067
 0.480000   7.665028   -18.915852
 0.485000   7.570925   -18.692219
 0.490000   7.478106   -18.469630
 0.495000   7.386228   -18.285955
 0.500000   7.295246   -18.106104
 0.505000   7.205167   -17.897364
 0.510000   7.116273   -17.696265
 0.515000   7.028205   -17.532305
 0.520000   6.940950   -17.365235
 0.525000   6.854552   -17.177936
 0.530000   6.769170   -17.001784
 0.535000   6.684534   -16.853967
 0.540000   6.600631   -16.700842
 0.545000   6.517526   -16.535929
 0.550000   6.435271   -16.385453
 0.555000   6.353671   -16.256145
 0.560000   6.272710   -16.121940
 0.565000   6.192452   -15.983152
 0.570000   6.112878   -15.859976
 0.575000   6.033852   -15.752219
 0.580000   5.955356   -15.641345
 0.585000   5.877439   -15.530959
 0.590000   5.800047   -15.434484
 0.595000   5.723094   -15.348594
 0.600000   5.646561   -15.264275
 0.605000   5.570451   -15.183798
 0.610000   5.494723   -15.113654
 0.615000   5.419315   -15.051533
 0.620000   5.344207   -14.992896
 0.625000   5.269386   -14.940136
 0.630000   5.194806   -14.895967
 0.635000   5.120426   -14.858886
 0.640000   5.046217   -14.830250
 0.645000   4.972124   -14.813717
 0.650000   4.898080   -14.805780
 0.655000   4.824066   -14.802586
 0.660000   4.750054   -14.806098
 0.665000   4.676005   -14.827936
 0.670000   4.601775   -14.856710
 0.675000   4.527438   -14.880719
 0.680000   4.452968   -14.909767
 0.685000   4.378340   -14.955236
 0.690000   4.303415   -15.005100
 0.695000   4.228289   -15.043027
 0.700000   4.152985   -15.079317
 0.705000   4.077496   -15.121564
 0.710000   4.001769   -15.177998
 0.715000   3.925716   -15.232595
 0.720000   3.849443   -15.277235
 0.725000   3.772944   -15.323372
 0.730000   3.696210   -15.379507
 0.735000   3.619149   -15.442850
 0.740000   3.541781   -15.496466
 0.745000   3.464184   -15.541992
 0.750000   3.386361   -15.586415
 0.755000   3.308320   -15.636370
 0.760000   3.229998   -15.687003
 0.765000   3.151450   -15.722544
 0.770000   3.072772   -15.746403
 0.775000   2.993986   -15.766276
 0.780000   2.915109   -15.782876
 0.785000   2.836157   -15.796092
 0.790000   2.757148   -15.798999
 0.795000   2.678167   -15.790541
 0.800000   2.599243   -15.775698
 0.805000   2.520410   -15.754053
 0.810000   2.441703   -15.724871
 0.815000   2.363161   -15.683640
 0.820000   2.284866   -15.629353
 0.825000   2.206868   -15.564121
 0.830000   2.129225   -15.486765
 0.835000   2.052000   -15.396692
 0.840000   1.975258   -15.293278
 0.845000   1.899067   -15.167308
 0.850000   1.823585   -15.020465
 0.855000   1.748863   -14.864840
 0.860000   1.674936   -14.699646
 0.865000   1.601866   -14.528039
 0.870000   1.529656   -14.359482
 0.875000   1.458271   -14.198680
 0.880000   1.387669   -14.045805
 0.885000   1.317813   -13.898124
 0.890000   1.248688   -13.747474
 0.895000   1.180339   -13.601441
 0.900000   1.112674   -13.463358
 0.905000   1.045705   -13.320558
 0.910000   0.979468   -13.165503
 0.915000   0.914050   -12.984402
 0.920000   0.849624   -12.756567
 0.925000   0.786484   -12.458736
 0.930000   0.725037   -12.076674
 0.935000   0.665717   -11.615582
 0.940000   0.608881   -11.106215
 0.945000   0.554655   -10.619089
 0.950000   0.502690   -10.263672
 0.955000   0.452019   -10.119356
 0.960000   0.401496   -10.145762
 0.965000   0.350561   -10.190289
 0.970000   0.299594   -10.086793
 0.975000   0.249693   -9.744445
 0.980000   0.202149   -9.218094
 0.985000   0.157512   -8.641339
 0.990000   0.115736   -7.838872
 0.995000   0.079123   -7.425549
 1.000000   0.041480   -7.631727
201 psinorm ptot(KPa) dptot/dpsiN
 0.000000   101.066597   -74.829410
 0.005000   100.615932   -105.436472
 0.010000   100.012232   -131.557933
 0.015000   99.300353   -150.539635
 0.020000   98.506836   -165.900282
 0.025000   97.641350   -179.458958
 0.030000   96.712246   -191.125509
 0.035000   95.730095   -200.719531
 0.040000   94.705051   -208.493158
 0.045000   93.645163   -214.858747
 0.050000   92.556463   -219.879307
 0.055000   91.446370   -223.673787
 0.060000   90.319726   -226.732652
 0.065000   89.179044   -229.004427
 0.070000   88.029681   -230.456362
 0.075000   86.874480   -231.304234
 0.080000   85.716639   -231.539535
 0.085000   84.559085   -231.215081
 0.090000   83.404488   -230.454683
 0.095000   82.254538   -229.343856
 0.100000   81.111050   -227.757359
 0.105000   79.976964   -225.815057
 0.110000   78.852899   -223.711383
 0.115000   77.739851   -221.370942
 0.120000   76.639190   -218.803077
 0.125000   75.551820   -216.049233
 0.130000   74.478697   -213.129029
 0.135000   73.420529   -210.084931
 0.140000   72.377848   -206.844583
 0.145000   71.352084   -203.528769
 0.150000   70.342560   -200.295181
 0.155000   69.349132   -197.061192
 0.160000   68.371948   -193.798267
 0.165000   67.411149   -190.520340
 0.170000   66.466745   -187.249514
 0.175000   65.538654   -183.969744
 0.180000   64.627048   -180.715124
 0.185000   63.731503   -177.489704
 0.190000   62.852150   -174.246561
 0.195000   61.989037   -171.011625
 0.200000   61.142034   -167.812882
 0.205000   60.310908   -164.661872
 0.210000   59.495415   -161.563909
 0.215000   58.695269   -158.529390
 0.220000   57.910122   -155.565808
 0.225000   57.139611   -152.679731
 0.230000   56.383324   -149.856371
 0.235000   55.641047   -147.036886
 0.240000   54.912955   -144.380299
 0.245000   54.197244   -141.951049
 0.250000   53.493445   -139.618145
 0.255000   52.801063   -137.395358
 0.260000   52.119491   -135.247359
 0.265000   51.448589   -133.043450
 0.270000   50.789057   -130.835261
 0.275000   50.140237   -128.781986
 0.280000   49.501237   -126.818153
 0.285000   48.872055   -124.856395
 0.290000   48.252673   -122.877044
 0.295000   47.643285   -120.771512
 0.300000   47.044958   -118.690333
 0.305000   46.456382   -116.738208
 0.310000   45.877576   -114.781876
 0.315000   45.308563   -112.788920
 0.320000   44.749687   -110.691951
 0.325000   44.201643   -108.641036
 0.330000   43.663276   -106.727876
 0.335000   43.134364   -104.871391
 0.340000   42.614562   -103.068115
 0.345000   42.103683   -101.319194
 0.350000   41.601370   -99.698474
 0.355000   41.106699   -98.203968
 0.360000   40.619331   -96.773984
 0.365000   40.138959   -95.350128
 0.370000   39.665829   -93.989587
 0.375000   39.199063   -92.759093
 0.380000   38.738239   -91.577970
 0.385000   38.283283   -90.373790
 0.390000   37.834501   -89.174372
 0.395000   37.391539   -88.009558
 0.400000   36.954405   -86.828229
 0.405000   36.523257   -85.587691
 0.410000   36.098528   -84.287337
 0.415000   35.680384   -82.967716
 0.420000   35.268851   -81.636053
 0.425000   34.864023   -80.267749
 0.430000   34.466174   -78.883938
 0.435000   34.075184   -77.516415
 0.440000   33.691009   -76.173395
 0.445000   33.313450   -74.860044
 0.450000   32.942409   -73.594663
 0.455000   32.577503   -72.403685
 0.460000   32.218372   -71.273983
 0.465000   31.864763   -70.160609
 0.470000   31.516766   -69.090334
 0.475000   31.173860   -68.115512
 0.480000   30.835611   -67.210583
 0.485000   30.501754   -66.327496
 0.490000   30.172336   -65.493577
 0.495000   29.846819   -64.742762
 0.500000   29.524908   -64.043574
 0.505000   29.206383   -63.344954
 0.510000   28.891459   -62.657991
 0.515000   28.579803   -62.006033
 0.520000   28.271398   -61.352603
 0.525000   27.966277   -60.684466
 0.530000   27.664554   -60.032827
 0.535000   27.365949   -59.417540
 0.540000   27.070378   -58.811333
 0.545000   26.777835   -58.207738
 0.550000   26.488301   -57.629203
 0.555000   26.201543   -57.080756
 0.560000   25.917493   -56.537549
 0.565000   25.636168   -56.001202
 0.570000   25.357481   -55.490411
 0.575000   25.081264   -55.002877
 0.580000   24.807453   -54.521535
 0.585000   24.536048   -54.048834
 0.590000   24.266964   -53.595217
 0.595000   24.000096   -53.158712
 0.600000   23.735377   -52.731712
 0.605000   23.472779   -52.313892
 0.610000   23.212238   -51.909902
 0.615000   22.953680   -51.516486
 0.620000   22.697073   -51.128006
 0.625000   22.442400   -50.745460
 0.630000   22.189619   -50.370462
 0.635000   21.938695   -50.000267
 0.640000   21.689616   -49.634384
 0.645000   21.442351   -49.274437
 0.650000   21.196872   -48.914770
 0.655000   20.953204   -48.551793
 0.660000   20.711354   -48.188501
 0.665000   20.471319   -47.835411
 0.670000   20.233000   -47.483697
 0.675000   19.996482   -47.125546
 0.680000   19.761744   -46.775190
 0.685000   19.528730   -46.448422
 0.690000   19.297260   -46.131213
 0.695000   19.067418   -45.800537
 0.700000   18.839255   -45.458570
 0.705000   18.612832   -45.104896
 0.710000   18.388206   -44.736487
 0.715000   18.165467   -44.337598
 0.720000   17.944830   -43.916097
 0.725000   17.726306   -43.492805
 0.730000   17.509902   -43.078554
 0.735000   17.295521   -42.675096
 0.740000   17.083151   -42.268128
 0.745000   16.872839   -41.866412
 0.750000   16.664487   -41.488277
 0.755000   16.457957   -41.142398
 0.760000   16.253063   -40.825976
 0.765000   16.049697   -40.529739
 0.770000   15.847765   -40.266662
 0.775000   15.647030   -40.055647
 0.780000   15.447209   -39.886817
 0.785000   15.248162   -39.743798
 0.790000   15.049771   -39.614187
 0.795000   14.852020   -39.487265
 0.800000   14.654898   -39.362236
 0.805000   14.458398   -39.230224
 0.810000   14.262596   -39.069999
 0.815000   14.067698   -38.876208
 0.820000   13.873834   -38.661473
 0.825000   13.681083   -38.432680
 0.830000   13.489507   -38.194968
 0.835000   13.299133   -37.956584
 0.840000   13.109941   -37.724139
 0.845000   12.921892   -37.489003
 0.850000   12.735051   -37.247169
 0.855000   12.549420   -37.002445
 0.860000   12.365027   -36.747487
 0.865000   12.181945   -36.499389
 0.870000   12.000033   -36.277298
 0.875000   11.819173   -36.079128
 0.880000   11.639241   -35.900575
 0.885000   11.460167   -35.733003
 0.890000   11.281911   -35.573170
 0.895000   11.104435   -35.509691
 0.900000   10.926815   -35.574974
 0.905000   10.748685   -35.843691
 0.910000   10.568378   -36.586396
 0.915000   10.382821   -38.168096
 0.920000   10.186697   -41.158476
 0.925000   9.971237   -46.533514
 0.930000   9.721362   -55.315199
 0.935000   9.418085   -68.573381
 0.940000   9.035628   -87.240602
 0.945000   8.545679   -111.007595
 0.950000   7.925552   -137.657474
 0.955000   7.169104   -163.191069
 0.960000   6.293641   -182.947917
 0.965000   5.339625   -193.462481
 0.970000   4.359016   -192.532977
 0.975000   3.414295   -177.722317
 0.980000   2.581793   -148.551475
 0.985000   1.928780   -111.304170
 0.990000   1.468751   -76.807058
 0.995000   1.160710   -52.606756
 1.000000   0.942684   -34.603553
201 psinorm omeg(kRad/s) domeg/dpsiN
 0.000000   55.295731   0.026514
 0.005000   55.295351   -0.178805
 0.010000   55.293943   -0.428685
 0.015000   55.291064   -0.777713
 0.020000   55.286166   -1.243903
 0.025000   55.278625   -1.841701
 0.030000   55.267749   -2.581553
 0.035000   55.252809   -3.468251
 0.040000   55.233067   -4.493588
 0.045000   55.207873   -5.646795
 0.050000   55.176599   -6.916795
 0.055000   55.138705   -8.281064
 0.060000   55.093788   -9.711203
 0.065000   55.041593   -11.175727
 0.070000   54.982031   -12.608499
 0.075000   54.915508   -14.004821
 0.080000   54.841983   -15.404564
 0.085000   54.761463   -16.799228
 0.090000   54.673990   -18.191683
 0.095000   54.579546   -19.593489
 0.100000   54.478055   -20.981165
 0.105000   54.369734   -22.351740
 0.110000   54.254538   -23.714225
 0.115000   54.132592   -25.036551
 0.120000   54.004172   -26.303993
 0.125000   53.869552   -27.521685
 0.130000   53.728956   -28.682342
 0.135000   53.582729   -29.844324
 0.140000   53.430512   -31.086510
 0.145000   53.271863   -32.391523
 0.150000   53.106597   -33.727625
 0.155000   52.934587   -35.083384
 0.160000   52.755763   -36.453798
 0.165000   52.570049   -37.851120
 0.170000   52.377252   -39.276043
 0.175000   52.177289   -40.704741
 0.180000   51.970205   -42.115166
 0.185000   51.756137   -43.489507
 0.190000   51.535310   -44.811016
 0.195000   51.308027   -46.062610
 0.200000   51.074683   -47.239915
 0.205000   50.835628   -48.340047
 0.210000   50.591283   -49.343015
 0.215000   50.342198   -50.220317
 0.220000   50.089080   -50.919036
 0.225000   49.833007   -51.356356
 0.230000   49.575516   -51.568622
 0.235000   49.317321   -51.611580
 0.240000   49.059400   -51.464867
 0.245000   48.802672   -51.142956
 0.250000   48.547971   -50.644786
 0.255000   48.296225   -49.924728
 0.260000   48.048724   -49.122805
 0.265000   47.804997   -48.324232
 0.270000   47.565481   -47.445262
 0.275000   47.330544   -46.504358
 0.280000   47.100438   -45.522001
 0.285000   46.875324   -44.478162
 0.290000   46.655656   -43.518195
 0.295000   46.440142   -42.733151
 0.300000   46.228325   -42.048193
 0.305000   46.019660   -41.475398
 0.310000   45.813571   -41.015466
 0.315000   45.609505   -40.664219
 0.320000   45.406928   -40.350476
 0.325000   45.206001   -40.004700
 0.330000   45.006881   -39.626682
 0.335000   44.809734   -39.215086
 0.340000   44.614731   -38.767717
 0.345000   44.422057   -38.291438
 0.350000   44.231816   -37.770067
 0.355000   44.044356   -37.189834
 0.360000   43.859918   -36.563034
 0.365000   43.678726   -35.891919
 0.370000   43.500999   -35.177695
 0.375000   43.326949   -34.417053
 0.380000   43.156828   -33.610855
 0.385000   42.990840   -32.769645
 0.390000   42.829132   -31.900563
 0.395000   42.671834   -31.007639
 0.400000   42.519055   -30.095910
 0.405000   42.370875   -29.159937
 0.410000   42.227456   -28.210780
 0.415000   42.088768   -27.272038
 0.420000   41.954736   -26.345645
 0.425000   41.825311   -25.434187
 0.430000   41.700394   -24.550700
 0.435000   41.579804   -23.726008
 0.440000   41.463134   -23.021088
 0.445000   41.349593   -22.450404
 0.450000   41.238630   -21.978706
 0.455000   41.129806   -21.583755
 0.460000   41.022792   -21.244638
 0.465000   40.917360   -20.972394
 0.470000   40.813068   -20.754945
 0.475000   40.709810   -20.502798
 0.480000   40.608040   -20.189150
 0.485000   40.507919   -19.839694
 0.490000   40.409643   -19.449267
 0.495000   40.313426   -19.030807
 0.500000   40.219335   -18.583457
 0.505000   40.127592   -18.063175
 0.510000   40.038703   -17.479697
 0.515000   39.952795   -16.882941
 0.520000   39.869874   -16.300586
 0.525000   39.789789   -15.775197
 0.530000   39.712122   -15.380305
 0.535000   39.635986   -15.148297
 0.540000   39.560639   -15.071098
 0.545000   39.485275   -15.159904
 0.550000   39.409040   -15.426810
 0.555000   39.331007   -15.898965
 0.560000   39.250050   -16.646184
 0.565000   39.164545   -17.638806
 0.570000   39.073662   -18.859860
 0.575000   38.975946   -20.390147
 0.580000   38.869761   -22.264487
 0.585000   38.753301   -24.517035
 0.590000   38.624590   -27.221051
 0.595000   38.481091   -30.304388
 0.600000   38.321547   -33.694533
 0.605000   38.144145   -37.426878
 0.610000   37.947278   -41.452380
 0.615000   37.729622   -45.706300
 0.620000   37.490215   -50.074782
 0.625000   37.228874   -54.462212
 0.630000   36.945593   -58.817677
 0.635000   36.640697   -63.064214
 0.640000   36.314950   -67.119058
 0.645000   35.969507   -70.910121
 0.650000   35.605849   -74.232008
 0.655000   35.227186   -77.148590
 0.660000   34.834363   -79.840036
 0.665000   34.428786   -82.242804
 0.670000   34.011935   -84.386055
 0.675000   33.584926   -86.360944
 0.680000   33.148326   -88.285175
 0.685000   32.702074   -90.460378
 0.690000   32.243722   -93.039948
 0.695000   31.771674   -95.888168
 0.700000   31.284840   -98.867598
 0.705000   30.782998   -101.760194
 0.710000   30.267238   -104.320123
 0.715000   29.739797   -106.224513
 0.720000   29.204993   -107.347220
 0.725000   28.666325   -107.810896
 0.730000   28.126884   -107.647540
 0.735000   27.589849   -106.842992
 0.740000   27.058454   -105.391644
 0.745000   26.535933   -103.276576
 0.750000   26.025689   -100.528552
 0.755000   25.530648   -97.252699
 0.760000   25.053162   -93.587485
 0.765000   24.594773   -89.703096
 0.770000   24.156131   -85.835834
 0.775000   23.736414   -82.230365
 0.780000   23.333827   -78.803011
 0.785000   22.948384   -75.357106
 0.790000   22.580256   -71.828937
 0.795000   22.230095   -68.142993
 0.800000   21.898826   -64.320564
 0.805000   21.586889   -60.413896
 0.810000   21.294687   -56.418698
 0.815000   21.022702   -52.579913
 0.820000   20.768888   -49.285478
 0.825000   20.529847   -46.793861
 0.830000   20.300949   -45.339607
 0.835000   20.076451   -45.109784
 0.840000   19.849852   -46.202718
 0.845000   19.614424   -48.672710
 0.850000   19.363124   -52.523438
 0.855000   19.089190   -57.667290
 0.860000   18.786452   -63.953204
 0.865000   18.449658   -71.297295
 0.870000   18.073479   -79.883470
 0.875000   17.650823   -89.867203
 0.880000   17.174807   -101.229120
 0.885000   16.638532   -113.939783
 0.890000   16.035409   -127.895996
 0.895000   15.359572   -143.369853
 0.900000   14.601710   -159.391692
 0.905000   13.765655   -174.663873
 0.910000   12.855072   -188.749034
 0.915000   11.878165   -200.661716
 0.920000   10.848454   -209.290173
 0.925000   9.785263   -214.074384
 0.930000   8.707711   -213.240582
 0.935000   7.652857   -205.199113
 0.940000   6.655719   -190.089722
 0.945000   5.751960   -168.107849
 0.950000   4.974641   -140.208022
 0.955000   4.349880   -108.162570
 0.960000   3.893015   -74.491089
 0.965000   3.604969   -42.236897
 0.970000   3.470646   -14.207990
 0.975000   3.462889   7.577029
 0.980000   3.546417   21.960551
 0.985000   3.682494   28.621780
 0.990000   3.832634   28.236423
 0.995000   3.964859   22.201595
 1.000000   4.054650   13.715056
201 psinorm omegp(kRad/s) domegp/dpsiN
 0.000000   0.000000   69.889997
 0.005000   0.278952   41.690683
 0.010000   0.416907   26.270687
 0.015000   0.541659   24.253662
 0.020000   0.659443   23.165717
 0.025000   0.773316   22.150973
 0.030000   0.880953   20.614616
 0.035000   0.979462   19.121443
 0.040000   1.072168   17.723385
 0.045000   1.156696   16.455983
 0.050000   1.236727   15.589399
 0.055000   1.312590   15.277897
 0.060000   1.389506   15.659693
 0.065000   1.469187   15.988553
 0.070000   1.549392   16.540938
 0.075000   1.634596   17.441043
 0.080000   1.723802   18.440585
 0.085000   1.819002   19.458776
 0.090000   1.918390   20.329613
 0.095000   2.022298   21.002580
 0.100000   2.128416   21.271258
 0.105000   2.235011   21.300600
 0.110000   2.341422   20.993402
 0.115000   2.444945   20.325168
 0.120000   2.544674   19.501033
 0.125000   2.639955   18.580772
 0.130000   2.730481   17.685270
 0.135000   2.816808   16.819907
 0.140000   2.898680   15.915795
 0.145000   2.975966   15.262293
 0.150000   3.051303   14.741842
 0.155000   3.123384   14.378725
 0.160000   3.195091   13.978672
 0.165000   3.263171   13.528643
 0.170000   3.330377   13.000944
 0.175000   3.393180   12.264053
 0.180000   3.453018   11.555360
 0.185000   3.508734   10.700375
 0.190000   3.560021   9.746794
 0.195000   3.606202   8.778680
 0.200000   3.647808   7.813678
 0.205000   3.684339   6.598971
 0.210000   3.713798   5.405628
 0.215000   3.738395   4.540358
 0.220000   3.759201   3.702885
 0.225000   3.775424   3.005623
 0.230000   3.789258   2.380561
 0.235000   3.799229   1.897031
 0.240000   3.808228   1.594910
 0.245000   3.815178   1.099504
 0.250000   3.819223   0.552434
 0.255000   3.820703   -0.018061
 0.260000   3.819042   -0.670962
 0.265000   3.813993   -1.433416
 0.270000   3.804708   -2.351261
 0.275000   3.790480   -3.323890
 0.280000   3.771469   -4.334699
 0.285000   3.747133   -5.445281
 0.290000   3.717017   -6.616009
 0.295000   3.680973   -7.730818
 0.300000   3.639708   -8.942539
 0.305000   3.591548   -10.204475
 0.310000   3.537664   -11.400959
 0.315000   3.477538   -12.698006
 0.320000   3.410684   -13.933242
 0.325000   3.338206   -15.144815
 0.330000   3.259235   -16.439341
 0.335000   3.173813   -17.724686
 0.340000   3.081988   -19.039023
 0.345000   2.983422   -20.380332
 0.350000   2.878185   -21.617477
 0.355000   2.767248   -22.668774
 0.360000   2.651497   -23.563979
 0.365000   2.531608   -24.272207
 0.370000   2.408775   -24.914386
 0.375000   2.282464   -25.441152
 0.380000   2.154364   -25.718595
 0.385000   2.025278   -26.048323
 0.390000   1.893881   -26.483059
 0.395000   1.760447   -26.972225
 0.400000   1.624158   -27.631390
 0.405000   1.484133   -28.341495
 0.410000   1.340743   -29.070787
 0.415000   1.193426   -29.883061
 0.420000   1.041913   -30.819632
 0.425000   0.885229   -32.111938
 0.430000   0.720793   -33.954964
 0.435000   0.545680   -36.735635
 0.440000   0.353437   -40.901730
 0.445000   0.136662   -45.988843
 0.450000   -0.106451   -51.576207
 0.455000   -0.379100   -57.596381
 0.460000   -0.682415   -63.885686
 0.465000   -1.017957   -70.324804
 0.470000   -1.385663   -76.371957
 0.475000   -1.781676   -81.130690
 0.480000   -2.196970   -84.252101
 0.485000   -2.624197   -85.706010
 0.490000   -3.054030   -85.346715
 0.495000   -3.477664   -82.911485
 0.500000   -3.883145   -78.251092
 0.505000   -4.260175   -72.294790
 0.510000   -4.606093   -65.852368
 0.515000   -4.918699   -59.129833
 0.520000   -5.197391   -52.453791
 0.525000   -5.443237   -45.986006
 0.530000   -5.657251   -40.495075
 0.535000   -5.848188   -36.708887
 0.540000   -6.024340   -34.329519
 0.545000   -6.191483   -33.055285
 0.550000   -6.354893   -32.657988
 0.555000   -6.518063   -33.124063
 0.560000   -6.686134   -34.127099
 0.565000   -6.859334   -35.101604
 0.570000   -7.037150   -35.832479
 0.575000   -7.217658   -36.133698
 0.580000   -7.398487   -35.890360
 0.585000   -7.576562   -35.014057
 0.590000   -7.748627   -33.082510
 0.595000   -7.907387   -30.053850
 0.600000   -8.049166   -26.329450
 0.605000   -8.170682   -22.027485
 0.610000   -8.269441   -17.407495
 0.615000   -8.344757   -12.700603
 0.620000   -8.396447   -8.262485
 0.625000   -8.427381   -4.321607
 0.630000   -8.439663   -0.920826
 0.635000   -8.436590   1.764518
 0.640000   -8.422018   3.892310
 0.645000   -8.397667   5.549060
 0.650000   -8.366527   6.759348
 0.655000   -8.330073   7.734790
 0.660000   -8.289179   8.631920
 0.665000   -8.243754   9.484215
 0.670000   -8.194337   10.232602
 0.675000   -8.141428   10.930420
 0.680000   -8.085033   11.611491
 0.685000   -8.025313   12.217756
 0.690000   -7.962855   12.766058
 0.695000   -7.897652   13.348134
 0.700000   -7.829374   14.126844
 0.705000   -7.756384   15.178473
 0.710000   -7.677589   16.379122
 0.715000   -7.592593   17.703988
 0.720000   -7.500549   19.032373
 0.725000   -7.402269   20.192137
 0.730000   -7.298628   21.128069
 0.735000   -7.190988   21.623230
 0.740000   -7.082396   21.330817
 0.745000   -6.977680   20.225237
 0.750000   -6.880143   18.413742
 0.755000   -6.793543   15.972163
 0.760000   -6.720422   12.997917
 0.765000   -6.663564   9.757066
 0.770000   -6.622851   6.622200
 0.775000   -6.597342   3.742306
 0.780000   -6.585428   1.225954
 0.785000   -6.585082   -0.857858
 0.790000   -6.594006   -2.600097
 0.795000   -6.611083   -4.282149
 0.800000   -6.636828   -6.200491
 0.805000   -6.673088   -8.461026
 0.810000   -6.721438   -11.076210
 0.815000   -6.783850   -14.206904
 0.820000   -6.863507   -17.869042
 0.825000   -6.962540   -21.422213
 0.830000   -7.077729   -24.410461
 0.835000   -7.206645   -26.681215
 0.840000   -7.344541   -27.885106
 0.845000   -7.485496   -27.771580
 0.850000   -7.622257   -26.236841
 0.855000   -7.747864   -23.698546
 0.860000   -7.859243   -20.521619
 0.865000   -7.953081   -16.868356
 0.870000   -8.027926   -12.935363
 0.875000   -8.082434   -8.743700
 0.880000   -8.115363   -4.209412
 0.885000   -8.124528   0.822869
 0.890000   -8.107135   6.429260
 0.895000   -8.060236   12.752501
 0.900000   -7.979610   19.903228
 0.905000   -7.861204   27.733252
 0.910000   -7.702277   35.797262
 0.915000   -7.503231   43.459942
 0.920000   -7.267678   50.287594
 0.925000   -7.000355   56.195010
 0.930000   -6.705728   61.489941
 0.935000   -6.385456   65.273929
 0.940000   -6.052988   67.738493
 0.945000   -5.708071   71.216200
 0.950000   -5.340826   76.641831
 0.955000   -4.941652   82.360915
 0.960000   -4.517217   86.121354
 0.965000   -4.080439   86.538567
 0.970000   -3.651831   76.226156
 0.975000   -3.318177   48.179034
 0.980000   -3.170041   11.011366
 0.985000   -3.208064   -1.711532
 0.990000   -3.187156   73.847493
 0.995000   -2.469589   303.253787
 1.000000   -0.154619   622.734259
201 psinorm omgvb(kRad/s) domgvb/dpsiN
 0.000000   55.295731   69.916510
 0.005000   55.574302   41.511877
 0.010000   55.710850   25.842002
 0.015000   55.832722   23.475949
 0.020000   55.945610   21.921814
 0.025000   56.051940   20.309273
 0.030000   56.148702   18.033063
 0.035000   56.232271   15.653192
 0.040000   56.305234   13.229796
 0.045000   56.364569   10.809188
 0.050000   56.413326   8.672604
 0.055000   56.451295   6.996833
 0.060000   56.483294   5.948490
 0.065000   56.510780   4.812826
 0.070000   56.531423   3.932438
 0.075000   56.550104   3.436222
 0.080000   56.565785   3.036021
 0.085000   56.580465   2.659548
 0.090000   56.592380   2.137931
 0.095000   56.601844   1.409090
 0.100000   56.606471   0.290094
 0.105000   56.604745   -1.051140
 0.110000   56.595960   -2.720823
 0.115000   56.577537   -4.711383
 0.120000   56.548846   -6.802960
 0.125000   56.509507   -8.940912
 0.130000   56.459437   -10.997073
 0.135000   56.399536   -13.024417
 0.140000   56.329193   -15.170714
 0.145000   56.247829   -17.129230
 0.150000   56.157900   -18.985783
 0.155000   56.057971   -20.704659
 0.160000   55.950854   -22.475126
 0.165000   55.833220   -24.322477
 0.170000   55.707629   -26.275100
 0.175000   55.570469   -28.440688
 0.180000   55.423222   -30.559805
 0.185000   55.264871   -32.789131
 0.190000   55.095331   -35.064222
 0.195000   54.914229   -37.283930
 0.200000   54.722492   -39.426237
 0.205000   54.519966   -41.741076
 0.210000   54.305081   -43.937387
 0.215000   54.080592   -45.679959
 0.220000   53.848281   -47.216150
 0.225000   53.608431   -48.350734
 0.230000   53.364774   -49.188061
 0.235000   53.116550   -49.714548
 0.240000   52.867628   -49.869957
 0.245000   52.617851   -50.043451
 0.250000   52.367194   -50.092351
 0.255000   52.116927   -49.942789
 0.260000   51.867766   -49.793768
 0.265000   51.618990   -49.757648
 0.270000   51.370190   -49.796523
 0.275000   51.121024   -49.828248
 0.280000   50.871907   -49.856700
 0.285000   50.622457   -49.923443
 0.290000   50.372673   -50.134204
 0.295000   50.121115   -50.463969
 0.300000   49.868033   -50.990733
 0.305000   49.611208   -51.679873
 0.310000   49.351234   -52.416426
 0.315000   49.087044   -53.362225
 0.320000   48.817612   -54.283718
 0.325000   48.544207   -55.149516
 0.330000   48.266117   -56.066022
 0.335000   47.983546   -56.939772
 0.340000   47.696719   -57.806740
 0.345000   47.405479   -58.671771
 0.350000   47.110001   -59.387544
 0.355000   46.811604   -59.858608
 0.360000   46.511415   -60.127013
 0.365000   46.210333   -60.164126
 0.370000   45.909774   -60.092082
 0.375000   45.609413   -59.858205
 0.380000   45.311192   -59.329450
 0.385000   45.016118   -58.817968
 0.390000   44.723012   -58.383622
 0.395000   44.432282   -57.979863
 0.400000   44.143214   -57.727300
 0.405000   43.855009   -57.501432
 0.410000   43.568199   -57.281566
 0.415000   43.282193   -57.155099
 0.420000   42.996648   -57.165277
 0.425000   42.710540   -57.546125
 0.430000   42.421187   -58.505663
 0.435000   42.125484   -60.461643
 0.440000   41.816571   -63.922819
 0.445000   41.486256   -68.439246
 0.450000   41.132178   -73.554913
 0.455000   40.750706   -79.180136
 0.460000   40.340377   -85.130324
 0.465000   39.899403   -91.297198
 0.470000   39.427405   -97.126902
 0.475000   38.928134   -101.633489
 0.480000   38.411070   -104.441252
 0.485000   37.883722   -105.545704
 0.490000   37.355613   -104.795981
 0.495000   36.835762   -101.942291
 0.500000   36.336190   -96.834550
 0.505000   35.867416   -90.357965
 0.510000   35.432610   -83.332065
 0.515000   35.034096   -76.012774
 0.520000   34.672483   -68.754376
 0.525000   34.346552   -61.761203
 0.530000   34.054871   -55.875380
 0.535000   33.787798   -51.857184
 0.540000   33.536299   -49.400618
 0.545000   33.293792   -48.215189
 0.550000   33.054147   -48.084798
 0.555000   32.812944   -49.023028
 0.560000   32.563917   -50.773282
 0.565000   32.305211   -52.740410
 0.570000   32.036513   -54.692339
 0.575000   31.758288   -56.523846
 0.580000   31.471274   -58.154847
 0.585000   31.176739   -59.531092
 0.590000   30.875963   -60.303561
 0.595000   30.573704   -60.358238
 0.600000   30.272381   -60.023983
 0.605000   29.973464   -59.454363
 0.610000   29.677837   -58.859876
 0.615000   29.384865   -58.406903
 0.620000   29.093768   -58.337267
 0.625000   28.801492   -58.783819
 0.630000   28.505930   -59.738504
 0.635000   28.204107   -61.299695
 0.640000   27.892933   -63.226748
 0.645000   27.571840   -65.361061
 0.650000   27.239322   -67.472660
 0.655000   26.897113   -69.413800
 0.660000   26.545184   -71.208116
 0.665000   26.185032   -72.758589
 0.670000   25.817598   -74.153453
 0.675000   25.443498   -75.430524
 0.680000   25.063293   -76.673684
 0.685000   24.676761   -78.242622
 0.690000   24.280867   -80.273889
 0.695000   23.874022   -82.540034
 0.700000   23.455467   -84.740754
 0.705000   23.026614   -86.581722
 0.710000   22.589649   -87.941001
 0.715000   22.147204   -88.520525
 0.720000   21.704444   -88.314846
 0.725000   21.264056   -87.618759
 0.730000   20.828257   -86.519471
 0.735000   20.398861   -85.219761
 0.740000   19.976059   -84.060827
 0.745000   19.558253   -83.051340
 0.750000   19.145546   -82.114810
 0.755000   18.737105   -81.280536
 0.760000   18.332740   -80.589568
 0.765000   17.931209   -79.946030
 0.770000   17.533280   -79.213633
 0.775000   17.139073   -78.488059
 0.780000   16.748399   -77.577057
 0.785000   16.363302   -76.214964
 0.790000   15.986250   -74.429033
 0.795000   15.619012   -72.425142
 0.800000   15.261998   -70.521055
 0.805000   14.913801   -68.874922
 0.810000   14.573249   -67.494909
 0.815000   14.238852   -66.786818
 0.820000   13.905381   -67.154520
 0.825000   13.567307   -68.216075
 0.830000   13.223220   -69.750068
 0.835000   12.869806   -71.790999
 0.840000   12.505310   -74.087824
 0.845000   12.128928   -76.444289
 0.850000   11.740867   -78.760278
 0.855000   11.341325   -81.365836
 0.860000   10.927209   -84.474824
 0.865000   10.496577   -88.165651
 0.870000   10.045552   -92.818833
 0.875000   9.568389   -98.610903
 0.880000   9.059443   -105.438532
 0.885000   8.514003   -113.116914
 0.890000   7.928274   -121.466736
 0.895000   7.299336   -130.617352
 0.900000   6.622101   -139.488464
 0.905000   5.904451   -146.930622
 0.910000   5.152794   -152.951772
 0.915000   4.374934   -157.201774
 0.920000   3.580777   -159.002580
 0.925000   2.784908   -157.879374
 0.930000   2.001983   -151.750641
 0.935000   1.267402   -139.925184
 0.940000   0.602731   -122.351229
 0.945000   0.043889   -96.891649
 0.950000   -0.366185   -63.566190
 0.955000   -0.591773   -25.801656
 0.960000   -0.624202   11.630265
 0.965000   -0.475470   44.301670
 0.970000   -0.181185   62.018166
 0.975000   0.144712   55.756063
 0.980000   0.376375   32.971918
 0.985000   0.474431   26.910248
 0.990000   0.645478   102.083916
 0.995000   1.495270   325.455381
 1.000000   3.900032   636.449315
201 psinorm omgpp(kRad/s) domgpp/dpsiN
 0.000000   -0.048541   -24.174885
 0.005000   -0.195672   -34.677614
 0.010000   -0.395317   -40.319053
 0.015000   -0.598863   -41.066105
 0.020000   -0.805978   -41.743638
 0.025000   -1.016299   -42.341800
 0.030000   -1.229396   -42.853650
 0.035000   -1.444836   -43.275035
 0.040000   -1.662147   -43.599735
 0.045000   -1.880833   -43.820754
 0.050000   -2.100354   -43.915345
 0.055000   -2.319986   -43.832670
 0.060000   -2.538681   -43.587773
 0.065000   -2.755864   -43.190305
 0.070000   -2.970584   -42.607934
 0.075000   -3.181944   -41.843746
 0.080000   -3.389021   -40.849121
 0.085000   -3.590435   -39.541761
 0.090000   -3.784439   -38.239473
 0.095000   -3.972829   -36.943616
 0.100000   -4.153875   -35.427590
 0.105000   -4.327105   -33.832231
 0.110000   -4.492197   -32.147683
 0.115000   -4.648582   -30.268287
 0.120000   -4.794880   -28.730061
 0.125000   -4.935883   -27.422672
 0.130000   -5.069107   -25.907300
 0.135000   -5.194956   -24.473574
 0.140000   -5.313843   -23.111508
 0.145000   -5.426071   -21.669932
 0.150000   -5.530542   -20.215199
 0.155000   -5.628223   -18.710966
 0.160000   -5.717652   -17.050113
 0.165000   -5.798724   -15.363768
 0.170000   -5.871289   -13.641199
 0.175000   -5.935136   -11.742414
 0.180000   -5.988714   -9.800393
 0.185000   -6.033140   -7.924806
 0.190000   -6.067962   -5.999346
 0.195000   -6.093133   -4.075385
 0.200000   -6.108715   -2.167612
 0.205000   -6.114810   -0.119615
 0.210000   -6.109912   1.542041
 0.215000   -6.099389   2.587994
 0.220000   -6.084032   3.474029
 0.225000   -6.064649   4.178743
 0.230000   -6.042244   4.701007
 0.235000   -6.017639   4.715135
 0.240000   -5.995093   4.587538
 0.245000   -5.971763   4.936838
 0.250000   -5.945724   5.451961
 0.255000   -5.917244   6.033483
 0.260000   -5.885390   6.826690
 0.265000   -5.848977   7.495974
 0.270000   -5.810430   8.850290
 0.275000   -5.760474   11.199096
 0.280000   -5.698439   13.371989
 0.285000   -5.626754   15.318060
 0.290000   -5.545258   17.279973
 0.295000   -5.453954   19.270060
 0.300000   -5.352558   21.446505
 0.305000   -5.239489   23.557162
 0.310000   -5.116986   25.403200
 0.315000   -4.985457   27.096417
 0.320000   -4.846022   28.479811
 0.325000   -4.700659   29.532751
 0.330000   -4.550694   29.699087
 0.335000   -4.403668   28.623592
 0.340000   -4.264459   27.358705
 0.345000   -4.130081   26.351219
 0.350000   -4.000946   25.281866
 0.355000   -3.877263   24.081483
 0.360000   -3.760132   22.592608
 0.365000   -3.651337   21.455746
 0.370000   -3.545574   20.794712
 0.375000   -3.443389   20.141773
 0.380000   -3.344156   19.617800
 0.385000   -3.247211   19.098192
 0.390000   -3.153174   18.655169
 0.395000   -3.060660   19.465825
 0.400000   -2.958516   20.879308
 0.405000   -2.851867   21.731490
 0.410000   -2.741201   22.462891
 0.415000   -2.627238   23.084551
 0.420000   -2.510356   24.027047
 0.425000   -2.386967   24.415984
 0.430000   -2.266196   23.873860
 0.435000   -2.148229   23.137476
 0.440000   -2.034821   22.093002
 0.445000   -1.927299   20.834706
 0.450000   -1.826474   19.917883
 0.455000   -1.728120   18.298678
 0.460000   -1.643487   16.134853
 0.465000   -1.566771   14.541485
 0.470000   -1.498072   12.932025
 0.475000   -1.437451   11.313195
 0.480000   -1.384940   9.677778
 0.485000   -1.340673   7.833950
 0.490000   -1.306601   6.006893
 0.495000   -1.280604   4.484049
 0.500000   -1.261761   3.174870
 0.505000   -1.248856   2.135961
 0.510000   -1.240401   1.360855
 0.515000   -1.235247   0.947257
 0.520000   -1.230928   0.565604
 0.525000   -1.229591   -0.107896
 0.530000   -1.232007   -0.884829
 0.535000   -1.238439   -1.692372
 0.540000   -1.248931   -2.463104
 0.545000   -1.263070   -3.202222
 0.550000   -1.280953   -3.937742
 0.555000   -1.302448   -4.632088
 0.560000   -1.327274   -5.277872
 0.565000   -1.355227   -5.882553
 0.570000   -1.386100   -6.418506
 0.575000   -1.419412   -6.931537
 0.580000   -1.455415   -7.460343
 0.585000   -1.494015   -7.941895
 0.590000   -1.534834   -8.365456
 0.595000   -1.577670   -8.747199
 0.600000   -1.622306   -9.081333
 0.605000   -1.668483   -9.371705
 0.610000   -1.716023   -9.591455
 0.615000   -1.764397   -9.716190
 0.620000   -1.813185   -9.774256
 0.625000   -1.862140   -9.795948
 0.630000   -1.911144   -9.836742
 0.635000   -1.960507   -10.006999
 0.640000   -2.011214   -10.244893
 0.645000   -2.062956   -10.462814
 0.650000   -2.115843   -10.687065
 0.655000   -2.169827   -10.891474
 0.660000   -2.224757   -11.128741
 0.665000   -2.281114   -11.426440
 0.670000   -2.339022   -11.402938
 0.675000   -2.395144   -11.175406
 0.680000   -2.450776   -11.050102
 0.685000   -2.505645   -10.919918
 0.690000   -2.559975   -11.044703
 0.695000   -2.616092   -12.154448
 0.700000   -2.681519   -13.090303
 0.705000   -2.746995   -13.301268
 0.710000   -2.814532   -13.646620
 0.715000   -2.883461   -13.839259
 0.720000   -2.952925   -13.928048
 0.725000   -3.022742   -14.508049
 0.730000   -3.098005   -13.527491
 0.735000   -3.158016   -11.229208
 0.740000   -3.210297   -9.465500
 0.745000   -3.252671   -7.264417
 0.750000   -3.282941   -4.636891
 0.755000   -3.299040   -1.597192
 0.760000   -3.298913   2.081517
 0.765000   -3.278225   5.647978
 0.770000   -3.242434   8.617928
 0.775000   -3.192046   11.418741
 0.780000   -3.128246   13.901901
 0.785000   -3.053027   16.540519
 0.790000   -2.962841   17.903159
 0.795000   -2.873995   17.850279
 0.800000   -2.784338   17.879014
 0.805000   -2.695205   17.565689
 0.810000   -2.608681   16.849757
 0.815000   -2.526708   16.007336
 0.820000   -2.448608   14.284267
 0.825000   -2.383865   11.936383
 0.830000   -2.329244   10.203287
 0.835000   -2.281832   8.953026
 0.840000   -2.239714   8.059076
 0.845000   -2.201241   7.414752
 0.850000   -2.165566   6.833083
 0.855000   -2.132910   5.963607
 0.860000   -2.105930   4.469697
 0.865000   -2.088214   2.269516
 0.870000   -2.083235   -0.632754
 0.875000   -2.094541   -4.702818
 0.880000   -2.130263   -9.932762
 0.885000   -2.193869   -15.175394
 0.890000   -2.282017   -20.432986
 0.895000   -2.398199   -26.234114
 0.900000   -2.544358   -32.553161
 0.905000   -2.723730   -41.591874
 0.910000   -2.960277   -53.499349
 0.915000   -3.258724   -63.725727
 0.920000   -3.597534   -74.180025
 0.925000   -4.000524   -87.744140
 0.930000   -4.474976   -102.955271
 0.935000   -5.030077   -123.822616
 0.940000   -5.713202   -151.763784
 0.945000   -6.547714   -175.403297
 0.950000   -7.467235   -200.577824
 0.955000   -8.553493   -236.280255
 0.960000   -9.830037   -274.637361
 0.965000   -11.299866   -314.038116
 0.970000   -12.970419   -346.625341
 0.975000   -14.766120   -330.592335
 0.980000   -16.276342   -260.513579
 0.985000   -17.371255   -156.050848
 0.990000   -17.836850   -15.567276
 0.995000   -17.526928   138.556338
 1.000000   -16.451287   291.700147
201 psinorm omgeb(kRad/s) domgeb/dpsiN
 0.000000   55.247190   45.741625
 0.005000   55.378630   6.834263
 0.010000   55.315533   -14.477051
 0.015000   55.233859   -17.590156
 0.020000   55.139631   -19.821824
 0.025000   55.035641   -22.032527
 0.030000   54.919306   -24.820587
 0.035000   54.787435   -27.621843
 0.040000   54.643088   -30.369938
 0.045000   54.483736   -33.011565
 0.050000   54.312972   -35.242741
 0.055000   54.131309   -36.835837
 0.060000   53.944614   -37.639282
 0.065000   53.754916   -38.377479
 0.070000   53.560839   -38.675495
 0.075000   53.368161   -38.407524
 0.080000   53.176764   -37.813099
 0.085000   52.990030   -36.882213
 0.090000   52.807941   -36.101542
 0.095000   52.629014   -35.534525
 0.100000   52.452596   -35.137496
 0.105000   52.277639   -34.883371
 0.110000   52.103762   -34.868506
 0.115000   51.928954   -34.979669
 0.120000   51.753966   -35.533021
 0.125000   51.573624   -36.363584
 0.130000   51.390330   -36.904373
 0.135000   51.204580   -37.497991
 0.140000   51.015350   -38.282223
 0.145000   50.821758   -38.799162
 0.150000   50.627358   -39.200981
 0.155000   50.429748   -39.415625
 0.160000   50.233202   -39.525238
 0.165000   50.034496   -39.686245
 0.170000   49.836340   -39.916299
 0.175000   49.635333   -40.183101
 0.180000   49.434509   -40.360198
 0.185000   49.231731   -40.713938
 0.190000   49.027369   -41.063567
 0.195000   48.821095   -41.359315
 0.200000   48.613776   -41.593850
 0.205000   48.405157   -41.860691
 0.210000   48.195169   -42.395346
 0.215000   47.981203   -43.091965
 0.220000   47.764250   -43.742121
 0.225000   47.543782   -44.171991
 0.230000   47.322530   -44.487055
 0.235000   47.098912   -44.999413
 0.240000   46.872536   -45.282419
 0.245000   46.646087   -45.106613
 0.250000   46.421469   -44.640390
 0.255000   46.199684   -43.909306
 0.260000   45.982376   -42.967078
 0.265000   45.770013   -42.261673
 0.270000   45.559760   -40.946234
 0.275000   45.360550   -38.629152
 0.280000   45.173468   -36.484712
 0.285000   44.995703   -34.605382
 0.290000   44.827414   -32.854231
 0.295000   44.667161   -31.193910
 0.300000   44.515475   -29.544227
 0.305000   44.371719   -28.122711
 0.310000   44.234248   -27.013226
 0.315000   44.101586   -26.265808
 0.320000   43.971590   -25.803907
 0.325000   43.843547   -25.616765
 0.330000   43.715422   -26.366935
 0.335000   43.579878   -28.316180
 0.340000   43.432261   -30.448035
 0.345000   43.275398   -32.320552
 0.350000   43.109055   -34.105678
 0.355000   42.934341   -35.777125
 0.360000   42.751284   -37.534405
 0.365000   42.558997   -38.708380
 0.370000   42.364200   -39.297369
 0.375000   42.166023   -39.716433
 0.380000   41.967036   -39.711650
 0.385000   41.768907   -39.719776
 0.390000   41.569838   -39.728453
 0.395000   41.371622   -38.514038
 0.400000   41.184698   -36.847992
 0.405000   41.003142   -35.769942
 0.410000   40.826998   -34.818675
 0.415000   40.654955   -34.070548
 0.420000   40.486293   -33.138230
 0.425000   40.323573   -33.130141
 0.430000   40.154991   -34.631803
 0.435000   39.977255   -37.324167
 0.440000   39.781750   -41.829817
 0.445000   39.558957   -47.604540
 0.450000   39.305704   -53.637030
 0.455000   39.022587   -60.881458
 0.460000   38.696890   -68.995471
 0.465000   38.332632   -76.755713
 0.470000   37.929332   -84.194877
 0.475000   37.490683   -90.320293
 0.480000   37.026129   -94.763473
 0.485000   36.543048   -97.711754
 0.490000   36.049012   -98.789088
 0.495000   35.555158   -97.458243
 0.500000   35.074430   -93.659679
 0.505000   34.618561   -88.222005
 0.510000   34.192209   -81.971210
 0.515000   33.798849   -75.065517
 0.520000   33.441554   -68.188772
 0.525000   33.116961   -61.869099
 0.530000   32.822863   -56.760210
 0.535000   32.549359   -53.549556
 0.540000   32.287368   -51.863722
 0.545000   32.030722   -51.417411
 0.550000   31.773194   -52.022539
 0.555000   31.510496   -53.655116
 0.560000   31.236642   -56.051154
 0.565000   30.949985   -58.622963
 0.570000   30.650413   -61.110845
 0.575000   30.338876   -63.455383
 0.580000   30.015859   -65.615190
 0.585000   29.682724   -67.472987
 0.590000   29.341129   -68.669017
 0.595000   28.996034   -69.105437
 0.600000   28.650075   -69.105316
 0.605000   28.304981   -68.826069
 0.610000   27.961814   -68.451331
 0.615000   27.620468   -68.123093
 0.620000   27.280583   -68.111523
 0.625000   26.939352   -68.579766
 0.630000   26.594786   -69.575245
 0.635000   26.243600   -71.306694
 0.640000   25.881719   -73.471641
 0.645000   25.508884   -75.823876
 0.650000   25.123480   -78.159725
 0.655000   24.727286   -80.305274
 0.660000   24.320427   -82.336856
 0.665000   23.903918   -84.185029
 0.670000   23.478577   -85.556390
 0.675000   23.048354   -86.605929
 0.680000   22.612517   -87.723786
 0.685000   22.171116   -89.162540
 0.690000   21.720892   -91.318593
 0.695000   21.257930   -94.694482
 0.700000   20.773947   -97.831058
 0.705000   20.279619   -99.882990
 0.710000   19.775117   -101.587621
 0.715000   19.263743   -102.359785
 0.720000   18.751520   -102.242895
 0.725000   18.241314   -102.126808
 0.730000   17.730251   -100.046963
 0.735000   17.240845   -96.448970
 0.740000   16.765762   -93.526328
 0.745000   16.305581   -90.315757
 0.750000   15.862604   -86.751701
 0.755000   15.438064   -82.877728
 0.760000   15.033827   -78.508051
 0.765000   14.652984   -74.298052
 0.770000   14.290846   -70.595705
 0.775000   13.947027   -67.069318
 0.780000   13.620153   -63.675156
 0.785000   13.310275   -59.674445
 0.790000   13.023409   -56.525875
 0.795000   12.745017   -54.574863
 0.800000   12.477660   -52.642041
 0.805000   12.218596   -51.309233
 0.810000   11.964568   -50.645152
 0.815000   11.712145   -50.779481
 0.820000   11.456773   -52.870252
 0.825000   11.183442   -56.279692
 0.830000   10.893976   -59.546781
 0.835000   10.587974   -62.837974
 0.840000   10.265596   -66.028748
 0.845000   9.927687   -69.029537
 0.850000   9.575301   -71.927196
 0.855000   9.208415   -75.402229
 0.860000   8.821279   -80.005127
 0.865000   8.408364   -85.896135
 0.870000   7.962317   -93.451588
 0.875000   7.473848   -103.313721
 0.880000   6.929180   -115.371294
 0.885000   6.320135   -128.292308
 0.890000   5.646257   -141.899722
 0.895000   4.901138   -156.851467
 0.900000   4.077742   -172.041625
 0.905000   3.180721   -188.522496
 0.910000   2.192517   -206.451121
 0.915000   1.116210   -220.927501
 0.920000   -0.016758   -233.182605
 0.925000   -1.215616   -245.623514
 0.930000   -2.472993   -254.705912
 0.935000   -3.762675   -263.747801
 0.940000   -5.110471   -274.115013
 0.945000   -6.503825   -272.294946
 0.950000   -7.833420   -264.144014
 0.955000   -9.145265   -262.081911
 0.960000   -10.454239   -263.007095
 0.965000   -11.775336   -269.736446
 0.970000   -13.151604   -284.607175
 0.975000   -14.621408   -274.836272
 0.980000   -15.899967   -227.541661
 0.985000   -16.896825   -129.140600
 0.990000   -17.191373   86.516639
 0.995000   -16.031658   464.011719
 1.000000   -12.551255   928.149461
201 psinorm er(kV/m) der/dpsiN
 0.000000   0.613543   1137.862611
 0.005000   5.138225   672.010248
 0.010000   7.333646   385.654787
 0.015000   8.994773   308.229659
 0.020000   10.415942   264.883362
 0.025000   11.643607   233.466936
 0.030000   12.750612   211.652287
 0.035000   13.760130   193.982313
 0.040000   14.690435   179.444309
 0.045000   15.554573   167.238649
 0.050000   16.362821   155.668306
 0.055000   17.111256   145.116327
 0.060000   17.813985   136.739225
 0.065000   18.478648   130.846036
 0.070000   19.122445   124.403780
 0.075000   19.722686   115.973094
 0.080000   20.282176   112.550347
 0.085000   20.848189   108.261228
 0.090000   21.364788   102.294726
 0.095000   21.871137   100.440739
 0.100000   22.369196   93.826296
 0.105000   22.809400   91.784991
 0.110000   23.287045   87.639222
 0.115000   23.685792   84.172721
 0.120000   24.128773   81.106300
 0.125000   24.496855   77.300283
 0.130000   24.901775   74.069576
 0.135000   25.237551   71.132782
 0.140000   25.613103   67.482847
 0.145000   25.912379   65.377148
 0.150000   26.266875   61.529471
 0.155000   26.527674   59.751582
 0.160000   26.864391   56.981926
 0.165000   27.097493   53.610592
 0.170000   27.400496   53.908096
 0.175000   27.636574   48.754365
 0.180000   27.888040   49.676045
 0.185000   28.133334   44.209631
 0.190000   28.330136   45.139869
 0.195000   28.584733   40.104690
 0.200000   28.731183   37.441900
 0.205000   28.959152   40.385065
 0.210000   29.135034   33.434589
 0.215000   29.293498   35.684217
 0.220000   29.491876   29.331865
 0.225000   29.586817   27.039627
 0.230000   29.762272   30.806818
 0.235000   29.894885   23.395727
 0.240000   29.996230   25.025628
 0.245000   30.145141   22.323536
 0.250000   30.219465   18.877054
 0.255000   30.333912   23.901745
 0.260000   30.458483   17.515586
 0.265000   30.509068   16.940865
 0.270000   30.627891   21.618019
 0.275000   30.725248   16.445202
 0.280000   30.792343   18.842772
 0.285000   30.913675   20.806721
 0.290000   31.000410   16.906515
 0.295000   31.082741   20.351999
 0.300000   31.203930   19.968668
 0.305000   31.282427   17.171644
 0.310000   31.375647   21.078789
 0.315000   31.493215   18.790311
 0.320000   31.563550   16.146080
 0.325000   31.654676   19.581515
 0.330000   31.759365   15.867891
 0.335000   31.813355   11.884550
 0.340000   31.878211   13.303506
 0.345000   31.946390   9.044442
 0.350000   31.968655   5.262097
 0.355000   31.999011   6.400492
 0.360000   32.032660   2.928442
 0.365000   32.028295   -0.494274
 0.370000   32.027717   0.716067
 0.375000   32.035456   -0.769141
 0.380000   32.020026   -3.479927
 0.385000   32.000657   -2.607534
 0.390000   31.993950   -2.721840
 0.395000   31.973438   -4.633195
 0.400000   31.947618   -3.181670
 0.405000   31.941622   -1.514347
 0.410000   31.932475   -3.629235
 0.415000   31.905329   -3.495991
 0.420000   31.897515   -1.243257
 0.425000   31.892897   -3.954871
 0.430000   31.857966   -6.139553
 0.435000   31.831501   -6.828934
 0.440000   31.789677   -12.046695
 0.445000   31.711034   -18.113754
 0.450000   31.608540   -22.591320
 0.455000   31.485121   -28.848166
 0.460000   31.320058   -37.145341
 0.465000   31.113668   -43.910421
 0.470000   30.880954   -49.708301
 0.475000   30.616585   -56.508263
 0.480000   30.315871   -61.107024
 0.485000   30.005514   -63.195375
 0.490000   29.683917   -65.281450
 0.495000   29.352700   -65.462160
 0.500000   29.029296   -62.518470
 0.505000   28.727515   -58.327636
 0.510000   28.446019   -54.498806
 0.515000   28.182527   -49.319907
 0.520000   27.952820   -43.332808
 0.525000   27.749199   -39.133787
 0.530000   27.561482   -35.655169
 0.535000   27.392647   -32.761537
 0.540000   27.233867   -31.687751
 0.545000   27.075770   -32.348578
 0.550000   26.910381   -33.158075
 0.555000   26.744189   -34.260092
 0.560000   26.567780   -37.322557
 0.565000   26.370964   -40.161116
 0.570000   26.166169   -41.982982
 0.575000   25.951134   -44.382686
 0.580000   25.722342   -47.228652
 0.585000   25.478847   -49.060503
 0.590000   25.231737   -49.806253
 0.595000   24.980785   -51.184591
 0.600000   24.719891   -51.811597
 0.605000   24.462669   -51.240187
 0.610000   24.207489   -51.214857
 0.615000   23.950520   -51.930342
 0.620000   23.688186   -52.121058
 0.625000   23.429310   -52.135972
 0.630000   23.166826   -53.860804
 0.635000   22.890701   -56.029914
 0.640000   22.606527   -57.629934
 0.645000   22.314402   -59.729083
 0.650000   22.009236   -62.864292
 0.655000   21.685759   -65.017649
 0.660000   21.359060   -66.264655
 0.665000   21.023113   -68.553284
 0.670000   20.673527   -70.566825
 0.675000   20.317444   -71.354607
 0.680000   19.959981   -72.064241
 0.685000   19.596802   -74.444520
 0.690000   19.215536   -76.780949
 0.695000   18.828993   -79.164858
 0.700000   18.423887   -82.283823
 0.705000   18.006154   -85.112297
 0.710000   17.572764   -86.689047
 0.715000   17.139264   -86.860486
 0.720000   16.704159   -87.568897
 0.725000   16.263575   -88.154334
 0.730000   15.822616   -85.937354
 0.735000   15.404201   -82.479511
 0.740000   14.997821   -81.061736
 0.745000   14.593584   -78.504409
 0.750000   14.212777   -74.520254
 0.755000   13.848381   -71.393968
 0.760000   13.498837   -68.417008
 0.765000   13.164211   -64.580675
 0.770000   12.853030   -60.651565
 0.775000   12.557696   -58.129689
 0.780000   12.271733   -55.646694
 0.785000   12.001229   -51.690523
 0.790000   11.754828   -48.573506
 0.795000   11.515494   -47.616731
 0.800000   11.278661   -46.133148
 0.805000   11.054162   -44.384516
 0.810000   10.834816   -43.865644
 0.815000   10.615506   -44.671526
 0.820000   10.388101   -46.628350
 0.825000   10.149222   -49.283391
 0.830000   9.895267   -52.560558
 0.835000   9.623617   -56.023490
 0.840000   9.335032   -58.865000
 0.845000   9.034967   -61.375229
 0.850000   8.721279   -64.425780
 0.855000   8.390709   -67.907414
 0.860000   8.042205   -71.950514
 0.865000   7.671204   -77.267478
 0.870000   7.269531   -84.644987
 0.875000   6.824754   -93.857674
 0.880000   6.330954   -104.661306
 0.885000   5.778141   -116.592395
 0.890000   5.165030   -129.469363
 0.895000   4.483447   -143.283497
 0.900000   3.732195   -157.038225
 0.905000   2.913065   -172.344795
 0.910000   2.008747   -189.032830
 0.915000   1.022737   -202.257391
 0.920000   -0.013827   -213.383032
 0.925000   -1.111094   -225.350874
 0.930000   -2.267336   -234.095480
 0.935000   -3.452049   -242.180930
 0.940000   -4.689145   -251.623892
 0.945000   -5.968287   -255.275949
 0.950000   -7.241905   -249.254403
 0.955000   -8.460831   -243.177824
 0.960000   -9.673683   -245.177973
 0.965000   -10.912611   -270.319256
 0.970000   -12.376875   -285.066455
 0.975000   -13.763276   -258.978605
 0.980000   -14.966661   -217.043600
 0.985000   -15.933712   -136.041442
 0.990000   -16.327076   68.684842
 0.995000   -15.246863   436.508406
 1.000000   -11.961992   877.440224
201 psinorm ommvb() dommvb/dpsiN
 0.000000   -3.140207   21716.079310
 0.005000   87.208888   14423.558743
 0.010000   141.095380   9988.502728
 0.015000   187.093915   8390.369014
 0.020000   224.999070   7358.446239
 0.025000   260.678377   6601.130588
 0.030000   291.010376   5749.853693
 0.035000   318.176914   5029.635789
 0.040000   341.306734   4338.871085
 0.045000   361.565625   3854.936074
 0.050000   379.856095   3335.566775
 0.055000   394.921293   2902.996188
 0.060000   408.886056   2622.043124
 0.065000   421.141724   2290.717019
 0.070000   431.793227   1984.505106
 0.075000   440.986775   1700.119620
 0.080000   448.794423   1449.913344
 0.085000   455.485909   1206.494417
 0.090000   460.859367   918.996914
 0.095000   464.675878   718.106052
 0.100000   468.040428   578.338258
 0.105000   470.459260   398.606963
 0.110000   472.026497   146.147803
 0.115000   471.920738   -120.820328
 0.120000   470.818294   -238.627504
 0.125000   469.534463   -344.385175
 0.130000   467.374442   -501.471190
 0.135000   464.519751   -668.032120
 0.140000   460.694121   -836.373987
 0.145000   456.156012   -939.766634
 0.150000   451.296455   -1020.971714
 0.155000   445.946294   -1120.434430
 0.160000   440.092110   -1215.833579
 0.165000   433.787959   -1295.075027
 0.170000   427.141360   -1363.216739
 0.175000   420.155791   -1386.438192
 0.180000   413.276978   -1390.122948
 0.185000   406.254562   -1462.761221
 0.190000   398.649366   -1542.706390
 0.195000   390.827498   -1571.812870
 0.200000   382.931237   -1583.346767
 0.205000   374.994030   -1586.224544
 0.210000   367.068992   -1756.094748
 0.215000   357.433083   -1746.166239
 0.220000   349.607329   -1573.258897
 0.225000   341.700494   -1559.249307
 0.230000   334.014836   -1507.544016
 0.235000   326.625054   -1452.116973
 0.240000   319.493667   -1401.757618
 0.245000   312.607477   -1402.152470
 0.250000   305.472142   -1511.548571
 0.255000   297.491992   -1394.205014
 0.260000   291.530092   -1165.646111
 0.265000   285.835531   -1111.165410
 0.270000   280.418438   -1048.835034
 0.275000   275.347180   -1014.477162
 0.280000   270.273666   -1106.303309
 0.285000   264.284147   -1008.996306
 0.290000   260.183703   -795.106376
 0.295000   256.333083   -747.452486
 0.300000   252.709178   -699.747971
 0.305000   249.335604   -812.734751
 0.310000   244.581831   -745.228671
 0.315000   241.883317   -520.762818
 0.320000   239.374202   -487.100927
 0.325000   237.012308   -487.398354
 0.330000   234.500219   -574.132463
 0.335000   231.270983   -484.506999
 0.340000   229.655149   -308.256242
 0.345000   228.188421   -281.188457
 0.350000   226.843264   -329.487674
 0.355000   224.893544   -323.083200
 0.360000   223.612432   -211.895656
 0.365000   222.774587   -159.435466
 0.370000   222.018078   -174.364780
 0.375000   221.030940   -203.335916
 0.380000   219.984718   -144.552452
 0.385000   219.585415   -72.482833
 0.390000   219.259890   -70.057563
 0.395000   218.884839   -118.087183
 0.400000   218.079018   -92.146431
 0.405000   217.963375   -20.308734
 0.410000   217.875931   -24.527066
 0.415000   217.718104   -78.583489
 0.420000   217.090096   -60.470388
 0.425000   217.113401   4.457343
 0.430000   217.134670   -7.004640
 0.435000   217.043354   -69.105343
 0.440000   216.443616   -63.153141
 0.445000   216.411823   -9.924894
 0.450000   216.344367   -32.959003
 0.455000   216.082233   -93.274978
 0.460000   215.411617   -85.868350
 0.465000   215.223549   -42.850556
 0.470000   214.983112   -77.034363
 0.475000   214.453206   -129.637157
 0.480000   213.686740   -106.554152
 0.485000   213.387664   -61.036791
 0.490000   213.076372   -93.899780
 0.495000   212.448666   -124.240615
 0.500000   211.833966   -81.554674
 0.505000   211.633119   -36.606604
 0.510000   211.467900   -66.805704
 0.515000   210.965062   -75.799498
 0.520000   210.709905   -21.843492
 0.525000   210.746628   11.193918
 0.530000   210.821844   -22.982924
 0.535000   210.516798   -22.977332
 0.540000   210.592071   32.059258
 0.545000   210.837391   51.187651
 0.550000   211.103948   15.187929
 0.555000   210.989270   22.581788
 0.560000   211.329765   76.385668
 0.565000   211.753127   87.274136
 0.570000   212.202507   60.465790
 0.575000   212.357785   75.635763
 0.580000   212.958864   125.631754
 0.585000   213.614102   135.441837
 0.590000   214.313283   124.049596
 0.595000   214.854598   148.128931
 0.600000   215.794572   194.166045
 0.605000   216.796259   206.816937
 0.610000   217.862741   215.299987
 0.615000   218.949259   242.305782
 0.620000   220.285799   275.978664
 0.625000   221.709045   293.957174
 0.630000   223.225371   322.656301
 0.635000   224.935608   360.280616
 0.640000   226.828177   390.080285
 0.645000   228.836411   415.081130
 0.650000   230.978988   471.412474
 0.655000   233.550536   521.123947
 0.660000   236.190228   540.080048
 0.665000   238.951336   570.172549
 0.670000   241.891953   627.714898
 0.675000   245.228485   697.171389
 0.680000   248.863667   719.979908
 0.685000   252.428284   728.557030
 0.690000   256.149238   762.330670
 0.695000   260.051591   843.312062
 0.700000   264.582358   878.480213
 0.705000   268.836393   873.345231
 0.710000   273.315811   920.314475
 0.715000   278.039538   995.748366
 0.720000   283.273294   1080.532632
 0.725000   288.844864   1108.926455
 0.730000   294.362559   1134.990474
 0.735000   300.194769   1198.629709
 0.740000   306.348856   1296.792711
 0.745000   313.162696   1380.413662
 0.750000   320.152992   1408.100842
 0.755000   327.243704   1453.691682
 0.760000   334.689909   1524.873427
 0.765000   342.492439   1606.979921
 0.770000   350.759709   1691.226740
 0.775000   359.404706   1742.371265
 0.780000   368.183421   1796.054285
 0.785000   377.365249   1881.175417
 0.790000   386.995175   1972.308303
 0.795000   397.088332   2076.268174
 0.800000   407.757857   2162.768061
 0.805000   418.716013   2243.547344
 0.810000   430.193331   2347.292712
 0.815000   442.188940   2452.476941
 0.820000   454.718100   2562.015949
 0.825000   467.809099   2643.720347
 0.830000   481.155303   2722.156725
 0.835000   495.030666   2841.578062
 0.840000   509.571084   2969.026610
 0.845000   524.720933   3093.574436
 0.850000   540.506828   3226.998606
 0.855000   556.990919   3376.747789
 0.860000   574.274306   3511.069631
 0.865000   592.101615   3703.484951
 0.870000   611.309156   4128.686643
 0.875000   633.388481   4657.416999
 0.880000   657.883326   5175.154593
 0.885000   685.140027   5777.855742
 0.890000   715.661883   6484.604805
 0.895000   749.986075   7293.749997
 0.900000   788.599383   8216.876034
 0.905000   832.154836   9265.329557
 0.910000   881.252679   10405.071635
 0.915000   936.205552   11534.989517
 0.920000   996.602574   12313.330829
 0.925000   1059.338860   12753.693597
 0.930000   1124.139510   13352.493712
 0.935000   1192.863797   14322.873874
 0.940000   1267.368249   16448.970653
 0.945000   1357.353504   21977.070651
 0.950000   1487.138955   33487.923517
 0.955000   1692.232739   50942.026027
 0.960000   1996.559215   71378.454767
 0.965000   2406.017287   89421.649089
 0.970000   2890.775706   100642.510986
 0.975000   3412.442397   106286.829259
 0.980000   3953.643999   115436.488212
 0.985000   4566.807279   123703.710409
 0.990000   5190.681103   126130.597276
 0.995000   5828.113252   814245.705434
 1.000000   13333.138157   2187764.256853
201 psinorm ommpp() dommpp/dpsiN
 0.000000   58.387398   -21670.337685
 0.005000   -31.830258   -14416.724480
 0.010000   -85.779847   -10002.979779
 0.015000   -131.860055   -8407.959169
 0.020000   -169.859439   -7378.268063
 0.025000   -205.642736   -6623.163115
 0.030000   -236.091070   -5774.674281
 0.035000   -263.389479   -5057.257632
 0.040000   -286.663646   -4369.241024
 0.045000   -307.081889   -3887.947639
 0.050000   -325.543123   -3370.809515
 0.055000   -340.789984   -2939.832025
 0.060000   -354.941443   -2659.682406
 0.065000   -367.386808   -2329.094498
 0.070000   -378.232388   -2023.180601
 0.075000   -387.618614   -1738.527144
 0.080000   -395.617659   -1487.726444
 0.085000   -402.495879   -1243.376630
 0.090000   -408.051426   -955.098456
 0.095000   -412.046863   -753.640577
 0.100000   -415.587831   -613.475754
 0.105000   -418.181621   -433.490334
 0.110000   -419.922735   -181.016309
 0.115000   -419.991784   85.840658
 0.120000   -419.064328   203.094482
 0.125000   -417.960839   308.021591
 0.130000   -415.984112   464.566817
 0.135000   -413.315171   630.534129
 0.140000   -409.678771   798.091765
 0.145000   -405.334253   900.967472
 0.150000   -400.669096   981.770732
 0.155000   -395.516546   1081.018805
 0.160000   -389.858908   1176.308340
 0.165000   -383.753463   1255.388783
 0.170000   -377.305020   1323.300441
 0.175000   -370.520458   1346.255091
 0.180000   -363.842469   1349.762750
 0.185000   -357.022831   1422.047283
 0.190000   -349.621997   1501.642822
 0.195000   -342.006403   1530.453555
 0.200000   -334.317461   1541.752917
 0.205000   -326.588873   1544.363853
 0.210000   -318.873823   1713.699402
 0.215000   -309.451879   1703.074274
 0.220000   -301.843080   1529.516776
 0.225000   -294.156712   1515.077316
 0.230000   -286.692307   1463.056961
 0.235000   -279.526142   1407.117559
 0.240000   -272.621131   1356.475199
 0.245000   -265.961390   1357.045856
 0.250000   -259.050672   1466.908181
 0.255000   -251.292308   1350.295709
 0.260000   -245.547715   1122.679033
 0.265000   -240.065518   1068.903737
 0.270000   -234.858678   1007.888800
 0.275000   -229.986630   975.848010
 0.280000   -225.100198   1069.818597
 0.285000   -219.288444   974.390924
 0.290000   -215.356289   762.252145
 0.295000   -211.665922   716.258576
 0.300000   -208.193703   670.203743
 0.305000   -204.963885   784.612040
 0.310000   -200.347582   718.215446
 0.315000   -197.781730   494.497010
 0.320000   -195.402612   461.297020
 0.325000   -193.168760   461.781589
 0.330000   -190.784797   547.765528
 0.335000   -187.691105   456.190819
 0.340000   -186.222888   277.808206
 0.345000   -184.913023   248.867905
 0.350000   -183.734209   295.381996
 0.355000   -181.959203   287.306075
 0.360000   -180.861149   174.361251
 0.365000   -180.215590   120.727086
 0.370000   -179.653878   135.067410
 0.375000   -178.864916   163.619483
 0.380000   -178.017683   104.840801
 0.385000   -177.816508   32.763057
 0.390000   -177.690052   30.329110
 0.395000   -177.513217   79.573145
 0.400000   -176.894321   55.298439
 0.405000   -176.960233   -15.461209
 0.410000   -177.048933   -10.291609
 0.415000   -177.063149   44.512941
 0.420000   -176.603803   27.332158
 0.425000   -176.789827   -37.587484
 0.430000   -176.979678   -27.627163
 0.435000   -177.066099   31.781175
 0.440000   -176.661867   21.323324
 0.445000   -176.852866   -37.679646
 0.450000   -177.038663   -20.678028
 0.455000   -177.059646   32.393520
 0.460000   -176.714728   16.872879
 0.465000   -176.890917   -33.905157
 0.470000   -177.053779   -7.160514
 0.475000   -176.962522   39.316864
 0.480000   -176.660611   11.790679
 0.485000   -176.844616   -36.674962
 0.490000   -177.027360   -4.889309
 0.495000   -176.893509   26.782372
 0.500000   -176.759537   -12.105005
 0.505000   -177.014559   -51.615401
 0.510000   -177.275691   -15.165506
 0.515000   -177.166214   0.733981
 0.520000   -177.268351   -46.345280
 0.525000   -177.629667   -73.063017
 0.530000   -177.998981   -33.777286
 0.535000   -177.967439   -30.572224
 0.540000   -178.304703   -83.922980
 0.545000   -178.806669   -102.605062
 0.550000   -179.330754   -67.210468
 0.555000   -179.478774   -76.236904
 0.560000   -180.093123   -132.436822
 0.565000   -180.803142   -145.897099
 0.570000   -181.552094   -121.576635
 0.575000   -182.018908   -139.091146
 0.580000   -182.943005   -191.246945
 0.585000   -183.931378   -202.914824
 0.590000   -184.972154   -192.718613
 0.595000   -185.858564   -217.234369
 0.600000   -187.144497   -263.271361
 0.605000   -188.491278   -275.643006
 0.610000   -189.900927   -283.751319
 0.615000   -191.328791   -310.428875
 0.620000   -193.005216   -344.090188
 0.625000   -194.769693   -362.536940
 0.630000   -196.630586   -392.231547
 0.635000   -198.692008   -431.587311
 0.640000   -200.946459   -463.551926
 0.645000   -203.327527   -490.905006
 0.650000   -205.855509   -549.572199
 0.655000   -208.823249   -601.429221
 0.660000   -211.869801   -622.416905
 0.665000   -215.047418   -654.357577
 0.670000   -218.413377   -713.271288
 0.675000   -222.180131   -783.777319
 0.680000   -226.251150   -807.703694
 0.685000   -230.257168   -817.719570
 0.690000   -234.428346   -853.649263
 0.695000   -238.793661   -938.006544
 0.700000   -243.808411   -976.311271
 0.705000   -248.556774   -973.228220
 0.710000   -253.540693   -1021.902096
 0.715000   -258.775795   -1098.108151
 0.720000   -264.521775   -1182.775527
 0.725000   -270.603550   -1211.053263
 0.730000   -276.632307   -1235.037436
 0.735000   -282.953924   -1295.078678
 0.740000   -289.583094   -1390.319038
 0.745000   -296.857115   -1470.729420
 0.750000   -304.290388   -1494.852543
 0.755000   -311.805640   -1536.569409
 0.760000   -319.656082   -1603.381478
 0.765000   -327.839455   -1681.277973
 0.770000   -336.468862   -1761.822445
 0.775000   -345.457679   -1809.440583
 0.780000   -354.563268   -1859.729441
 0.785000   -364.054974   -1940.849862
 0.790000   -373.971767   -2028.834178
 0.795000   -384.343315   -2130.843038
 0.800000   -395.280197   -2215.410102
 0.805000   -406.497416   -2294.856577
 0.810000   -418.228763   -2397.937864
 0.815000   -430.476795   -2503.256422
 0.820000   -443.261327   -2614.886201
 0.825000   -456.625657   -2700.000039
 0.830000   -470.261327   -2781.703506
 0.835000   -484.442692   -2904.416036
 0.840000   -499.305488   -3035.055358
 0.845000   -514.793246   -3162.603974
 0.850000   -530.931527   -3298.925802
 0.855000   -547.782504   -3452.150018
 0.860000   -565.453028   -3591.074758
 0.865000   -583.693251   -3789.381087
 0.870000   -603.346838   -4222.138231
 0.875000   -625.914634   -4760.730720
 0.880000   -650.954146   -5290.525886
 0.885000   -678.819893   -5906.148049
 0.890000   -710.015626   -6626.504527
 0.895000   -745.084938   -7450.601464
 0.900000   -784.521641   -8388.917659
 0.905000   -828.974114   -9453.852053
 0.910000   -879.060161   -10611.522756
 0.915000   -935.089342   -11755.917018
 0.920000   -996.619332   -12546.513434
 0.925000   -1060.554476   -12999.317111
 0.930000   -1126.612503   -13607.199624
 0.935000   -1196.626473   -14586.621675
 0.940000   -1272.478719   -16723.085665
 0.945000   -1363.857329   -22249.365597
 0.950000   -1494.972375   -33752.067532
 0.955000   -1701.378005   -51204.107938
 0.960000   -2007.013455   -71641.461862
 0.965000   -2417.792623   -89691.385535
 0.970000   -2903.927310   -100927.118161
 0.975000   -3427.063805   -106561.665531
 0.980000   -3969.543965   -115664.029873
 0.985000   -4583.704103   -123832.851009
 0.990000   -5207.872475   -126044.080637
 0.995000   -5844.144910   -813781.693715
 1.000000   -13345.689413   -2186836.107392
201 psinorm omevb() domevb/dpsiN
 0.000000   33.817803   48.695557
 0.005000   33.968447   11.562225
 0.010000   33.933425   -8.773069
 0.015000   33.880716   -11.708623
 0.020000   33.816339   -13.763669
 0.025000   33.743080   -15.798697
 0.030000   33.658352   -18.412050
 0.035000   33.558959   -21.039585
 0.040000   33.447956   -23.614964
 0.045000   33.322810   -26.084899
 0.050000   33.187107   -28.145424
 0.055000   33.041355   -29.568931
 0.060000   32.891418   -30.203864
 0.065000   32.739317   -30.774645
 0.070000   32.583671   -30.906360
 0.075000   32.430253   -30.473217
 0.080000   32.278939   -29.714769
 0.085000   32.133105   -28.621023
 0.090000   31.992729   -27.678675
 0.095000   31.856319   -26.951178
 0.100000   31.723217   -26.394882
 0.105000   31.592370   -25.982718
 0.110000   31.463390   -25.811060
 0.115000   31.334259   -25.766690
 0.120000   31.205723   -26.165783
 0.125000   31.072601   -26.843378
 0.130000   30.937289   -27.232502
 0.135000   30.800276   -27.675774
 0.140000   30.660531   -28.310991
 0.145000   30.517166   -28.680263
 0.150000   30.373729   -28.935773
 0.155000   30.227809   -29.005481
 0.160000   30.083674   -28.971544
 0.165000   29.938093   -28.990397
 0.170000   29.793770   -29.079709
 0.175000   29.647296   -29.207191
 0.180000   29.501698   -29.246402
 0.185000   29.354832   -29.463701
 0.190000   29.207061   -29.678347
 0.195000   29.058049   -29.840578
 0.200000   28.908655   -29.943076
 0.205000   28.758618   -30.079368
 0.210000   28.607862   -30.484972
 0.215000   28.453768   -31.054048
 0.220000   28.297321   -31.578180
 0.225000   28.137986   -31.883553
 0.230000   27.978486   -32.075655
 0.235000   27.817230   -32.466597
 0.240000   27.653820   -32.629740
 0.245000   27.490932   -32.335631
 0.250000   27.330463   -31.752674
 0.255000   27.173406   -30.906432
 0.260000   27.021399   -29.850630
 0.265000   26.874899   -29.033241
 0.270000   26.731066   -27.607415
 0.275000   26.598825   -25.181549
 0.280000   26.479251   -22.929934
 0.285000   26.369526   -20.945044
 0.290000   26.269801   -19.089954
 0.295000   26.178626   -17.327319
 0.300000   26.096527   -15.576952
 0.305000   26.022857   -14.056388
 0.310000   25.955963   -12.849492
 0.315000   25.894362   -12.006309
 0.320000   25.835900   -11.450288
 0.325000   25.779859   -11.170677
 0.330000   25.724194   -11.830032
 0.335000   25.661559   -13.690118
 0.340000   25.587292   -15.734473
 0.345000   25.504214   -17.521151
 0.350000   25.412081   -19.222101
 0.355000   25.311993   -20.811038
 0.360000   25.203971   -22.487474
 0.365000   25.087118   -23.582272
 0.370000   24.968148   -24.093755
 0.375000   24.846181   -24.436979
 0.380000   24.723778   -24.358028
 0.385000   24.602600   -24.293654
 0.390000   24.480841   -24.231502
 0.395000   24.360285   -22.947926
 0.400000   24.251362   -21.214388
 0.405000   24.148142   -20.070513
 0.410000   24.050657   -19.055087
 0.415000   23.957591   -18.244466
 0.420000   23.868212   -17.251317
 0.425000   23.785078   -17.184057
 0.430000   23.696372   -18.628207
 0.435000   23.598795   -21.264716
 0.440000   23.483725   -25.716163
 0.445000   23.341634   -31.438334
 0.450000   23.169341   -37.419919
 0.455000   22.967435   -44.615084
 0.460000   22.723191   -52.681475
 0.465000   22.440620   -60.395731
 0.470000   22.119233   -67.790541
 0.475000   21.762714   -73.873229
 0.480000   21.380501   -78.275303
 0.485000   20.979961   -81.184095
 0.490000   20.568660   -82.223553
 0.495000   20.157726   -80.856438
 0.500000   19.760096   -77.023207
 0.505000   19.387494   -71.552459
 0.510000   19.044571   -65.270181
 0.515000   18.734792   -58.334587
 0.520000   18.461225   -51.429518
 0.525000   18.220497   -45.083091
 0.530000   18.010394   -39.949010
 0.535000   17.821007   -36.714720
 0.540000   17.643247   -35.006799
 0.545000   17.470939   -34.539941
 0.550000   17.297848   -35.126057
 0.555000   17.119678   -36.741145
 0.560000   16.930436   -39.121213
 0.565000   16.728466   -41.678560
 0.570000   16.513651   -44.153481
 0.575000   16.286931   -46.486549
 0.580000   16.048785   -48.636371
 0.585000   15.800568   -50.485655
 0.590000   15.543929   -51.674637
 0.595000   15.283821   -52.105466
 0.600000   15.022874   -52.101198
 0.605000   14.762809   -51.819241
 0.610000   14.504681   -51.443220
 0.615000   14.248377   -51.115115
 0.620000   13.993530   -51.105085
 0.625000   13.737326   -51.576263
 0.630000   13.477768   -52.576062
 0.635000   13.211566   -54.313206
 0.640000   12.934636   -56.485211
 0.645000   12.646713   -58.845857
 0.650000   12.346177   -61.191458
 0.655000   12.034799   -63.348089
 0.660000   11.712696   -65.392071
 0.665000   11.380878   -67.253948
 0.670000   11.040157   -68.640307
 0.675000   10.694475   -69.706122
 0.680000   10.343095   -70.841520
 0.685000   9.986060   -72.299064
 0.690000   9.620105   -74.475139
 0.695000   9.241308   -77.872262
 0.700000   8.841382   -81.031264
 0.705000   8.430996   -83.106787
 0.710000   8.010314   -84.836142
 0.715000   7.582634   -85.634123
 0.720000   7.153973   -85.544095
 0.725000   6.727193   -85.455850
 0.730000   6.299415   -83.404741
 0.735000   5.893146   -79.836266
 0.740000   5.501052   -76.943773
 0.745000   5.123708   -73.763778
 0.750000   4.763414   -70.230444
 0.755000   4.421404   -66.386962
 0.760000   4.099545   -62.047025
 0.765000   3.800934   -57.865307
 0.770000   3.520891   -54.188812
 0.775000   3.259046   -50.684520
 0.780000   3.014046   -47.306889
 0.785000   2.785977   -43.314676
 0.790000   2.580900   -40.163213
 0.795000   2.384345   -38.193366
 0.800000   2.198966   -36.219604
 0.805000   2.022148   -34.815450
 0.810000   1.850811   -34.038471
 0.815000   1.681764   -34.003469
 0.820000   1.510777   -35.848710
 0.825000   1.323277   -38.910359
 0.830000   1.121673   -41.693316
 0.835000   0.906344   -44.319916
 0.840000   0.678474   -46.609272
 0.845000   0.440251   -48.400981
 0.850000   0.194464   -49.694855
 0.855000   -0.056698   -51.067751
 0.860000   -0.316213   -52.952450
 0.865000   -0.586222   -55.385702
 0.870000   -0.870070   -58.633325
 0.875000   -1.172556   -63.277236
 0.880000   -1.502843   -69.264826
 0.885000   -1.865204   -75.563004
 0.890000   -2.258473   -82.740766
 0.895000   -2.692611   -92.991135
 0.900000   -3.188384   -108.078795
 0.905000   -3.773399   -134.098011
 0.910000   -4.529364   -179.615887
 0.915000   -5.569558   -253.037755
 0.920000   -7.059742   -375.313941
 0.925000   -9.322698   -575.474043
 0.930000   -12.814482   -880.837913
 0.935000   -18.131077   -1321.037019
 0.940000   -26.024852   -1902.970781
 0.945000   -37.160785   -2580.426335
 0.950000   -51.829116   -3286.400813
 0.955000   -70.024793   -3941.766873
 0.960000   -91.246785   -4425.172611
 0.965000   -114.276519   -4441.011597
 0.970000   -135.656901   -3302.870220
 0.975000   -147.305221   -341.579925
 0.980000   -139.072700   3614.077105
 0.985000   -111.164450   6156.581421
 0.990000   -77.506886   6059.992072
 0.995000   -50.564529   4570.199457
 1.000000   -31.804891   2933.655854
201 psinorm omepp() domepp/dpsiN
 0.000000   21.429388   -2.953932
 0.005000   21.410183   -4.727962
 0.010000   21.382108   -5.703982
 0.015000   21.353143   -5.881533
 0.020000   21.323293   -6.058155
 0.025000   21.292561   -6.233830
 0.030000   21.260954   -6.408537
 0.035000   21.228476   -6.582258
 0.040000   21.195132   -6.754974
 0.045000   21.160926   -6.926666
 0.050000   21.125865   -7.097317
 0.055000   21.089953   -7.266906
 0.060000   21.053196   -7.435418
 0.065000   21.015599   -7.602833
 0.070000   20.977168   -7.769135
 0.075000   20.937908   -7.934307
 0.080000   20.897825   -8.098330
 0.085000   20.856924   -8.261189
 0.090000   20.815213   -8.422867
 0.095000   20.772696   -8.583348
 0.100000   20.729379   -8.742615
 0.105000   20.685270   -8.900653
 0.110000   20.640373   -9.057446
 0.115000   20.594695   -9.212979
 0.120000   20.548243   -9.367238
 0.125000   20.501023   -9.520207
 0.130000   20.453041   -9.671871
 0.135000   20.404304   -9.822218
 0.140000   20.354819   -9.971231
 0.145000   20.304592   -10.118899
 0.150000   20.253630   -10.265208
 0.155000   20.201940   -10.410144
 0.160000   20.149528   -10.553695
 0.165000   20.096403   -10.695847
 0.170000   20.042570   -10.836590
 0.175000   19.988037   -10.975910
 0.180000   19.932811   -11.113796
 0.185000   19.876899   -11.250237
 0.190000   19.820308   -11.385220
 0.195000   19.763047   -11.518736
 0.200000   19.705121   -11.650774
 0.205000   19.646539   -11.781324
 0.210000   19.587308   -11.910374
 0.215000   19.527435   -12.037917
 0.220000   19.466929   -12.163941
 0.225000   19.405796   -12.288438
 0.230000   19.344044   -12.411399
 0.235000   19.281682   -12.532816
 0.240000   19.218716   -12.652679
 0.245000   19.155155   -12.770982
 0.250000   19.091006   -12.887716
 0.255000   19.026278   -13.002874
 0.260000   18.960977   -13.116448
 0.265000   18.895113   -13.228432
 0.270000   18.828693   -13.338819
 0.275000   18.761725   -13.447603
 0.280000   18.694217   -13.554778
 0.285000   18.626177   -13.660338
 0.290000   18.557614   -13.764277
 0.295000   18.488535   -13.866591
 0.300000   18.418948   -13.967275
 0.305000   18.348862   -14.066324
 0.310000   18.278285   -14.163733
 0.315000   18.207224   -14.259499
 0.320000   18.135690   -14.353619
 0.325000   18.063688   -14.446088
 0.330000   17.991229   -14.536903
 0.335000   17.918319   -14.626062
 0.340000   17.844968   -14.713562
 0.345000   17.771184   -14.799401
 0.350000   17.696974   -14.883576
 0.355000   17.622348   -14.966087
 0.360000   17.547313   -15.046931
 0.365000   17.471879   -15.126107
 0.370000   17.396052   -15.203615
 0.375000   17.319842   -15.279453
 0.380000   17.243258   -15.353622
 0.385000   17.166306   -15.426122
 0.390000   17.088996   -15.496951
 0.395000   17.011337   -15.566112
 0.400000   16.933335   -15.633604
 0.405000   16.855001   -15.699429
 0.410000   16.776341   -15.763588
 0.415000   16.697365   -15.826082
 0.420000   16.618080   -15.886913
 0.425000   16.538496   -15.946084
 0.430000   16.458619   -16.003596
 0.435000   16.378460   -16.059452
 0.440000   16.298025   -16.113654
 0.445000   16.217323   -16.166206
 0.450000   16.136363   -16.217112
 0.455000   16.055152   -16.266373
 0.460000   15.973699   -16.313995
 0.465000   15.892012   -16.359982
 0.470000   15.810099   -16.404337
 0.475000   15.727969   -16.447065
 0.480000   15.645629   -16.488170
 0.485000   15.563087   -16.527659
 0.490000   15.480352   -16.565535
 0.495000   15.397432   -16.601804
 0.500000   15.314334   -16.636472
 0.505000   15.231067   -16.669545
 0.510000   15.147638   -16.701029
 0.515000   15.064057   -16.730930
 0.520000   14.980329   -16.759254
 0.525000   14.896464   -16.786009
 0.530000   14.812469   -16.811200
 0.535000   14.728352   -16.834836
 0.540000   14.644121   -16.856923
 0.545000   14.559783   -16.877470
 0.550000   14.475346   -16.896483
 0.555000   14.390818   -16.913971
 0.560000   14.306206   -16.929941
 0.565000   14.221519   -16.944403
 0.570000   14.136762   -16.957364
 0.575000   14.051945   -16.968833
 0.580000   13.967074   -16.978820
 0.585000   13.882157   -16.987332
 0.590000   13.797201   -16.994379
 0.595000   13.712213   -16.999972
 0.600000   13.627201   -17.004118
 0.605000   13.542172   -17.006827
 0.610000   13.457133   -17.008111
 0.615000   13.372091   -17.007978
 0.620000   13.287053   -17.006439
 0.625000   13.202026   -17.003504
 0.630000   13.117018   -16.999183
 0.635000   13.032034   -16.993489
 0.640000   12.947083   -16.986430
 0.645000   12.862170   -16.978019
 0.650000   12.777303   -16.968267
 0.655000   12.692487   -16.957185
 0.660000   12.607731   -16.944785
 0.665000   12.523040   -16.931081
 0.670000   12.438420   -16.916083
 0.675000   12.353879   -16.899807
 0.680000   12.269422   -16.882266
 0.685000   12.185056   -16.863476
 0.690000   12.100787   -16.843454
 0.695000   12.016622   -16.822219
 0.700000   11.932565   -16.799793
 0.705000   11.848624   -16.776203
 0.710000   11.764803   -16.751479
 0.715000   11.681109   -16.725661
 0.720000   11.597546   -16.698800
 0.725000   11.514121   -16.670958
 0.730000   11.430837   -16.642222
 0.735000   11.347699   -16.612704
 0.740000   11.264710   -16.582555
 0.745000   11.181873   -16.551980
 0.750000   11.099190   -16.521257
 0.755000   11.016661   -16.490766
 0.760000   10.934282   -16.461026
 0.765000   10.852050   -16.432745
 0.770000   10.769955   -16.406894
 0.775000   10.687981   -16.384798
 0.780000   10.606107   -16.368267
 0.785000   10.524299   -16.359770
 0.790000   10.442509   -16.362661
 0.795000   10.360672   -16.381497
 0.800000   10.278694   -16.422437
 0.805000   10.196448   -16.493783
 0.810000   10.113756   -16.606681
 0.815000   10.030381   -16.776012
 0.820000   9.945996   -17.021542
 0.825000   9.860165   -17.369333
 0.830000   9.772303   -17.853466
 0.835000   9.681631   -18.518057
 0.840000   9.587122   -19.419476
 0.845000   9.487436   -20.628556
 0.850000   9.380837   -22.232341
 0.855000   9.265113   -24.334478
 0.860000   9.137492   -27.052677
 0.865000   8.994586   -30.510433
 0.870000   8.832388   -34.818263
 0.875000   8.646403   -40.036485
 0.880000   8.432023   -46.106468
 0.885000   8.185339   -52.729304
 0.890000   7.904730   -59.158956
 0.895000   7.593749   -63.860331
 0.900000   7.266127   -63.962830
 0.905000   6.954121   -54.424485
 0.910000   6.721882   -26.835234
 0.915000   6.685768   32.110254
 0.920000   7.042984   142.131336
 0.925000   8.107082   329.850529
 0.930000   10.341490   626.132001
 0.935000   14.368402   1057.289219
 0.940000   20.914382   1628.855768
 0.945000   30.656959   2308.131389
 0.950000   43.995696   3022.256799
 0.955000   60.879527   3679.684963
 0.960000   80.792545   4162.165516
 0.965000   102.501183   4171.275151
 0.970000   122.505297   3018.263045
 0.975000   132.683813   66.743653
 0.980000   123.172733   -3841.618766
 0.985000   94.267625   -6285.722021
 0.990000   60.315513   -5973.475433
 0.995000   34.532871   -4106.187738
 1.000000   19.253636   -2005.506393
201 psinorm kpol(km/s/T) dkpol/dpsiN
 0.000000   0.000000   70.522792
 0.005000   0.284261   43.181778
 0.010000   0.431818   28.373067
 0.015000   0.567992   26.678705
 0.020000   0.698605   25.853491
 0.025000   0.826527   25.052781
 0.030000   0.949133   23.651638
 0.035000   1.063043   22.240486
 0.040000   1.171538   20.887801
 0.045000   1.271921   19.654011
 0.050000   1.368078   18.831373
 0.055000   1.460235   18.604898
 0.060000   1.554127   19.149426
 0.065000   1.651729   19.642221
 0.070000   1.750549   20.387056
 0.075000   1.855600   21.531150
 0.080000   1.965860   22.805729
 0.085000   2.083657   24.112467
 0.090000   2.206985   25.258353
 0.095000   2.336241   26.183989
 0.100000   2.468825   26.650325
 0.105000   2.602744   26.835905
 0.110000   2.737184   26.622159
 0.115000   2.868966   25.980750
 0.120000   2.996991   25.144772
 0.125000   3.120413   24.180100
 0.130000   3.238792   23.231452
 0.135000   3.352728   22.308606
 0.140000   3.461878   21.327499
 0.145000   3.566003   20.634438
 0.150000   3.668223   20.092763
 0.155000   3.766930   19.736332
 0.160000   3.865586   19.328381
 0.165000   3.960214   18.854867
 0.170000   4.054135   18.283431
 0.175000   4.143049   17.449330
 0.180000   4.228628   16.639359
 0.185000   4.309442   15.642183
 0.190000   4.385050   14.515722
 0.195000   4.454599   13.361697
 0.200000   4.518667   12.198973
 0.205000   4.576589   10.719238
 0.210000   4.625859   9.253087
 0.215000   4.669120   8.183402
 0.220000   4.707693   7.142488
 0.225000   4.740545   6.270146
 0.230000   4.770395   5.482707
 0.235000   4.795372   4.866804
 0.240000   4.819063   4.476681
 0.245000   4.840139   3.841936
 0.250000   4.857482   3.132653
 0.255000   4.871465   2.389954
 0.260000   4.881382   1.539755
 0.265000   4.886863   0.540950
 0.270000   4.886791   -0.662765
 0.275000   4.880235   -1.945650
 0.280000   4.867335   -3.286220
 0.285000   4.847373   -4.762732
 0.290000   4.819707   -6.330487
 0.295000   4.784068   -7.834261
 0.300000   4.741365   -9.470479
 0.305000   4.689363   -11.185710
 0.310000   4.629508   -12.825129
 0.315000   4.561112   -14.603469
 0.320000   4.483473   -16.315007
 0.325000   4.397962   -18.005099
 0.330000   4.303422   -19.811205
 0.335000   4.199850   -21.617803
 0.340000   4.087244   -23.473448
 0.345000   3.965115   -25.374273
 0.350000   3.833501   -27.148006
 0.355000   3.693635   -28.682307
 0.360000   3.546678   -30.014488
 0.365000   3.393491   -31.104608
 0.370000   3.235632   -32.110696
 0.375000   3.072384   -32.963735
 0.380000   2.905995   -33.485821
 0.385000   2.737525   -34.080311
 0.390000   2.565192   -34.817272
 0.395000   2.389353   -35.632516
 0.400000   2.208867   -36.682648
 0.405000   2.022526   -37.805605
 0.410000   1.830810   -38.960869
 0.415000   1.632917   -40.235230
 0.420000   1.428458   -41.685503
 0.425000   1.216062   -43.632375
 0.430000   0.992134   -46.348252
 0.435000   0.752580   -50.373046
 0.440000   0.488404   -56.336088
 0.445000   0.189219   -63.608033
 0.450000   -0.147676   -71.615089
 0.455000   -0.526932   -80.268353
 0.460000   -0.950360   -89.344134
 0.465000   -1.420373   -98.678337
 0.470000   -1.937143   -107.514675
 0.475000   -2.495520   -114.591088
 0.480000   -3.083054   -119.404115
 0.485000   -3.689561   -121.894361
 0.490000   -4.301998   -121.839627
 0.495000   -4.907957   -118.846579
 0.500000   -5.490464   -112.683536
 0.505000   -6.034793   -104.648956
 0.510000   -6.536953   -95.874748
 0.515000   -6.993540   -86.648498
 0.520000   -7.403438   -77.437873
 0.525000   -7.767919   -68.472482
 0.530000   -8.088163   -60.851208
 0.535000   -8.376431   -55.631547
 0.540000   -8.644478   -52.405835
 0.545000   -8.900489   -50.746923
 0.550000   -9.151948   -50.341194
 0.555000   -9.403901   -51.183358
 0.560000   -9.663781   -52.803684
 0.565000   -9.931938   -54.387759
 0.570000   -10.207659   -55.626610
 0.575000   -10.488204   -56.249299
 0.580000   -10.770152   -56.076953
 0.585000   -11.048974   -54.977120
 0.590000   -11.319923   -52.331726
 0.595000   -11.572291   -48.064307
 0.600000   -11.800566   -42.747909
 0.605000   -11.999770   -36.555998
 0.610000   -12.166126   -29.866996
 0.615000   -12.298440   -23.009055
 0.620000   -12.396217   -16.511755
 0.625000   -12.463558   -10.719984
 0.630000   -12.503416   -5.699393
 0.635000   -12.520552   -1.711069
 0.640000   -12.520527   1.468112
 0.645000   -12.505870   3.955621
 0.650000   -12.480971   5.793378
 0.655000   -12.447937   7.291681
 0.660000   -12.408054   8.676172
 0.665000   -12.361175   9.998065
 0.670000   -12.308073   11.175829
 0.675000   -12.249417   12.283442
 0.680000   -12.185239   13.365145
 0.685000   -12.115765   14.340498
 0.690000   -12.041834   15.236953
 0.695000   -11.963396   16.186453
 0.700000   -11.879970   17.435322
 0.705000   -11.789042   19.109549
 0.710000   -11.688874   21.019965
 0.715000   -11.578843   23.125464
 0.720000   -11.457619   25.244755
 0.725000   -11.326395   27.121006
 0.730000   -11.186409   28.662586
 0.735000   -11.039769   29.528267
 0.740000   -10.891127   29.187848
 0.745000   -10.747891   27.594599
 0.750000   -10.615181   24.900985
 0.755000   -10.498881   21.215981
 0.760000   -10.403021   16.690183
 0.765000   -10.331979   11.730135
 0.770000   -10.285719   6.906291
 0.775000   -10.262916   2.454209
 0.780000   -10.261177   -1.448142
 0.785000   -10.277398   -4.694069
 0.790000   -10.308118   -7.426476
 0.795000   -10.351662   -10.076964
 0.800000   -10.408888   -13.107701
 0.805000   -10.482739   -16.692633
 0.810000   -10.575814   -20.857018
 0.815000   -10.691310   -25.851680
 0.820000   -10.834331   -31.707641
 0.825000   -11.008386   -37.421411
 0.830000   -11.208545   -42.269685
 0.835000   -11.431083   -45.996817
 0.840000   -11.668513   -48.043996
 0.845000   -11.911523   -48.007204
 0.850000   -12.148585   -45.702834
 0.855000   -12.368551   -41.778972
 0.860000   -12.566375   -36.814292
 0.865000   -12.736694   -31.067619
 0.870000   -12.877051   -24.841879
 0.875000   -12.985113   -18.166273
 0.880000   -13.058714   -10.909263
 0.885000   -13.094206   -2.818133
 0.890000   -13.086895   6.242735
 0.895000   -13.031778   16.509034
 0.900000   -12.921805   28.160803
 0.905000   -12.750170   40.967545
 0.910000   -12.512129   54.219620
 0.915000   -12.207974   66.880345
 0.920000   -11.843326   78.232992
 0.925000   -11.425644   88.135087
 0.930000   -10.961975   97.086180
 0.935000   -10.454782   103.601055
 0.940000   -9.925964   107.978708
 0.945000   -9.374995   114.045150
 0.950000   -8.785513   123.348981
 0.955000   -8.141505   133.175741
 0.960000   -7.453756   139.808527
 0.965000   -6.743420   140.942450
 0.970000   -6.044331   124.297605
 0.975000   -5.500444   78.148315
 0.980000   -5.262848   16.642302
 0.985000   -5.334021   -4.438134
 0.990000   -5.307229   121.550751
 0.995000   -4.118514   504.898619
 1.000000   -0.258243   1039.209556
201 psinorm omghb() domghb/dpsiN
 0.000000   -0.000032   0.065261
 0.005000   0.000251   0.048007
 0.010000   0.000448   0.057640
 0.015000   0.000827   0.085330
 0.020000   0.001301   0.096752
 0.025000   0.001795   0.114666
 0.030000   0.002448   0.138062
 0.035000   0.003176   0.161521
 0.040000   0.004063   0.177410
 0.045000   0.004950   0.185059
 0.050000   0.005914   0.186299
 0.055000   0.006813   0.179277
 0.060000   0.007706   0.173555
 0.065000   0.008548   0.147011
 0.070000   0.009177   0.120817
 0.075000   0.009756   0.112082
 0.080000   0.010297   0.105000
 0.085000   0.010806   0.090855
 0.090000   0.011206   0.082581
 0.095000   0.011632   0.075645
 0.100000   0.011962   0.092187
 0.105000   0.012554   0.132031
 0.110000   0.013283   0.145833
 0.115000   0.014012   0.147872
 0.120000   0.014761   0.155588
 0.125000   0.015568   0.170663
 0.130000   0.016468   0.188032
 0.135000   0.017449   0.217177
 0.140000   0.018640   0.208713
 0.145000   0.019536   0.169108
 0.150000   0.020331   0.152664
 0.155000   0.021062   0.144364
 0.160000   0.021775   0.144621
 0.165000   0.022509   0.168238
 0.170000   0.023457   0.169453
 0.175000   0.024203   0.165217
 0.180000   0.025109   0.169526
 0.185000   0.025898   0.159182
 0.190000   0.026701   0.162218
 0.195000   0.027521   0.186541
 0.200000   0.028566   0.193723
 0.205000   0.029458   0.191514
 0.210000   0.030481   0.202194
 0.215000   0.031480   0.215480
 0.220000   0.032636   0.229131
 0.225000   0.033771   0.236920
 0.230000   0.035005   0.204418
 0.235000   0.035815   0.147853
 0.240000   0.036484   0.110156
 0.245000   0.036917   0.095092
 0.250000   0.037435   0.177637
 0.255000   0.038693   0.031779
 0.260000   0.037753   -0.163243
 0.265000   0.037061   -0.156162
 0.270000   0.036191   -0.181407
 0.275000   0.035247   -0.211671
 0.280000   0.034074   -0.189506
 0.285000   0.033352   -0.292500
 0.290000   0.031149   -0.321943
 0.295000   0.030132   -0.198567
 0.300000   0.029164   -0.191983
 0.305000   0.028212   -0.139960
 0.310000   0.027764   -0.223626
 0.315000   0.025976   -0.142741
 0.320000   0.026337   0.124782
 0.325000   0.027224   0.236975
 0.330000   0.028706   0.341224
 0.335000   0.030636   0.421337
 0.340000   0.032920   0.453748
 0.345000   0.035174   0.545718
 0.350000   0.038377   0.542620
 0.355000   0.040600   0.444687
 0.360000   0.042824   0.366594
 0.365000   0.044266   0.269731
 0.370000   0.045521   0.349358
 0.375000   0.047759   0.219919
 0.380000   0.047720   -0.011085
 0.385000   0.047648   -0.030144
 0.390000   0.047419   -0.091971
 0.395000   0.046729   -0.148554
 0.400000   0.045933   -0.165292
 0.405000   0.045076   -0.257039
 0.410000   0.043363   -0.231070
 0.415000   0.042765   -0.078943
 0.420000   0.042574   0.031753
 0.425000   0.043083   0.257646
 0.430000   0.045150   0.515722
 0.435000   0.048240   0.901440
 0.440000   0.054164   1.447142
 0.445000   0.062711   1.737592
 0.450000   0.071540   2.053909
 0.455000   0.083250   2.288959
 0.460000   0.094430   2.168146
 0.465000   0.104932   2.100751
 0.470000   0.115437   2.044514
 0.475000   0.125377   1.759386
 0.480000   0.133031   1.276532
 0.485000   0.138142   0.645328
 0.490000   0.139485   0.055824
 0.495000   0.138701   -0.427828
 0.500000   0.135206   -1.034173
 0.505000   0.128359   -1.554019
 0.510000   0.119666   -2.010749
 0.515000   0.108251   -2.064884
 0.520000   0.099017   -1.742250
 0.525000   0.090829   -1.457716
 0.530000   0.084440   -1.081923
 0.535000   0.080010   -0.722731
 0.540000   0.077213   -0.287207
 0.545000   0.077138   0.184302
 0.550000   0.079056   0.470297
 0.555000   0.081841   0.605080
 0.560000   0.085107   0.762294
 0.565000   0.089463   0.918973
 0.570000   0.094296   0.955145
 0.575000   0.099015   0.848471
 0.580000   0.102781   0.681416
 0.585000   0.105829   0.480872
 0.590000   0.107590   0.323174
 0.595000   0.109061   0.216699
 0.600000   0.109757   0.059029
 0.605000   0.109651   -0.042179
 0.610000   0.109335   -0.042937
 0.615000   0.109222   0.043926
 0.620000   0.109774   0.172774
 0.625000   0.110949   0.318777
 0.630000   0.112962   0.520440
 0.635000   0.116154   0.692058
 0.640000   0.119883   0.801935
 0.645000   0.124173   0.921998
 0.650000   0.129103   0.916300
 0.655000   0.133336   0.797633
 0.660000   0.137079   0.663565
 0.665000   0.139972   0.527432
 0.670000   0.142353   0.493057
 0.675000   0.144902   0.594175
 0.680000   0.148295   0.591155
 0.685000   0.150814   0.643392
 0.690000   0.154729   0.889770
 0.695000   0.159712   1.089984
 0.700000   0.165629   1.112326
 0.705000   0.170835   1.091745
 0.710000   0.176546   0.686758
 0.715000   0.177703   -0.056963
 0.720000   0.175977   -0.306198
 0.725000   0.174641   -0.376896
 0.730000   0.172208   -0.620408
 0.735000   0.168436   -0.694412
 0.740000   0.165263   -0.953872
 0.745000   0.158898   -1.390382
 0.750000   0.151360   -1.387555
 0.755000   0.145022   -1.293196
 0.760000   0.138428   -1.282490
 0.765000   0.132197   -1.316177
 0.770000   0.125266   -1.427900
 0.775000   0.117918   -1.264179
 0.780000   0.112624   -1.070084
 0.785000   0.107217   -0.971185
 0.790000   0.102912   -0.870856
 0.795000   0.098509   -0.927428
 0.800000   0.093638   -0.811389
 0.805000   0.090395   -0.188508
 0.810000   0.091753   0.266796
 0.815000   0.093063   0.482309
 0.820000   0.096576   0.854455
 0.825000   0.101608   1.155173
 0.830000   0.108128   1.400090
 0.835000   0.115608   1.298128
 0.840000   0.121109   1.093329
 0.845000   0.126542   1.137803
 0.850000   0.132487   1.270320
 0.855000   0.139245   1.486287
 0.860000   0.147350   1.934121
 0.865000   0.158586   2.650871
 0.870000   0.173859   3.315491
 0.875000   0.191741   3.915113
 0.880000   0.213010   4.578255
 0.885000   0.237524   5.133983
 0.890000   0.264350   6.320764
 0.895000   0.300731   5.909490
 0.900000   0.323445   5.126401
 0.905000   0.351995   5.839970
 0.910000   0.381844   5.930486
 0.915000   0.411300   5.546812
 0.920000   0.437312   7.459209
 0.925000   0.485892   5.091103
 0.930000   0.488223   1.231114
 0.935000   0.498203   1.771004
 0.940000   0.505933   1.034258
 0.945000   0.508546   -0.141023
 0.950000   0.504523   3.733193
 0.955000   0.545878   1.867191
 0.960000   0.523195   -2.298504
 0.965000   0.522893   1.053388
 0.970000   0.533729   1.128461
 0.975000   0.534177   -4.911678
 0.980000   0.484612   -19.518545
 0.985000   0.338992   -62.379158
 0.990000   -0.139179   -127.072624
 0.995000   -0.931734   -180.270128
 1.000000   -1.941881   -223.788418
201 psinorm nz1(10^20/m^3) dnz1/dpsiN
 0.000000   0.015556   0.000002
 0.005000   0.015555   -0.000266
 0.010000   0.015553   -0.000539
 0.015000   0.015550   -0.000820
 0.020000   0.015545   -0.001107
 0.025000   0.015539   -0.001401
 0.030000   0.015531   -0.001700
 0.035000   0.015522   -0.002004
 0.040000   0.015511   -0.002310
 0.045000   0.015499   -0.002617
 0.050000   0.015485   -0.002923
 0.055000   0.015469   -0.003228
 0.060000   0.015453   -0.003530
 0.065000   0.015434   -0.003827
 0.070000   0.015414   -0.004120
 0.075000   0.015393   -0.004407
 0.080000   0.015370   -0.004690
 0.085000   0.015346   -0.004966
 0.090000   0.015321   -0.005233
 0.095000   0.015294   -0.005491
 0.100000   0.015266   -0.005734
 0.105000   0.015236   -0.005966
 0.110000   0.015206   -0.006189
 0.115000   0.015174   -0.006402
 0.120000   0.015142   -0.006607
 0.125000   0.015108   -0.006804
 0.130000   0.015074   -0.006989
 0.135000   0.015039   -0.007163
 0.140000   0.015002   -0.007327
 0.145000   0.014965   -0.007481
 0.150000   0.014927   -0.007623
 0.155000   0.014889   -0.007755
 0.160000   0.014850   -0.007874
 0.165000   0.014810   -0.007981
 0.170000   0.014770   -0.008075
 0.175000   0.014730   -0.008158
 0.180000   0.014689   -0.008228
 0.185000   0.014647   -0.008287
 0.190000   0.014606   -0.008333
 0.195000   0.014564   -0.008368
 0.200000   0.014522   -0.008390
 0.205000   0.014480   -0.008399
 0.210000   0.014438   -0.008393
 0.215000   0.014396   -0.008374
 0.220000   0.014354   -0.008340
 0.225000   0.014313   -0.008294
 0.230000   0.014271   -0.008236
 0.235000   0.014230   -0.008172
 0.240000   0.014190   -0.008102
 0.245000   0.014149   -0.008027
 0.250000   0.014109   -0.007948
 0.255000   0.014070   -0.007866
 0.260000   0.014031   -0.007776
 0.265000   0.013992   -0.007672
 0.270000   0.013954   -0.007555
 0.275000   0.013917   -0.007423
 0.280000   0.013880   -0.007275
 0.285000   0.013844   -0.007111
 0.290000   0.013809   -0.006926
 0.295000   0.013775   -0.006718
 0.300000   0.013741   -0.006492
 0.305000   0.013710   -0.006248
 0.310000   0.013679   -0.005986
 0.315000   0.013650   -0.005706
 0.320000   0.013622   -0.005411
 0.325000   0.013596   -0.005102
 0.330000   0.013571   -0.004783
 0.335000   0.013548   -0.004456
 0.340000   0.013526   -0.004123
 0.345000   0.013507   -0.003784
 0.350000   0.013488   -0.003446
 0.355000   0.013472   -0.003110
 0.360000   0.013457   -0.002777
 0.365000   0.013444   -0.002445
 0.370000   0.013433   -0.002114
 0.375000   0.013423   -0.001786
 0.380000   0.013415   -0.001458
 0.385000   0.013409   -0.001130
 0.390000   0.013404   -0.000806
 0.395000   0.013401   -0.000485
 0.400000   0.013399   -0.000170
 0.405000   0.013399   0.000137
 0.410000   0.013400   0.000435
 0.415000   0.013403   0.000722
 0.420000   0.013408   0.000998
 0.425000   0.013413   0.001262
 0.430000   0.013420   0.001511
 0.435000   0.013428   0.001747
 0.440000   0.013438   0.001967
 0.445000   0.013448   0.002170
 0.450000   0.013459   0.002357
 0.455000   0.013472   0.002527
 0.460000   0.013485   0.002680
 0.465000   0.013498   0.002815
 0.470000   0.013513   0.002933
 0.475000   0.013528   0.003035
 0.480000   0.013543   0.003119
 0.485000   0.013559   0.003184
 0.490000   0.013575   0.003229
 0.495000   0.013591   0.003253
 0.500000   0.013607   0.003255
 0.505000   0.013624   0.003232
 0.510000   0.013640   0.003184
 0.515000   0.013656   0.003111
 0.520000   0.013671   0.003012
 0.525000   0.013686   0.002887
 0.530000   0.013700   0.002735
 0.535000   0.013713   0.002557
 0.540000   0.013725   0.002354
 0.545000   0.013737   0.002126
 0.550000   0.013747   0.001874
 0.555000   0.013755   0.001599
 0.560000   0.013763   0.001301
 0.565000   0.013768   0.000981
 0.570000   0.013772   0.000641
 0.575000   0.013775   0.000281
 0.580000   0.013775   -0.000098
 0.585000   0.013774   -0.000496
 0.590000   0.013770   -0.000911
 0.595000   0.013765   -0.001343
 0.600000   0.013757   -0.001792
 0.605000   0.013747   -0.002255
 0.610000   0.013734   -0.002731
 0.615000   0.013719   -0.003219
 0.620000   0.013702   -0.003717
 0.625000   0.013682   -0.004224
 0.630000   0.013660   -0.004741
 0.635000   0.013635   -0.005274
 0.640000   0.013607   -0.005826
 0.645000   0.013577   -0.006404
 0.650000   0.013543   -0.007019
 0.655000   0.013506   -0.007671
 0.660000   0.013466   -0.008345
 0.665000   0.013423   -0.009041
 0.670000   0.013376   -0.009756
 0.675000   0.013325   -0.010483
 0.680000   0.013271   -0.011221
 0.685000   0.013213   -0.011954
 0.690000   0.013152   -0.012678
 0.695000   0.013086   -0.013429
 0.700000   0.013017   -0.014232
 0.705000   0.012944   -0.015103
 0.710000   0.012866   -0.016079
 0.715000   0.012783   -0.017144
 0.720000   0.012695   -0.018213
 0.725000   0.012601   -0.019261
 0.730000   0.012502   -0.020279
 0.735000   0.012398   -0.021242
 0.740000   0.012290   -0.022146
 0.745000   0.012177   -0.022937
 0.750000   0.012060   -0.023529
 0.755000   0.011942   -0.023910
 0.760000   0.011821   -0.024091
 0.765000   0.011701   -0.024062
 0.770000   0.011581   -0.023804
 0.775000   0.011463   -0.023292
 0.780000   0.011348   -0.022576
 0.785000   0.011237   -0.021728
 0.790000   0.011130   -0.020782
 0.795000   0.011029   -0.019778
 0.800000   0.010933   -0.018734
 0.805000   0.010842   -0.017677
 0.810000   0.010756   -0.016698
 0.815000   0.010675   -0.015831
 0.820000   0.010598   -0.015042
 0.825000   0.010524   -0.014335
 0.830000   0.010454   -0.013707
 0.835000   0.010387   -0.013141
 0.840000   0.010323   -0.012589
 0.845000   0.010261   -0.012016
 0.850000   0.010203   -0.011424
 0.855000   0.010147   -0.010821
 0.860000   0.010094   -0.010218
 0.865000   0.010045   -0.009613
 0.870000   0.009998   -0.009030
 0.875000   0.009955   -0.008494
 0.880000   0.009913   -0.008016
 0.885000   0.009874   -0.007622
 0.890000   0.009837   -0.007333
 0.895000   0.009801   -0.007194
 0.900000   0.009765   -0.007190
 0.905000   0.009729   -0.007284
 0.910000   0.009692   -0.007509
 0.915000   0.009654   -0.007915
 0.920000   0.009613   -0.008579
 0.925000   0.009568   -0.009786
 0.930000   0.009515   -0.011662
 0.935000   0.009452   -0.014306
 0.940000   0.009372   -0.018218
 0.945000   0.009270   -0.024087
 0.950000   0.009131   -0.032854
 0.955000   0.008941   -0.046273
 0.960000   0.008669   -0.065136
 0.965000   0.008290   -0.088920
 0.970000   0.007780   -0.116378
 0.975000   0.007126   -0.143887
 0.980000   0.006341   -0.165829
 0.985000   0.005468   -0.176940
 0.990000   0.004571   -0.173341
 0.995000   0.003734   -0.155823
 1.000000   0.003013   -0.132626
201 psinorm vtor1(km/s) dvtor1/dpsiN
 0.000000   96.246297   488.923500
 0.005000   98.142637   269.612677
 0.010000   98.942424   140.663693
 0.015000   99.549274   110.771187
 0.020000   100.050136   93.126885
 0.025000   100.480543   81.325955
 0.030000   100.863395   72.652793
 0.035000   101.207071   64.935746
 0.040000   101.512753   58.080977
 0.045000   101.787881   52.185133
 0.050000   102.034604   46.559659
 0.055000   102.253478   41.030359
 0.060000   102.444908   35.815344
 0.065000   102.611631   30.975464
 0.070000   102.754662   26.263419
 0.075000   102.874265   21.763011
 0.080000   102.972292   17.526568
 0.085000   103.049531   13.438679
 0.090000   103.106679   9.363927
 0.095000   103.143170   5.376864
 0.100000   103.160448   1.597639
 0.105000   103.159146   -2.147301
 0.110000   103.138975   -5.843081
 0.115000   103.100716   -9.360025
 0.120000   103.045374   -12.711429
 0.125000   102.973601   -15.973000
 0.130000   102.885644   -19.087960
 0.135000   102.782722   -22.132428
 0.140000   102.664320   -25.306957
 0.145000   102.529652   -28.595960
 0.150000   102.378361   -31.920667
 0.155000   102.210446   -35.241301
 0.160000   102.025948   -38.593261
 0.165000   101.824513   -41.983635
 0.170000   101.606111   -45.383334
 0.175000   101.370680   -48.786072
 0.180000   101.118251   -52.171056
 0.185000   100.848969   -55.470573
 0.190000   100.563545   -58.631382
 0.195000   100.262655   -61.663466
 0.200000   99.946910   -64.550292
 0.205000   99.617152   -67.259173
 0.210000   99.274318   -69.766991
 0.215000   98.919482   -72.040594
 0.220000   98.553912   -73.951223
 0.225000   98.179970   -75.318781
 0.230000   97.800725   -76.244551
 0.235000   97.417525   -76.832954
 0.240000   97.032395   -77.022892
 0.245000   96.647296   -76.847594
 0.250000   96.263919   -76.330445
 0.255000   95.883991   -75.356427
 0.260000   95.510355   -74.184460
 0.265000   95.142147   -73.010816
 0.270000   94.780247   -71.670526
 0.275000   94.425441   -70.185404
 0.280000   94.078393   -68.594863
 0.285000   93.739493   -66.878924
 0.290000   93.409603   -65.323922
 0.295000   93.086254   -64.096473
 0.300000   92.768639   -63.054227
 0.305000   92.455711   -62.232256
 0.310000   92.146316   -61.624253
 0.315000   91.839469   -61.220210
 0.320000   91.534114   -60.898961
 0.325000   91.230479   -60.507346
 0.330000   90.929041   -60.028439
 0.335000   90.630195   -59.472701
 0.340000   90.334314   -58.847331
 0.345000   90.041721   -58.161854
 0.350000   89.752695   -57.367485
 0.355000   89.468047   -56.443359
 0.360000   89.188261   -55.421937
 0.365000   88.913827   -54.304246
 0.370000   88.645219   -53.087944
 0.375000   88.382948   -51.769536
 0.380000   88.127524   -50.349901
 0.385000   87.879449   -48.849870
 0.390000   87.639025   -47.286885
 0.395000   87.406580   -45.664032
 0.400000   87.182385   -43.993639
 0.405000   86.966644   -42.267131
 0.410000   86.759713   -40.506715
 0.415000   86.561576   -38.755734
 0.420000   86.372156   -37.022765
 0.425000   86.191349   -35.315302
 0.430000   86.019003   -33.655431
 0.435000   85.854794   -32.109579
 0.440000   85.697907   -30.805894
 0.445000   85.546735   -29.773186
 0.450000   85.400175   -28.939201
 0.455000   85.257343   -28.261861
 0.460000   85.117557   -27.694376
 0.465000   84.980400   -27.261618
 0.470000   84.844941   -26.943600
 0.475000   84.710964   -26.547222
 0.480000   84.579468   -26.017087
 0.485000   84.450793   -25.415028
 0.490000   84.325318   -24.722510
 0.495000   84.203568   -23.960587
 0.500000   84.085712   -23.143497
 0.505000   83.972133   -22.170200
 0.510000   83.864010   -21.051009
 0.515000   83.761623   -19.906029
 0.520000   83.664950   -18.788164
 0.525000   83.573741   -17.780517
 0.530000   83.487145   -17.045437
 0.535000   83.403287   -16.651171
 0.540000   83.320633   -16.579263
 0.545000   83.237494   -16.857135
 0.550000   83.152062   -17.509028
 0.555000   83.062404   -18.595952
 0.560000   82.966102   -20.268566
 0.565000   82.859718   -22.459394
 0.570000   82.741508   -25.142007
 0.575000   82.608298   -28.488424
 0.580000   82.456624   -32.567924
 0.585000   82.282619   -37.462998
 0.590000   82.081994   -43.331123
 0.595000   81.849308   -50.018802
 0.600000   81.581806   -57.377324
 0.605000   81.275534   -65.482772
 0.610000   80.926978   -74.234631
 0.615000   80.533188   -83.496256
 0.620000   80.092016   -93.022330
 0.625000   79.602965   -102.616689
 0.630000   79.065849   -112.165698
 0.635000   78.481308   -121.501189
 0.640000   77.850837   -130.450994
 0.645000   77.176798   -138.855319
 0.650000   76.462284   -146.271683
 0.655000   75.714081   -152.833838
 0.660000   74.933945   -158.926545
 0.665000   74.124816   -164.413227
 0.670000   73.289813   -169.350492
 0.675000   72.431311   -173.936186
 0.680000   71.550451   -178.424017
 0.685000   70.647070   -183.462193
 0.690000   69.715829   -189.386691
 0.695000   68.753204   -195.906001
 0.700000   67.756769   -202.724685
 0.705000   66.725957   -209.370266
 0.710000   65.663067   -215.307540
 0.715000   64.572881   -219.835767
 0.720000   63.464709   -222.673523
 0.725000   62.346146   -224.081872
 0.730000   61.223890   -224.127517
 0.735000   60.104871   -222.773483
 0.740000   58.996155   -220.004166
 0.745000   57.904829   -215.776195
 0.750000   56.838393   -210.154377
 0.755000   55.803285   -203.363179
 0.760000   54.804762   -195.700024
 0.765000   53.846285   -187.537629
 0.770000   52.929385   -179.391099
 0.775000   52.052374   -171.797672
 0.780000   51.211409   -164.574820
 0.785000   50.406626   -157.292604
 0.790000   49.638483   -149.810910
 0.795000   48.908517   -141.961511
 0.800000   48.218867   -133.791794
 0.805000   47.570599   -125.415589
 0.810000   46.964712   -116.822524
 0.815000   46.402374   -108.553216
 0.820000   45.879179   -101.466115
 0.825000   45.387713   -96.137295
 0.830000   44.917806   -93.090505
 0.835000   44.456808   -92.748258
 0.840000   43.990324   -95.337417
 0.845000   43.503433   -100.987302
 0.850000   42.980451   -109.716065
 0.855000   42.406273   -121.338639
 0.860000   41.767064   -135.528719
 0.865000   41.050985   -152.106943
 0.870000   40.245995   -171.490861
 0.875000   39.336077   -194.036106
 0.880000   38.305634   -219.708790
 0.885000   37.138989   -248.453064
 0.890000   35.821103   -280.047665
 0.895000   34.338512   -315.110637
 0.900000   32.669997   -351.480411
 0.905000   30.823708   -386.255222
 0.910000   28.807445   -418.449146
 0.915000   26.639217   -445.842482
 0.920000   24.349020   -465.923695
 0.925000   21.979980   -477.411697
 0.930000   19.574903   -476.289259
 0.935000   17.217087   -458.940967
 0.940000   14.985493   -425.630802
 0.945000   12.960779   -376.749537
 0.950000   11.217998   -314.402162
 0.955000   9.816758   -242.549004
 0.960000   8.792508   -166.854187
 0.965000   8.148216   -94.189688
 0.970000   7.850611   -30.918762
 0.975000   7.839028   18.358196
 0.980000   8.034193   50.973727
 0.985000   8.348765   66.149628
 0.990000   8.695689   65.367452
 0.995000   9.002440   51.753165
 1.000000   9.213221   32.559246
201 psinorm vpol1(km/s) dvpol1/dpsiN
 0.000000   0.000000   2.721875
 0.005000   0.014781   3.190625
 0.010000   0.031906   3.665625
 0.015000   0.051438   4.103125
 0.020000   0.072938   4.478125
 0.025000   0.096219   4.784375
 0.030000   0.120781   4.962500
 0.035000   0.145844   5.062500
 0.040000   0.171406   5.109375
 0.045000   0.196938   5.140625
 0.050000   0.222812   5.193750
 0.055000   0.248875   5.318750
 0.060000   0.276000   5.575000
 0.065000   0.304625   5.831250
 0.070000   0.334313   6.131250
 0.075000   0.365938   6.515625
 0.080000   0.399469   6.950000
 0.085000   0.435438   7.400000
 0.090000   0.473469   7.828125
 0.095000   0.513719   8.215625
 0.100000   0.555625   8.509375
 0.105000   0.598812   8.737500
 0.110000   0.643000   8.859375
 0.115000   0.687406   8.875000
 0.120000   0.731750   8.825000
 0.125000   0.775656   8.725000
 0.130000   0.819000   8.609375
 0.135000   0.861750   8.487500
 0.140000   0.903875   8.334375
 0.145000   0.945094   8.240625
 0.150000   0.986281   8.178125
 0.155000   1.026875   8.156250
 0.160000   1.067844   8.115625
 0.165000   1.108031   8.043750
 0.170000   1.148281   7.946875
 0.175000   1.187500   7.756250
 0.180000   1.225844   7.565625
 0.185000   1.263156   7.309375
 0.190000   1.298938   7.000000
 0.195000   1.333156   6.684375
 0.200000   1.365781   6.337500
 0.205000   1.396531   5.903125
 0.210000   1.424813   5.440625
 0.215000   1.450937   5.087500
 0.220000   1.475688   4.756250
 0.225000   1.498500   4.450000
 0.230000   1.520188   4.184375
 0.235000   1.540344   3.950000
 0.240000   1.559688   3.781250
 0.245000   1.578156   3.559375
 0.250000   1.595281   3.278125
 0.255000   1.610938   2.993750
 0.260000   1.625219   2.678125
 0.265000   1.637719   2.287500
 0.270000   1.648094   1.846875
 0.275000   1.656187   1.356250
 0.280000   1.661656   0.831250
 0.285000   1.664500   0.287500
 0.290000   1.664531   -0.331250
 0.295000   1.661188   -0.934375
 0.300000   1.655188   -1.553125
 0.305000   1.645656   -2.243750
 0.310000   1.632750   -2.909375
 0.315000   1.616563   -3.603125
 0.320000   1.596719   -4.312500
 0.325000   1.573438   -5.012500
 0.330000   1.546594   -5.737500
 0.335000   1.516063   -6.496875
 0.340000   1.481625   -7.271875
 0.345000   1.443344   -8.050000
 0.350000   1.401125   -8.812500
 0.355000   1.355219   -9.484375
 0.360000   1.306281   -10.065625
 0.365000   1.254563   -10.584375
 0.370000   1.200438   -11.068750
 0.375000   1.143875   -11.475000
 0.380000   1.085687   -11.781250
 0.385000   1.026063   -12.112500
 0.390000   0.964562   -12.475000
 0.395000   0.901313   -12.884375
 0.400000   0.835719   -13.384375
 0.405000   0.767469   -13.896875
 0.410000   0.696750   -14.431250
 0.415000   0.623156   -15.015625
 0.420000   0.546594   -15.659375
 0.425000   0.466562   -16.496875
 0.430000   0.381625   -17.637500
 0.435000   0.290187   -19.284375
 0.440000   0.188781   -21.687500
 0.445000   0.073313   -24.612500
 0.450000   -0.057344   -27.837500
 0.455000   -0.205063   -31.331250
 0.460000   -0.370656   -35.003125
 0.465000   -0.555094   -38.790625
 0.470000   -0.758563   -42.406250
 0.475000   -0.979156   -45.340625
 0.480000   -1.211969   -47.384375
 0.485000   -1.453000   -48.525000
 0.490000   -1.697219   -48.668750
 0.495000   -1.939688   -47.618750
 0.500000   -2.173406   -45.303125
 0.505000   -2.392719   -42.256250
 0.510000   -2.595969   -38.868750
 0.515000   -2.781406   -35.268750
 0.520000   -2.948656   -31.684375
 0.525000   -3.098250   -28.178125
 0.530000   -3.230437   -25.159375
 0.535000   -3.349844   -23.100000
 0.540000   -3.461438   -21.862500
 0.545000   -3.568469   -21.206250
 0.550000   -3.673500   -21.040625
 0.555000   -3.778875   -21.415625
 0.560000   -3.887656   -22.093750
 0.565000   -3.999812   -22.725000
 0.570000   -4.114906   -23.234375
 0.575000   -4.232156   -23.528125
 0.580000   -4.350187   -23.456250
 0.585000   -4.466719   -22.998438
 0.590000   -4.580172   -21.956250
 0.595000   -4.686281   -20.245313
 0.600000   -4.782625   -18.067187
 0.605000   -4.866953   -15.543750
 0.610000   -4.938063   -12.848437
 0.615000   -4.995438   -10.039062
 0.620000   -5.038453   -7.357813
 0.625000   -5.069016   -4.996875
 0.630000   -5.088422   -2.948438
 0.635000   -5.098500   -1.278125
 0.640000   -5.101203   0.056250
 0.645000   -5.097938   1.071875
 0.650000   -5.090484   1.850000
 0.655000   -5.079438   2.507813
 0.660000   -5.065406   3.093750
 0.665000   -5.048500   3.637500
 0.670000   -5.029031   4.160937
 0.675000   -5.006891   4.656250
 0.680000   -4.982469   5.103125
 0.685000   -4.955859   5.518750
 0.690000   -4.927281   5.923437
 0.695000   -4.896625   6.337500
 0.700000   -4.863906   6.853125
 0.705000   -4.828094   7.564063
 0.710000   -4.788266   8.379687
 0.715000   -4.744297   9.254687
 0.720000   -4.695719   10.129688
 0.725000   -4.643000   10.928125
 0.730000   -4.586437   11.587500
 0.735000   -4.527125   11.946875
 0.740000   -4.466969   11.820312
 0.745000   -4.408922   11.192187
 0.750000   -4.355047   10.103125
 0.755000   -4.307891   8.593750
 0.760000   -4.269109   6.753125
 0.765000   -4.240359   4.739062
 0.770000   -4.221719   2.765625
 0.775000   -4.212703   0.939063
 0.780000   -4.212328   -0.642187
 0.785000   -4.219125   -1.954688
 0.790000   -4.231875   -3.076563
 0.795000   -4.249891   -4.157812
 0.800000   -4.273453   -5.379687
 0.805000   -4.303687   -6.835938
 0.810000   -4.341813   -8.545313
 0.815000   -4.389141   -10.579687
 0.820000   -4.447609   -12.956250
 0.825000   -4.518703   -15.289062
 0.830000   -4.600500   -17.276563
 0.835000   -4.691469   -18.775000
 0.840000   -4.788250   -19.578125
 0.845000   -4.887250   -19.553125
 0.850000   -4.983781   -18.596875
 0.855000   -5.073219   -16.940625
 0.860000   -5.153188   -14.862500
 0.865000   -5.221844   -12.500000
 0.870000   -5.278188   -9.923438
 0.875000   -5.321078   -7.132812
 0.880000   -5.349516   -4.125000
 0.885000   -5.362328   -0.809375
 0.890000   -5.357609   2.937500
 0.895000   -5.332953   7.195312
 0.900000   -5.285656   11.976562
 0.905000   -5.213188   17.201562
 0.910000   -5.113641   22.584375
 0.915000   -4.987344   27.717188
 0.920000   -4.836469   32.328125
 0.925000   -4.664062   36.295312
 0.930000   -4.473516   39.473437
 0.935000   -4.269328   41.748437
 0.940000   -4.056031   43.593750
 0.945000   -3.833391   45.898438
 0.950000   -3.597047   49.131250
 0.955000   -3.342078   52.934375
 0.960000   -3.067703   55.956250
 0.965000   -2.782516   56.753125
 0.970000   -2.500172   50.198437
 0.975000   -2.280531   31.307031
 0.980000   -2.187102   5.871875
 0.985000   -2.221812   -2.412500
 0.990000   -2.211227   50.724219
 0.995000   -1.714570   210.380469
 1.000000   -0.107422   432.478906
3 N Z A of ION SPECIES
 6.000000   6.000000   12.010700
 1.000000   1.000000   2.000000
 1.000000   1.000000   2.000000
