201 psinorm ne(10^20/m^3) dne/dpsiN
 0.000000   0.740670   -0.460695
 0.005000   0.738372   -0.458585
 0.010000   0.736084   -0.456480
 0.015000   0.733807   -0.454385
 0.020000   0.731541   -0.452301
 0.025000   0.729284   -0.450228
 0.030000   0.727038   -0.448166
 0.035000   0.724803   -0.446114
 0.040000   0.722577   -0.444072
 0.045000   0.720362   -0.442041
 0.050000   0.718157   -0.440020
 0.055000   0.715962   -0.438009
 0.060000   0.713777   -0.436009
 0.065000   0.711602   -0.434019
 0.070000   0.709436   -0.432038
 0.075000   0.707281   -0.430068
 0.080000   0.705136   -0.428108
 0.085000   0.703000   -0.426158
 0.090000   0.700874   -0.424217
 0.095000   0.698758   -0.422287
 0.100000   0.696651   -0.420366
 0.105000   0.694554   -0.418455
 0.110000   0.692467   -0.416553
 0.115000   0.690389   -0.414661
 0.120000   0.688320   -0.412779
 0.125000   0.686261   -0.410906
 0.130000   0.684211   -0.409042
 0.135000   0.682171   -0.407188
 0.140000   0.680139   -0.405343
 0.145000   0.678117   -0.403508
 0.150000   0.676104   -0.401681
 0.155000   0.674100   -0.399864
 0.160000   0.672106   -0.398056
 0.165000   0.670120   -0.396256
 0.170000   0.668143   -0.394466
 0.175000   0.666175   -0.392685
 0.180000   0.664216   -0.390913
 0.185000   0.662266   -0.389149
 0.190000   0.660325   -0.387394
 0.195000   0.658392   -0.385648
 0.200000   0.656468   -0.383911
 0.205000   0.654553   -0.382183
 0.210000   0.652646   -0.380462
 0.215000   0.650748   -0.378751
 0.220000   0.648859   -0.377048
 0.225000   0.646978   -0.375353
 0.230000   0.645105   -0.373667
 0.235000   0.643241   -0.371989
 0.240000   0.641385   -0.370320
 0.245000   0.639538   -0.368658
 0.250000   0.637699   -0.367005
 0.255000   0.635868   -0.365360
 0.260000   0.634045   -0.363724
 0.265000   0.632231   -0.362095
 0.270000   0.630424   -0.360474
 0.275000   0.628626   -0.358861
 0.280000   0.626836   -0.357256
 0.285000   0.625053   -0.355659
 0.290000   0.623279   -0.354070
 0.295000   0.621513   -0.352489
 0.300000   0.619754   -0.350915
 0.305000   0.618004   -0.349349
 0.310000   0.616261   -0.347791
 0.315000   0.614526   -0.346241
 0.320000   0.612798   -0.344698
 0.325000   0.611079   -0.343162
 0.330000   0.609367   -0.341634
 0.335000   0.607662   -0.340114
 0.340000   0.605966   -0.338601
 0.345000   0.604276   -0.337095
 0.350000   0.602595   -0.335596
 0.355000   0.600920   -0.334105
 0.360000   0.599254   -0.332621
 0.365000   0.597594   -0.331145
 0.370000   0.595942   -0.329675
 0.375000   0.594297   -0.328213
 0.380000   0.592660   -0.326757
 0.385000   0.591030   -0.325309
 0.390000   0.589407   -0.323868
 0.395000   0.587791   -0.322433
 0.400000   0.586183   -0.321006
 0.405000   0.584581   -0.319585
 0.410000   0.582987   -0.318172
 0.415000   0.581399   -0.316765
 0.420000   0.579819   -0.315365
 0.425000   0.578246   -0.313971
 0.430000   0.576679   -0.312584
 0.435000   0.575120   -0.311204
 0.440000   0.573567   -0.309831
 0.445000   0.572022   -0.308464
 0.450000   0.570483   -0.307104
 0.455000   0.568950   -0.305750
 0.460000   0.567425   -0.304403
 0.465000   0.565906   -0.303062
 0.470000   0.564395   -0.301727
 0.475000   0.562889   -0.300399
 0.480000   0.561391   -0.299077
 0.485000   0.559898   -0.297762
 0.490000   0.558413   -0.296453
 0.495000   0.556934   -0.295150
 0.500000   0.555461   -0.293853
 0.505000   0.553995   -0.292562
 0.510000   0.552536   -0.291278
 0.515000   0.551083   -0.289999
 0.520000   0.549636   -0.288727
 0.525000   0.548195   -0.287460
 0.530000   0.546761   -0.286200
 0.535000   0.545333   -0.284945
 0.540000   0.543912   -0.283697
 0.545000   0.542496   -0.282454
 0.550000   0.541087   -0.281217
 0.555000   0.539684   -0.279986
 0.560000   0.538287   -0.278760
 0.565000   0.536897   -0.277541
 0.570000   0.535512   -0.276327
 0.575000   0.534133   -0.275118
 0.580000   0.532761   -0.273915
 0.585000   0.531394   -0.272718
 0.590000   0.530034   -0.271526
 0.595000   0.528679   -0.270340
 0.600000   0.527330   -0.269159
 0.605000   0.525987   -0.267983
 0.610000   0.524650   -0.266812
 0.615000   0.523319   -0.265646
 0.620000   0.521994   -0.264485
 0.625000   0.520674   -0.263329
 0.630000   0.519361   -0.262178
 0.635000   0.518053   -0.261031
 0.640000   0.516750   -0.259887
 0.645000   0.515454   -0.258748
 0.650000   0.514163   -0.257612
 0.655000   0.512878   -0.256478
 0.660000   0.511598   -0.255347
 0.665000   0.510324   -0.254218
 0.670000   0.509056   -0.253089
 0.675000   0.507793   -0.251960
 0.680000   0.506536   -0.250829
 0.685000   0.505285   -0.249694
 0.690000   0.504039   -0.248554
 0.695000   0.502799   -0.247406
 0.700000   0.501565   -0.246247
 0.705000   0.500337   -0.245073
 0.710000   0.499115   -0.243880
 0.715000   0.497898   -0.242662
 0.720000   0.496688   -0.241412
 0.725000   0.495484   -0.240122
 0.730000   0.494287   -0.238781
 0.735000   0.493096   -0.237377
 0.740000   0.491913   -0.235895
 0.745000   0.490737   -0.234317
 0.750000   0.489570   -0.232619
 0.755000   0.488411   -0.230774
 0.760000   0.487262   -0.228750
 0.765000   0.486124   -0.226507
 0.770000   0.484997   -0.223997
 0.775000   0.483884   -0.221163
 0.780000   0.482785   -0.217937
 0.785000   0.481704   -0.214237
 0.790000   0.480643   -0.209967
 0.795000   0.479605   -0.205015
 0.800000   0.478593   -0.199247
 0.805000   0.477612   -0.192511
 0.810000   0.476668   -0.184629
 0.815000   0.475766   -0.175401
 0.820000   0.474914   -0.164602
 0.825000   0.474120   -0.151986
 0.830000   0.473394   -0.137288
 0.835000   0.472747   -0.120238
 0.840000   0.472191   -0.100574
 0.845000   0.471741   -0.078069
 0.850000   0.471411   -0.052575
 0.855000   0.471215   -0.024080
 0.860000   0.471170   0.007196
 0.865000   0.471287   0.040675
 0.870000   0.471577   0.075228
 0.875000   0.472040   0.108924
 0.880000   0.472666   0.138671
 0.885000   0.473426   0.159758
 0.890000   0.474263   0.165270
 0.895000   0.475079   0.145412
 0.900000   0.475718   0.086802
 0.905000   0.475947   -0.028063
 0.910000   0.475437   -0.220811
 0.915000   0.473739   -0.516095
 0.920000   0.470276   -0.938550
 0.925000   0.464353   -1.507040
 0.930000   0.455206   -2.225907
 0.935000   0.442094   -3.074546
 0.940000   0.424460   -3.998951
 0.945000   0.402105   -4.911093
 0.950000   0.375349   -5.701366
 0.955000   0.345091   -6.264134
 0.960000   0.312708   -6.527929
 0.965000   0.279812   -6.476386
 0.970000   0.247944   -6.149453
 0.975000   0.218317   -5.625404
 0.980000   0.191690   -4.994354
 0.985000   0.168374   -4.335733
 0.990000   0.148333   -3.706473
 0.995000   0.131309   -3.139512
 1.000000   0.116938   -2.609113
201 psinorm te(KeV) dte/dpsiN
 0.000000   3.565703   -0.179854
 0.005000   3.564688   -0.225925
 0.010000   3.563444   -0.271973
 0.015000   3.561969   -0.317968
 0.020000   3.560264   -0.363901
 0.025000   3.558330   -0.409763
 0.030000   3.556166   -0.455546
 0.035000   3.553774   -0.501241
 0.040000   3.551154   -0.546839
 0.045000   3.548306   -0.592331
 0.050000   3.545230   -0.637708
 0.055000   3.541929   -0.682963
 0.060000   3.538401   -0.728085
 0.065000   3.534648   -0.773066
 0.070000   3.530670   -0.817898
 0.075000   3.526469   -0.862573
 0.080000   3.522044   -0.907081
 0.085000   3.517398   -0.951415
 0.090000   3.512530   -0.995566
 0.095000   3.507442   -1.039526
 0.100000   3.502135   -1.083285
 0.105000   3.496609   -1.126838
 0.110000   3.490867   -1.170174
 0.115000   3.484908   -1.213286
 0.120000   3.478734   -1.256167
 0.125000   3.472346   -1.298808
 0.130000   3.465746   -1.341201
 0.135000   3.458934   -1.383339
 0.140000   3.451912   -1.425213
 0.145000   3.444682   -1.466817
 0.150000   3.437244   -1.508143
 0.155000   3.429601   -1.549183
 0.160000   3.421752   -1.589931
 0.165000   3.413701   -1.630378
 0.170000   3.405449   -1.670518
 0.175000   3.396996   -1.710344
 0.180000   3.388345   -1.749848
 0.185000   3.379498   -1.789024
 0.190000   3.370455   -1.827866
 0.195000   3.361219   -1.866366
 0.200000   3.351791   -1.904518
 0.205000   3.342174   -1.942316
 0.210000   3.332368   -1.979753
 0.215000   3.322376   -2.016823
 0.220000   3.312200   -2.053520
 0.225000   3.301841   -2.089838
 0.230000   3.291301   -2.125771
 0.235000   3.280583   -2.161314
 0.240000   3.269688   -2.196460
 0.245000   3.258619   -2.231205
 0.250000   3.247376   -2.265543
 0.255000   3.235963   -2.299468
 0.260000   3.224382   -2.332976
 0.265000   3.212633   -2.366061
 0.270000   3.200721   -2.398719
 0.275000   3.188646   -2.430945
 0.280000   3.176412   -2.462735
 0.285000   3.164019   -2.494083
 0.290000   3.151471   -2.524986
 0.295000   3.138769   -2.555439
 0.300000   3.125916   -2.585438
 0.305000   3.112915   -2.614979
 0.310000   3.099767   -2.644059
 0.315000   3.086474   -2.672674
 0.320000   3.073040   -2.700819
 0.325000   3.059466   -2.728493
 0.330000   3.045755   -2.755691
 0.335000   3.031909   -2.782410
 0.340000   3.017931   -2.808648
 0.345000   3.003823   -2.834401
 0.350000   2.989587   -2.859667
 0.355000   2.975226   -2.884443
 0.360000   2.960742   -2.908726
 0.365000   2.946139   -2.932515
 0.370000   2.931417   -2.955808
 0.375000   2.916581   -2.978602
 0.380000   2.901631   -3.000894
 0.385000   2.886572   -3.022685
 0.390000   2.871404   -3.043972
 0.395000   2.856132   -3.064753
 0.400000   2.840757   -3.085027
 0.405000   2.825282   -3.104793
 0.410000   2.809709   -3.124050
 0.415000   2.794041   -3.142797
 0.420000   2.778281   -3.161033
 0.425000   2.762431   -3.178758
 0.430000   2.746493   -3.195971
 0.435000   2.730471   -3.212671
 0.440000   2.714367   -3.228859
 0.445000   2.698182   -3.244534
 0.450000   2.681921   -3.259696
 0.455000   2.665585   -3.274346
 0.460000   2.649178   -3.288484
 0.465000   2.632701   -3.302110
 0.470000   2.616157   -3.315224
 0.475000   2.599548   -3.327828
 0.480000   2.582878   -3.339922
 0.485000   2.566149   -3.351508
 0.490000   2.549363   -3.362585
 0.495000   2.532523   -3.373156
 0.500000   2.515632   -3.383221
 0.505000   2.498691   -3.392783
 0.510000   2.481704   -3.401842
 0.515000   2.464673   -3.410401
 0.520000   2.447600   -3.418460
 0.525000   2.430488   -3.426023
 0.530000   2.413340   -3.433090
 0.535000   2.396157   -3.439665
 0.540000   2.378943   -3.445749
 0.545000   2.361700   -3.451344
 0.550000   2.344430   -3.456454
 0.555000   2.327135   -3.461081
 0.560000   2.309819   -3.465226
 0.565000   2.292483   -3.468894
 0.570000   2.275130   -3.472088
 0.575000   2.257762   -3.474809
 0.580000   2.240382   -3.477061
 0.585000   2.222991   -3.478847
 0.590000   2.205593   -3.480171
 0.595000   2.188190   -3.481036
 0.600000   2.170783   -3.481446
 0.605000   2.153375   -3.481403
 0.610000   2.135969   -3.480912
 0.615000   2.118566   -3.479976
 0.620000   2.101169   -3.478600
 0.625000   2.083780   -3.476786
 0.630000   2.066401   -3.474540
 0.635000   2.049035   -3.471864
 0.640000   2.031683   -3.468764
 0.645000   2.014347   -3.465244
 0.650000   1.997030   -3.461307
 0.655000   1.979734   -3.456959
 0.660000   1.962461   -3.452204
 0.665000   1.945212   -3.447046
 0.670000   1.927990   -3.441490
 0.675000   1.910797   -3.435542
 0.680000   1.893635   -3.429205
 0.685000   1.876505   -3.422485
 0.690000   1.859410   -3.415388
 0.695000   1.842351   -3.407918
 0.700000   1.825331   -3.400082
 0.705000   1.808350   -3.391885
 0.710000   1.791412   -3.383332
 0.715000   1.774517   -3.374432
 0.720000   1.757668   -3.365190
 0.725000   1.740865   -3.355614
 0.730000   1.724111   -3.345712
 0.735000   1.707408   -3.335493
 0.740000   1.690756   -3.324968
 0.745000   1.674158   -3.314148
 0.750000   1.657615   -3.303046
 0.755000   1.641128   -3.291679
 0.760000   1.624698   -3.280065
 0.765000   1.608327   -3.268228
 0.770000   1.592016   -3.256195
 0.775000   1.575765   -3.244000
 0.780000   1.559576   -3.231689
 0.785000   1.543448   -3.219314
 0.790000   1.527383   -3.206945
 0.795000   1.511379   -3.194671
 0.800000   1.495436   -3.182603
 0.805000   1.479553   -3.170886
 0.810000   1.463727   -3.159707
 0.815000   1.447956   -3.149304
 0.820000   1.432234   -3.139990
 0.825000   1.416556   -3.132164
 0.830000   1.400913   -3.126348
 0.835000   1.385292   -3.123216
 0.840000   1.369680   -3.123642
 0.845000   1.354056   -3.128763
 0.850000   1.338393   -3.140048
 0.855000   1.322656   -3.159404
 0.860000   1.306799   -3.189297
 0.865000   1.290763   -3.232915
 0.870000   1.274470   -3.294364
 0.875000   1.257819   -3.378919
 0.880000   1.240680   -3.493319
 0.885000   1.222886   -3.646125
 0.890000   1.204219   -3.848110
 0.895000   1.184405   -4.112669
 0.900000   1.163092   -4.456170
 0.905000   1.139843   -4.898135
 0.910000   1.114111   -5.461021
 0.915000   1.085233   -6.169258
 0.920000   1.052419   -7.047016
 0.925000   1.014763   -8.113988
 0.930000   0.971279   -9.378405
 0.935000   0.920979   -10.826715
 0.940000   0.863011   -12.410294
 0.945000   0.796876   -14.031638
 0.950000   0.722695   -15.535770
 0.955000   0.641518   -16.716198
 0.960000   0.555533   -17.345338
 0.965000   0.468065   -17.232275
 0.970000   0.383210   -16.293908
 0.975000   0.305125   -14.606500
 0.980000   0.237145   -12.401721
 0.985000   0.181108   -9.997746
 0.990000   0.137168   -7.697931
 0.995000   0.104129   -5.710611
 1.000000   0.080062   -3.916234
201 psinorm ni(10^20/m^3) dni/dpsiN
 0.000000   0.446907   -0.560986
 0.005000   0.444217   -0.514839
 0.010000   0.441758   -0.471084
 0.015000   0.439506   -0.431937
 0.020000   0.437439   -0.396485
 0.025000   0.435541   -0.364009
 0.030000   0.433799   -0.334224
 0.035000   0.432199   -0.307238
 0.040000   0.430726   -0.283148
 0.045000   0.429368   -0.261328
 0.050000   0.428113   -0.241562
 0.055000   0.426952   -0.224035
 0.060000   0.425873   -0.208127
 0.065000   0.424871   -0.193762
 0.070000   0.423935   -0.181318
 0.075000   0.423058   -0.169859
 0.080000   0.422237   -0.159653
 0.085000   0.421461   -0.151111
 0.090000   0.420726   -0.143672
 0.095000   0.420024   -0.137248
 0.100000   0.419353   -0.131795
 0.105000   0.418706   -0.127209
 0.110000   0.418081   -0.123392
 0.115000   0.417473   -0.120373
 0.120000   0.416877   -0.118083
 0.125000   0.416292   -0.116448
 0.130000   0.415713   -0.115429
 0.135000   0.415137   -0.114988
 0.140000   0.414563   -0.115241
 0.145000   0.413985   -0.116060
 0.150000   0.413402   -0.117240
 0.155000   0.412813   -0.118837
 0.160000   0.412214   -0.120876
 0.165000   0.411604   -0.123346
 0.170000   0.410980   -0.126189
 0.175000   0.410342   -0.129337
 0.180000   0.409687   -0.132740
 0.185000   0.409015   -0.136384
 0.190000   0.408323   -0.140275
 0.195000   0.407612   -0.144311
 0.200000   0.406880   -0.148591
 0.205000   0.406126   -0.152796
 0.210000   0.405352   -0.156681
 0.215000   0.404559   -0.160526
 0.220000   0.403747   -0.164341
 0.225000   0.402916   -0.168140
 0.230000   0.402065   -0.172074
 0.235000   0.401195   -0.176466
 0.240000   0.400301   -0.181067
 0.245000   0.399384   -0.185581
 0.250000   0.398445   -0.190225
 0.255000   0.397482   -0.195082
 0.260000   0.396494   -0.200203
 0.265000   0.395480   -0.205830
 0.270000   0.394436   -0.211602
 0.275000   0.393364   -0.217185
 0.280000   0.392264   -0.222833
 0.285000   0.391136   -0.228598
 0.290000   0.389978   -0.234525
 0.295000   0.388790   -0.240339
 0.300000   0.387575   -0.245800
 0.305000   0.386332   -0.250999
 0.310000   0.385065   -0.255971
 0.315000   0.383773   -0.260843
 0.320000   0.382456   -0.265427
 0.325000   0.381118   -0.269570
 0.330000   0.379761   -0.273488
 0.335000   0.378384   -0.277261
 0.340000   0.376988   -0.280944
 0.345000   0.375574   -0.284429
 0.350000   0.374144   -0.287687
 0.355000   0.372697   -0.290793
 0.360000   0.371236   -0.293767
 0.365000   0.369760   -0.296529
 0.370000   0.368270   -0.298999
 0.375000   0.366770   -0.301205
 0.380000   0.365258   -0.303156
 0.385000   0.363738   -0.304825
 0.390000   0.362210   -0.306161
 0.395000   0.360676   -0.307168
 0.400000   0.359138   -0.307871
 0.405000   0.357598   -0.308274
 0.410000   0.356056   -0.308376
 0.415000   0.354514   -0.308193
 0.420000   0.352974   -0.307739
 0.425000   0.351437   -0.307026
 0.430000   0.349903   -0.306035
 0.435000   0.348376   -0.304755
 0.440000   0.346856   -0.303183
 0.445000   0.345344   -0.301292
 0.450000   0.343843   -0.299039
 0.455000   0.342354   -0.296392
 0.460000   0.340879   -0.293340
 0.465000   0.339421   -0.289887
 0.470000   0.337980   -0.286028
 0.475000   0.336560   -0.281752
 0.480000   0.335163   -0.277085
 0.485000   0.333789   -0.272069
 0.490000   0.332442   -0.266734
 0.495000   0.331122   -0.261102
 0.500000   0.329831   -0.255211
 0.505000   0.328570   -0.249097
 0.510000   0.327340   -0.242792
 0.515000   0.326142   -0.236302
 0.520000   0.324977   -0.229625
 0.525000   0.323846   -0.222782
 0.530000   0.322749   -0.215787
 0.535000   0.321688   -0.208596
 0.540000   0.320663   -0.201184
 0.545000   0.319676   -0.193579
 0.550000   0.318727   -0.185809
 0.555000   0.317818   -0.177901
 0.560000   0.316948   -0.169889
 0.565000   0.316119   -0.161814
 0.570000   0.315330   -0.153706
 0.575000   0.314582   -0.145581
 0.580000   0.313874   -0.137455
 0.585000   0.313207   -0.129334
 0.590000   0.312581   -0.121199
 0.595000   0.311996   -0.113021
 0.600000   0.311451   -0.104813
 0.605000   0.310947   -0.096598
 0.610000   0.310485   -0.088388
 0.615000   0.310064   -0.080198
 0.620000   0.309683   -0.071981
 0.625000   0.309344   -0.063823
 0.630000   0.309045   -0.055850
 0.635000   0.308785   -0.048067
 0.640000   0.308564   -0.040508
 0.645000   0.308380   -0.033151
 0.650000   0.308233   -0.025608
 0.655000   0.308124   -0.017039
 0.660000   0.308062   -0.006787
 0.665000   0.308056   0.005365
 0.670000   0.308116   0.019462
 0.675000   0.308251   0.035362
 0.680000   0.308469   0.053907
 0.685000   0.308790   0.074011
 0.690000   0.309210   0.093468
 0.695000   0.309725   0.112247
 0.700000   0.310332   0.130160
 0.705000   0.311026   0.146562
 0.710000   0.311798   0.161243
 0.715000   0.312639   0.172743
 0.720000   0.313525   0.179615
 0.725000   0.314435   0.182295
 0.730000   0.315348   0.181078
 0.735000   0.316245   0.176066
 0.740000   0.317109   0.166937
 0.745000   0.317915   0.154172
 0.750000   0.318650   0.139978
 0.755000   0.319315   0.125522
 0.760000   0.319906   0.110983
 0.765000   0.320424   0.096936
 0.770000   0.320875   0.083508
 0.775000   0.321260   0.071467
 0.780000   0.321590   0.062387
 0.785000   0.321883   0.056334
 0.790000   0.322153   0.052622
 0.795000   0.322410   0.050989
 0.800000   0.322663   0.050986
 0.805000   0.322919   0.052079
 0.810000   0.323184   0.054187
 0.815000   0.323461   0.057621
 0.820000   0.323760   0.062672
 0.825000   0.324088   0.069664
 0.830000   0.324457   0.078886
 0.835000   0.324877   0.090635
 0.840000   0.325363   0.105734
 0.845000   0.325934   0.125095
 0.850000   0.326614   0.149134
 0.855000   0.327426   0.177993
 0.860000   0.328394   0.211558
 0.865000   0.329541   0.250100
 0.870000   0.330895   0.292136
 0.875000   0.332463   0.335502
 0.880000   0.334250   0.378181
 0.885000   0.336244   0.415932
 0.890000   0.338409   0.442693
 0.895000   0.340671   0.453892
 0.900000   0.342948   0.436643
 0.905000   0.345038   0.373039
 0.910000   0.346678   0.247861
 0.915000   0.347516   0.042529
 0.920000   0.347104   -0.259984
 0.925000   0.344916   -0.659603
 0.930000   0.340508   -1.161196
 0.935000   0.333305   -1.755683
 0.940000   0.322951   -2.394203
 0.945000   0.309363   -3.016887
 0.950000   0.292782   -3.560562
 0.955000   0.273757   -3.965469
 0.960000   0.253127   -4.217460
 0.965000   0.231582   -4.320839
 0.970000   0.209919   -4.269449
 0.975000   0.188888   -4.081618
 0.980000   0.169103   -3.789278
 0.985000   0.150995   -3.432004
 0.990000   0.134783   -3.047061
 0.995000   0.120524   -2.663173
 1.000000   0.108151   -2.286219
201 psinorm ti(KeV) dti/dpsiN
 0.000000   4.776689   0.002461
 0.005000   4.776243   -0.181107
 0.010000   4.774878   -0.368295
 0.015000   4.772560   -0.562489
 0.020000   4.769253   -0.763133
 0.025000   4.764928   -0.969476
 0.030000   4.759559   -1.180582
 0.035000   4.753123   -1.395351
 0.040000   4.745605   -1.612041
 0.045000   4.737002   -1.829431
 0.050000   4.727311   -2.046696
 0.055000   4.716535   -2.262482
 0.060000   4.704686   -2.475750
 0.065000   4.691778   -2.685716
 0.070000   4.677829   -2.890798
 0.075000   4.662870   -3.091107
 0.080000   4.646918   -3.287298
 0.085000   4.629997   -3.478256
 0.090000   4.612135   -3.663444
 0.095000   4.593362   -3.842641
 0.100000   4.573709   -4.014795
 0.105000   4.553214   -4.180462
 0.110000   4.531904   -4.341092
 0.115000   4.509804   -4.496294
 0.120000   4.486941   -4.645639
 0.125000   4.463347   -4.788788
 0.130000   4.439053   -4.924544
 0.135000   4.414102   -5.052140
 0.140000   4.388532   -5.172020
 0.145000   4.362382   -5.284108
 0.150000   4.335691   -5.387964
 0.155000   4.308502   -5.483330
 0.160000   4.280858   -5.569285
 0.165000   4.252809   -5.645503
 0.170000   4.224403   -5.714103
 0.175000   4.195668   -5.777388
 0.180000   4.166629   -5.836797
 0.185000   4.137300   -5.893670
 0.190000   4.107692   -5.949323
 0.195000   4.077807   -6.004970
 0.200000   4.047642   -6.058750
 0.205000   4.017219   -6.109068
 0.210000   3.986552   -6.156451
 0.215000   3.955655   -6.200474
 0.220000   3.924547   -6.241696
 0.225000   3.893238   -6.280978
 0.230000   3.861737   -6.312812
 0.235000   3.830110   -6.333750
 0.240000   3.798400   -6.345356
 0.245000   3.766656   -6.346597
 0.250000   3.734934   -6.336798
 0.255000   3.703288   -6.314762
 0.260000   3.671786   -6.278203
 0.265000   3.640506   -6.227471
 0.270000   3.609511   -6.164374
 0.275000   3.578862   -6.089453
 0.280000   3.548617   -6.003376
 0.285000   3.518829   -5.905229
 0.290000   3.489564   -5.801564
 0.295000   3.460813   -5.698156
 0.300000   3.432583   -5.593488
 0.305000   3.404878   -5.488476
 0.310000   3.377698   -5.383945
 0.315000   3.351039   -5.280361
 0.320000   3.324895   -5.179952
 0.325000   3.299239   -5.083436
 0.330000   3.274060   -4.989403
 0.335000   3.249345   -4.897875
 0.340000   3.225081   -4.808811
 0.345000   3.201257   -4.724115
 0.350000   3.177840   -4.640796
 0.355000   3.154849   -4.553108
 0.360000   3.132309   -4.459751
 0.365000   3.110252   -4.359970
 0.370000   3.088709   -4.253633
 0.375000   3.067715   -4.139114
 0.380000   3.047318   -4.017828
 0.385000   3.027537   -3.895075
 0.390000   3.008368   -3.773521
 0.395000   2.989802   -3.654372
 0.400000   2.971824   -3.538779
 0.405000   2.954414   -3.425934
 0.410000   2.937565   -3.317808
 0.415000   2.921236   -3.217258
 0.420000   2.905392   -3.122998
 0.425000   2.890006   -3.034225
 0.430000   2.875050   -2.951125
 0.435000   2.860495   -2.873579
 0.440000   2.846314   -2.802572
 0.445000   2.832469   -2.739009
 0.450000   2.818924   -2.682099
 0.455000   2.805648   -2.631125
 0.460000   2.792613   -2.585446
 0.465000   2.779793   -2.543971
 0.470000   2.767173   -2.504407
 0.475000   2.754749   -2.465593
 0.480000   2.742517   -2.428727
 0.485000   2.730462   -2.394713
 0.490000   2.718570   -2.363783
 0.495000   2.706824   -2.335899
 0.500000   2.695211   -2.310936
 0.505000   2.683715   -2.289151
 0.510000   2.672319   -2.270654
 0.515000   2.661008   -2.255261
 0.520000   2.649767   -2.242920
 0.525000   2.638579   -2.233508
 0.530000   2.627432   -2.226878
 0.535000   2.616310   -2.223277
 0.540000   2.605199   -2.222738
 0.545000   2.594083   -2.224950
 0.550000   2.582949   -2.229808
 0.555000   2.571785   -2.237186
 0.560000   2.560577   -2.247178
 0.565000   2.549313   -2.260321
 0.570000   2.537974   -2.277146
 0.575000   2.526542   -2.297849
 0.580000   2.514996   -2.322442
 0.585000   2.503317   -2.350887
 0.590000   2.491487   -2.384667
 0.595000   2.479471   -2.421974
 0.600000   2.467267   -2.460540
 0.605000   2.454865   -2.501168
 0.610000   2.442255   -2.543370
 0.615000   2.429431   -2.586613
 0.620000   2.416389   -2.632028
 0.625000   2.403111   -2.676933
 0.630000   2.389620   -2.719138
 0.635000   2.375920   -2.760861
 0.640000   2.362011   -2.802568
 0.645000   2.347894   -2.844460
 0.650000   2.333567   -2.887504
 0.655000   2.319019   -2.928329
 0.660000   2.304284   -2.962939
 0.665000   2.289390   -2.991619
 0.670000   2.274367   -3.014339
 0.675000   2.259246   -3.031249
 0.680000   2.244055   -3.041677
 0.685000   2.228830   -3.046659
 0.690000   2.213588   -3.048469
 0.695000   2.198345   -3.047327
 0.700000   2.183115   -3.043287
 0.705000   2.167912   -3.036802
 0.710000   2.152747   -3.026962
 0.715000   2.137642   -3.015511
 0.720000   2.122592   -3.007077
 0.725000   2.107572   -3.004490
 0.730000   2.092547   -3.010307
 0.735000   2.077469   -3.026969
 0.740000   2.062277   -3.058316
 0.745000   2.046885   -3.103516
 0.750000   2.031242   -3.153306
 0.755000   2.015352   -3.203314
 0.760000   1.999209   -3.254260
 0.765000   1.982810   -3.305251
 0.770000   1.966156   -3.357402
 0.775000   1.949236   -3.409600
 0.780000   1.932060   -3.457656
 0.785000   1.914659   -3.504736
 0.790000   1.897013   -3.556835
 0.795000   1.879091   -3.616109
 0.800000   1.860852   -3.685890
 0.805000   1.842232   -3.768602
 0.810000   1.823166   -3.855700
 0.815000   1.803675   -3.942665
 0.820000   1.783739   -4.035285
 0.825000   1.763322   -4.138133
 0.830000   1.742358   -4.260969
 0.835000   1.720712   -4.421106
 0.840000   1.698147   -4.610359
 0.845000   1.674609   -4.817385
 0.850000   1.649973   -5.049836
 0.855000   1.624110   -5.308885
 0.860000   1.596884   -5.599274
 0.865000   1.568118   -5.942087
 0.870000   1.537463   -6.315556
 0.875000   1.504962   -6.704583
 0.880000   1.470418   -7.134501
 0.885000   1.433617   -7.606614
 0.890000   1.394351   -8.118820
 0.895000   1.352429   -8.707525
 0.900000   1.307276   -9.315775
 0.905000   1.259271   -9.874626
 0.910000   1.208530   -10.397913
 0.915000   1.155292   -10.861171
 0.920000   1.099918   -11.241233
 0.925000   1.042880   -11.540572
 0.930000   0.984512   -11.701729
 0.935000   0.925862   -11.679686
 0.940000   0.867716   -11.503299
 0.945000   0.810829   -11.180374
 0.950000   0.755912   -10.724619
 0.955000   0.703583   -10.148900
 0.960000   0.654423   -9.472533
 0.965000   0.608858   -8.728290
 0.970000   0.567140   -7.946067
 0.975000   0.529397   -7.150454
 0.980000   0.495635   -6.364229
 0.985000   0.465755   -5.591243
 0.990000   0.439723   -4.857139
 0.995000   0.417184   -4.194428
 1.000000   0.397779   -3.567502
201 psinorm nb(10^20/m^3) dnb/dpsiN
 0.000000   0.054667   0.100260
 0.005000   0.055075   0.062709
 0.010000   0.055294   0.027603
 0.015000   0.055351   -0.002804
 0.020000   0.055266   -0.029449
 0.025000   0.055056   -0.053084
 0.030000   0.054736   -0.074029
 0.035000   0.054316   -0.092217
 0.040000   0.053813   -0.107608
 0.045000   0.053240   -0.120862
 0.050000   0.052605   -0.132216
 0.055000   0.051918   -0.141524
 0.060000   0.051190   -0.149436
 0.065000   0.050423   -0.156053
 0.070000   0.049629   -0.161036
 0.075000   0.048813   -0.165301
 0.080000   0.047976   -0.168550
 0.085000   0.047128   -0.170391
 0.090000   0.046272   -0.171393
 0.095000   0.045414   -0.171643
 0.100000   0.044556   -0.171183
 0.105000   0.043702   -0.170105
 0.110000   0.042855   -0.168516
 0.115000   0.042017   -0.166409
 0.120000   0.041191   -0.163859
 0.125000   0.040378   -0.160943
 0.130000   0.039581   -0.157693
 0.135000   0.038801   -0.154162
 0.140000   0.038039   -0.150265
 0.145000   0.037298   -0.146150
 0.150000   0.036578   -0.142031
 0.155000   0.035878   -0.137854
 0.160000   0.035199   -0.133608
 0.165000   0.034542   -0.129312
 0.170000   0.033906   -0.124998
 0.175000   0.033292   -0.120714
 0.180000   0.032699   -0.116503
 0.185000   0.032127   -0.112356
 0.190000   0.031576   -0.108235
 0.195000   0.031045   -0.104138
 0.200000   0.030534   -0.099859
 0.205000   0.030046   -0.095704
 0.210000   0.029577   -0.091937
 0.215000   0.029127   -0.088299
 0.220000   0.028694   -0.084787
 0.225000   0.028279   -0.081386
 0.230000   0.027880   -0.078113
 0.235000   0.027498   -0.074740
 0.240000   0.027133   -0.071474
 0.245000   0.026783   -0.068632
 0.250000   0.026447   -0.066005
 0.255000   0.026123   -0.063517
 0.260000   0.025811   -0.061159
 0.265000   0.025511   -0.058659
 0.270000   0.025225   -0.056307
 0.275000   0.024948   -0.054397
 0.280000   0.024681   -0.052631
 0.285000   0.024422   -0.050961
 0.290000   0.024171   -0.049219
 0.295000   0.023930   -0.047551
 0.300000   0.023696   -0.046185
 0.305000   0.023468   -0.044979
 0.310000   0.023246   -0.043861
 0.315000   0.023029   -0.042690
 0.320000   0.022819   -0.041612
 0.325000   0.022613   -0.040780
 0.330000   0.022411   -0.040039
 0.335000   0.022213   -0.039330
 0.340000   0.022018   -0.038620
 0.345000   0.021827   -0.038023
 0.350000   0.021638   -0.037563
 0.355000   0.021451   -0.037149
 0.360000   0.021266   -0.036729
 0.365000   0.021084   -0.036354
 0.370000   0.020903   -0.036080
 0.375000   0.020723   -0.035849
 0.380000   0.020544   -0.035629
 0.385000   0.020367   -0.035426
 0.390000   0.020190   -0.035276
 0.395000   0.020014   -0.035162
 0.400000   0.019838   -0.035054
 0.405000   0.019663   -0.034940
 0.410000   0.019489   -0.034841
 0.415000   0.019315   -0.034763
 0.420000   0.019141   -0.034687
 0.425000   0.018968   -0.034600
 0.430000   0.018795   -0.034513
 0.435000   0.018623   -0.034442
 0.440000   0.018451   -0.034373
 0.445000   0.018279   -0.034291
 0.450000   0.018108   -0.034204
 0.455000   0.017937   -0.034128
 0.460000   0.017767   -0.034056
 0.465000   0.017597   -0.033976
 0.470000   0.017427   -0.033890
 0.475000   0.017258   -0.033816
 0.480000   0.017089   -0.033749
 0.485000   0.016920   -0.033678
 0.490000   0.016752   -0.033598
 0.495000   0.016584   -0.033521
 0.500000   0.016417   -0.033451
 0.505000   0.016250   -0.033380
 0.510000   0.016083   -0.033294
 0.515000   0.015917   -0.033210
 0.520000   0.015751   -0.033140
 0.525000   0.015585   -0.033072
 0.530000   0.015420   -0.032995
 0.535000   0.015255   -0.032920
 0.540000   0.015091   -0.032861
 0.545000   0.014927   -0.032810
 0.550000   0.014763   -0.032760
 0.555000   0.014599   -0.032714
 0.560000   0.014436   -0.032682
 0.565000   0.014272   -0.032660
 0.570000   0.014109   -0.032647
 0.575000   0.013946   -0.032644
 0.580000   0.013783   -0.032656
 0.585000   0.013619   -0.032679
 0.590000   0.013456   -0.032713
 0.595000   0.013292   -0.032761
 0.600000   0.013128   -0.032823
 0.605000   0.012964   -0.032894
 0.610000   0.012799   -0.032975
 0.615000   0.012634   -0.033068
 0.620000   0.012469   -0.033187
 0.625000   0.012302   -0.033326
 0.630000   0.012135   -0.033460
 0.635000   0.011968   -0.033598
 0.640000   0.011799   -0.033742
 0.645000   0.011630   -0.033917
 0.650000   0.011460   -0.034104
 0.655000   0.011289   -0.034275
 0.660000   0.011118   -0.034449
 0.665000   0.010945   -0.034630
 0.670000   0.010771   -0.034842
 0.675000   0.010596   -0.035069
 0.680000   0.010421   -0.035282
 0.685000   0.010244   -0.035493
 0.690000   0.010066   -0.035701
 0.695000   0.009887   -0.035919
 0.700000   0.009706   -0.036151
 0.705000   0.009525   -0.036367
 0.710000   0.009343   -0.036561
 0.715000   0.009159   -0.036747
 0.720000   0.008975   -0.036926
 0.725000   0.008790   -0.037108
 0.730000   0.008604   -0.037282
 0.735000   0.008417   -0.037427
 0.740000   0.008230   -0.037550
 0.745000   0.008042   -0.037656
 0.750000   0.007853   -0.037746
 0.755000   0.007664   -0.037822
 0.760000   0.007475   -0.037884
 0.765000   0.007286   -0.037926
 0.770000   0.007096   -0.037950
 0.775000   0.006906   -0.037962
 0.780000   0.006716   -0.037961
 0.785000   0.006526   -0.037949
 0.790000   0.006337   -0.037922
 0.795000   0.006147   -0.037878
 0.800000   0.005958   -0.037817
 0.805000   0.005769   -0.037741
 0.810000   0.005581   -0.037649
 0.815000   0.005393   -0.037543
 0.820000   0.005205   -0.037422
 0.825000   0.005018   -0.037288
 0.830000   0.004832   -0.037141
 0.835000   0.004647   -0.036974
 0.840000   0.004463   -0.036776
 0.845000   0.004279   -0.036556
 0.850000   0.004097   -0.036325
 0.855000   0.003916   -0.036068
 0.860000   0.003736   -0.035773
 0.865000   0.003558   -0.035439
 0.870000   0.003382   -0.035069
 0.875000   0.003208   -0.034674
 0.880000   0.003035   -0.034250
 0.885000   0.002865   -0.033783
 0.890000   0.002697   -0.033256
 0.895000   0.002532   -0.032650
 0.900000   0.002371   -0.031952
 0.905000   0.002213   -0.031158
 0.910000   0.002059   -0.030272
 0.915000   0.001910   -0.029313
 0.920000   0.001766   -0.028305
 0.925000   0.001627   -0.027292
 0.930000   0.001493   -0.026358
 0.935000   0.001364   -0.025614
 0.940000   0.001237   -0.025168
 0.945000   0.001112   -0.025072
 0.950000   0.000986   -0.025245
 0.955000   0.000859   -0.025374
 0.960000   0.000733   -0.024954
 0.965000   0.000610   -0.023581
 0.970000   0.000497   -0.021203
 0.975000   0.000398   -0.018112
 0.980000   0.000316   -0.014898
 0.985000   0.000249   -0.012257
 0.990000   0.000193   -0.010688
 0.995000   0.000142   -0.010326
 1.000000   0.000090   -0.010549
201 psinorm pb(KPa) dpb/dpsiN
 0.000000   22.095264   33.165165
 0.005000   22.226855   19.471223
 0.010000   22.289976   6.015677
 0.015000   22.287012   -6.085564
 0.020000   22.229121   -16.589797
 0.025000   22.121114   -26.007084
 0.030000   21.969050   -34.455546
 0.035000   21.776558   -41.770290
 0.040000   21.551347   -47.784392
 0.045000   21.298715   -52.896647
 0.050000   21.022381   -57.173514
 0.055000   20.726979   -60.619430
 0.060000   20.416186   -63.572973
 0.065000   20.091250   -66.022974
 0.070000   19.755957   -67.826665
 0.075000   19.412983   -69.365895
 0.080000   19.062298   -70.508312
 0.085000   18.707900   -71.077868
 0.090000   18.351519   -71.316209
 0.095000   17.994738   -71.261923
 0.100000   17.638900   -70.939891
 0.105000   17.285339   -70.407541
 0.110000   16.934824   -69.687566
 0.115000   16.588463   -68.743776
 0.120000   16.247386   -67.617942
 0.125000   15.912284   -66.354579
 0.130000   15.583841   -64.967713
 0.135000   15.262607   -63.472879
 0.140000   14.949112   -61.790248
 0.145000   14.644704   -60.017171
 0.150000   14.348940   -58.303632
 0.155000   14.061668   -56.591967
 0.160000   13.783021   -54.857700
 0.165000   13.513091   -53.108712
 0.170000   13.251933   -51.356475
 0.175000   12.999526   -49.625241
 0.180000   12.755681   -47.938218
 0.185000   12.520144   -46.284750
 0.190000   12.292833   -44.630165
 0.195000   12.073842   -42.976910
 0.200000   11.863064   -41.258248
 0.205000   11.661260   -39.590513
 0.210000   11.467159   -38.074874
 0.215000   11.280511   -36.612075
 0.220000   11.101039   -35.197889
 0.225000   10.928532   -33.824729
 0.230000   10.762791   -32.500312
 0.235000   10.603529   -31.146604
 0.240000   10.451325   -29.842921
 0.245000   10.305100   -28.702892
 0.250000   10.164296   -27.646970
 0.255000   10.028630   -26.646336
 0.260000   9.897833   -25.697071
 0.265000   9.771659   -24.695612
 0.270000   9.650877   -23.753308
 0.275000   9.534126   -22.985478
 0.280000   9.421022   -22.275537
 0.285000   9.311371   -21.597694
 0.290000   9.205045   -20.889407
 0.295000   9.102477   -20.209616
 0.300000   9.002949   -19.646005
 0.305000   8.906017   -19.144520
 0.310000   8.811504   -18.677820
 0.315000   8.719239   -18.191501
 0.320000   8.629589   -17.741349
 0.325000   8.541825   -17.386906
 0.330000   8.455720   -17.068163
 0.335000   8.371144   -16.762779
 0.340000   8.288092   -16.457594
 0.345000   8.206568   -16.196003
 0.350000   8.126132   -15.987697
 0.355000   8.046691   -15.797740
 0.360000   7.968154   -15.607002
 0.365000   7.890621   -15.434299
 0.370000   7.813811   -15.301084
 0.375000   7.737610   -15.185149
 0.380000   7.661960   -15.074202
 0.385000   7.586868   -14.971068
 0.390000   7.512249   -14.886278
 0.395000   7.438005   -14.814100
 0.400000   7.364108   -14.746267
 0.405000   7.290542   -14.678934
 0.410000   7.217319   -14.616395
 0.415000   7.144378   -14.560306
 0.420000   7.071716   -14.505169
 0.425000   6.999327   -14.446405
 0.430000   6.927252   -14.387998
 0.435000   6.855447   -14.334972
 0.440000   6.783902   -14.283335
 0.445000   6.712613   -14.228527
 0.450000   6.641617   -14.173920
 0.455000   6.570874   -14.126192
 0.460000   6.500355   -14.082031
 0.465000   6.430054   -14.034839
 0.470000   6.360007   -13.986068
 0.475000   6.290193   -13.941905
 0.480000   6.220587   -13.900925
 0.485000   6.151184   -13.860291
 0.490000   6.081985   -13.820144
 0.495000   6.012982   -13.780854
 0.500000   5.944176   -13.741566
 0.505000   5.875567   -13.701939
 0.510000   5.807157   -13.661532
 0.515000   5.738952   -13.621377
 0.520000   5.670943   -13.582139
 0.525000   5.603130   -13.543028
 0.530000   5.535513   -13.503752
 0.535000   5.468093   -13.466583
 0.540000   5.400847   -13.432460
 0.545000   5.333768   -13.399609
 0.550000   5.266851   -13.368670
 0.555000   5.200081   -13.341577
 0.560000   5.133435   -13.316874
 0.565000   5.066913   -13.292554
 0.570000   5.000509   -13.269155
 0.575000   4.934221   -13.256066
 0.580000   4.867949   -13.250067
 0.585000   4.801720   -13.241139
 0.590000   4.735537   -13.232734
 0.595000   4.669393   -13.230836
 0.600000   4.603229   -13.234740
 0.605000   4.537046   -13.238199
 0.610000   4.470847   -13.242780
 0.615000   4.404618   -13.250280
 0.620000   4.338344   -13.272080
 0.625000   4.271897   -13.298495
 0.630000   4.205359   -13.315822
 0.635000   4.138739   -13.333481
 0.640000   4.072024   -13.353026
 0.645000   4.005208   -13.384600
 0.650000   3.938178   -13.416305
 0.655000   3.871045   -13.436444
 0.660000   3.803814   -13.456725
 0.665000   3.736478   -13.477854
 0.670000   3.669035   -13.509366
 0.675000   3.601385   -13.544838
 0.680000   3.533587   -13.573324
 0.685000   3.465651   -13.599733
 0.690000   3.397590   -13.622799
 0.695000   3.329423   -13.647637
 0.700000   3.261113   -13.676552
 0.705000   3.192658   -13.697891
 0.710000   3.124134   -13.709828
 0.715000   3.055560   -13.718291
 0.720000   2.986951   -13.722958
 0.725000   2.918330   -13.727666
 0.730000   2.849675   -13.728562
 0.735000   2.781044   -13.717856
 0.740000   2.712496   -13.697899
 0.745000   2.644065   -13.670790
 0.750000   2.575788   -13.636349
 0.755000   2.507702   -13.595456
 0.760000   2.439834   -13.548091
 0.765000   2.372221   -13.493276
 0.770000   2.304901   -13.432506
 0.775000   2.237896   -13.367705
 0.780000   2.171224   -13.299163
 0.785000   2.104904   -13.226742
 0.790000   2.038957   -13.150355
 0.795000   1.973401   -13.068108
 0.800000   1.908276   -12.980894
 0.805000   1.843592   -12.889853
 0.810000   1.779377   -12.794600
 0.815000   1.715646   -12.696100
 0.820000   1.652416   -12.594178
 0.825000   1.589704   -12.489709
 0.830000   1.527519   -12.382961
 0.835000   1.465874   -12.271860
 0.840000   1.404800   -12.152070
 0.845000   1.344354   -12.027170
 0.850000   1.284529   -11.901348
 0.855000   1.225340   -11.769360
 0.860000   1.166835   -11.627845
 0.865000   1.109062   -11.475932
 0.870000   1.052076   -11.313864
 0.875000   0.995923   -11.142470
 0.880000   0.940651   -10.959352
 0.885000   0.886330   -10.760182
 0.890000   0.833049   -10.540980
 0.895000   0.780920   -10.297078
 0.900000   0.730078   -10.025757
 0.905000   0.680662   -9.727841
 0.910000   0.632800   -9.407075
 0.915000   0.586591   -9.070813
 0.920000   0.542092   -8.728097
 0.925000   0.499310   -8.392152
 0.930000   0.458170   -8.084618
 0.935000   0.418464   -7.833669
 0.940000   0.379834   -7.666603
 0.945000   0.341798   -7.598326
 0.950000   0.303850   -7.612495
 0.955000   0.265673   -7.636106
 0.960000   0.227489   -7.545464
 0.965000   0.190219   -7.227762
 0.970000   0.155212   -6.638197
 0.975000   0.123837   -5.819992
 0.980000   0.097012   -4.887742
 0.985000   0.074959   -3.973177
 0.990000   0.057280   -3.235492
 0.995000   0.042604   -2.847258
 1.000000   0.028807   -2.671531
201 psinorm ptot(KPa) dptot/dpsiN
 0.000000   101.660839   -38.210303
 0.005000   101.439632   -50.272553
 0.010000   101.158114   -62.296003
 0.015000   100.816672   -73.349854
 0.020000   100.424615   -83.119002
 0.025000   99.985482   -92.054083
 0.030000   99.504075   -100.245493
 0.035000   98.983027   -107.529101
 0.040000   98.428784   -113.732634
 0.045000   97.845701   -119.198544
 0.050000   97.236798   -123.971369
 0.055000   96.605987   -128.059577
 0.060000   95.956202   -131.747242
 0.065000   95.288515   -135.011675
 0.070000   94.606086   -137.726679
 0.075000   93.911248   -140.205068
 0.080000   93.204035   -142.339765
 0.085000   92.487850   -143.976841
 0.090000   91.764266   -145.311518
 0.095000   91.034735   -146.374141
 0.100000   90.300525   -147.178109
 0.105000   89.562954   -147.777163
 0.110000   88.822753   -148.196879
 0.115000   88.080985   -148.399422
 0.120000   87.338759   -148.417854
 0.125000   86.596807   -148.288269
 0.130000   85.855877   -148.012698
 0.135000   85.116680   -147.597726
 0.140000   84.379899   -146.973955
 0.145000   83.646940   -146.228407
 0.150000   82.917615   -145.492880
 0.155000   82.192011   -144.711553
 0.160000   81.470500   -143.854491
 0.165000   80.753467   -142.925988
 0.170000   80.041240   -141.948912
 0.175000   79.333977   -140.959292
 0.180000   78.631647   -139.987103
 0.185000   77.934106   -139.030248
 0.190000   77.241344   -138.063881
 0.195000   76.553468   -137.093158
 0.200000   75.870413   -136.045251
 0.205000   75.193015   -135.004704
 0.210000   74.520366   -134.060634
 0.215000   73.852409   -133.128992
 0.220000   73.189076   -132.210317
 0.225000   72.530306   -131.304146
 0.230000   71.876034   -130.387238
 0.235000   71.226433   -129.376489
 0.240000   70.582269   -128.347349
 0.245000   69.942960   -127.388455
 0.250000   69.308385   -126.429332
 0.255000   68.678666   -125.438463
 0.260000   68.054000   -124.399160
 0.265000   67.434675   -123.225341
 0.270000   66.821747   -122.021038
 0.275000   66.214464   -120.887259
 0.280000   65.612874   -119.728405
 0.285000   65.017180   -118.516249
 0.290000   64.427712   -117.237443
 0.295000   63.844806   -115.976655
 0.300000   63.267945   -114.798530
 0.305000   62.696821   -113.661659
 0.310000   62.131329   -112.547075
 0.315000   61.571350   -111.411022
 0.320000   61.017218   -110.314886
 0.325000   60.468201   -109.315171
 0.330000   59.924067   -108.353806
 0.335000   59.384663   -107.412894
 0.340000   58.849938   -106.481765
 0.345000   58.319845   -105.610800
 0.350000   57.793830   -104.788775
 0.355000   57.271958   -103.947545
 0.360000   56.754354   -103.061493
 0.365000   56.241343   -102.141780
 0.370000   55.732937   -101.206140
 0.375000   55.229281   -100.224788
 0.380000   54.730689   -99.196172
 0.385000   54.237320   -98.156829
 0.390000   53.749120   -97.132481
 0.395000   53.265995   -96.125609
 0.400000   52.787864   -95.136603
 0.405000   52.314629   -94.156837
 0.410000   51.846296   -93.202709
 0.415000   51.382602   -92.294136
 0.420000   50.923355   -91.417907
 0.425000   50.468423   -90.564610
 0.430000   50.017708   -89.738364
 0.435000   49.571039   -88.942498
 0.440000   49.128284   -88.178790
 0.445000   48.689251   -87.446795
 0.450000   48.253816   -86.743051
 0.455000   47.821820   -86.068119
 0.460000   47.393134   -85.414251
 0.465000   46.967678   -84.768370
 0.470000   46.545451   -84.117876
 0.475000   46.126499   -83.461634
 0.480000   45.710834   -82.806480
 0.485000   45.298434   -82.156551
 0.490000   44.889269   -81.514503
 0.495000   44.483289   -80.881082
 0.500000   44.080458   -80.255925
 0.505000   43.680730   -79.641519
 0.510000   43.284043   -79.039123
 0.515000   42.890339   -78.448667
 0.520000   42.499556   -77.870245
 0.525000   42.111636   -77.303150
 0.530000   41.726525   -76.746653
 0.535000   41.344170   -76.202825
 0.540000   40.964496   -75.671745
 0.545000   40.587452   -75.150866
 0.550000   40.212988   -74.641244
 0.555000   39.841040   -74.145071
 0.560000   39.471537   -73.662465
 0.565000   39.104415   -73.195850
 0.570000   38.739579   -72.749738
 0.575000   38.376918   -72.335105
 0.580000   38.016227   -71.949189
 0.585000   37.657426   -71.581977
 0.590000   37.300408   -71.244439
 0.595000   36.944982   -70.931588
 0.600000   36.591092   -70.630569
 0.605000   36.238676   -70.340571
 0.610000   35.887686   -70.060973
 0.615000   35.538066   -69.791268
 0.620000   35.189773   -69.547546
 0.625000   34.842591   -69.308404
 0.630000   34.496689   -69.052493
 0.635000   34.152066   -68.801590
 0.640000   33.808673   -68.560928
 0.645000   33.466457   -68.340903
 0.650000   33.125264   -68.123055
 0.655000   32.785226   -67.851853
 0.660000   32.446746   -67.497948
 0.665000   32.110247   -67.058580
 0.670000   31.776160   -66.543322
 0.675000   31.444813   -65.952720
 0.680000   31.116633   -65.248939
 0.685000   30.792324   -64.476527
 0.690000   30.471868   -63.713125
 0.695000   30.155193   -62.965311
 0.700000   29.842215   -62.240467
 0.705000   29.532788   -61.547341
 0.710000   29.226741   -60.883834
 0.715000   28.923950   -60.305024
 0.720000   28.623691   -59.874320
 0.725000   28.325207   -59.595011
 0.730000   28.027741   -59.465825
 0.735000   27.730548   -59.486647
 0.740000   27.432874   -59.686808
 0.745000   27.133680   -60.047421
 0.750000   26.832400   -60.454146
 0.755000   26.529139   -60.850244
 0.760000   26.223898   -61.233804
 0.765000   25.916801   -61.582613
 0.770000   25.608072   -61.900138
 0.775000   25.297799   -62.161461
 0.780000   24.986457   -62.302823
 0.785000   24.674771   -62.340854
 0.790000   24.363048   -62.327225
 0.795000   24.051499   -62.278806
 0.800000   23.740260   -62.225975
 0.805000   23.429239   -62.195833
 0.810000   23.118302   -62.141126
 0.815000   22.807828   -62.028938
 0.820000   22.498013   -61.883796
 0.825000   22.188990   -61.724673
 0.830000   21.880766   -61.601256
 0.835000   21.572977   -61.605201
 0.840000   21.264714   -61.675012
 0.845000   20.956227   -61.742370
 0.850000   20.647290   -61.863865
 0.855000   20.337589   -62.065555
 0.860000   20.026635   -62.412814
 0.865000   19.713460   -63.074344
 0.870000   19.395891   -64.035362
 0.875000   19.073107   -65.358769
 0.880000   18.742303   -67.362259
 0.885000   18.399484   -70.311203
 0.890000   18.039191   -74.532430
 0.895000   17.654160   -80.601328
 0.900000   17.233178   -88.745968
 0.905000   16.766700   -99.228159
 0.910000   16.240897   -112.708242
 0.915000   15.639618   -129.573385
 0.920000   14.945163   -149.950735
 0.925000   14.140110   -173.461556
 0.930000   13.210547   -198.841781
 0.935000   12.151693   -223.960884
 0.940000   10.970938   -245.878227
 0.945000   9.692910   -261.040819
 0.950000   8.360530   -266.193309
 0.955000   7.030977   -259.286733
 0.960000   5.767663   -240.588590
 0.965000   4.625091   -212.586797
 0.970000   3.641795   -179.081406
 0.975000   2.834277   -144.414623
 0.980000   2.197649   -112.269020
 0.985000   1.711587   -84.913608
 0.990000   1.348513   -63.247288
 0.995000   1.079114   -47.120960
 1.000000   0.877303   -33.603563
201 psinorm omeg(kRad/s) domeg/dpsiN
 0.000000   79.707504   0.011859
 0.005000   79.707063   -0.188281
 0.010000   79.705621   -0.407077
 0.015000   79.702992   -0.664437
 0.020000   79.698977   -0.962045
 0.025000   79.693372   -1.300045
 0.030000   79.685976   -1.677031
 0.035000   79.676601   -2.089943
 0.040000   79.665077   -2.530668
 0.045000   79.651295   -2.993203
 0.050000   79.635145   -3.473859
 0.055000   79.616556   -3.965564
 0.060000   79.595489   -4.462693
 0.065000   79.571929   -4.961307
 0.070000   79.545876   -5.451376
 0.075000   79.517415   -5.938033
 0.080000   79.486496   -6.432227
 0.085000   79.453093   -6.930687
 0.090000   79.417189   -7.434457
 0.095000   79.378749   -7.946891
 0.100000   79.337720   -8.467778
 0.105000   79.294071   -9.007124
 0.110000   79.247649   -9.578778
 0.115000   79.198283   -10.186492
 0.120000   79.145784   -10.834825
 0.125000   79.089935   -11.527890
 0.130000   79.030505   -12.272878
 0.135000   78.967206   -13.068985
 0.140000   78.899815   -13.905286
 0.145000   78.828153   -14.781316
 0.150000   78.752002   -15.700063
 0.155000   78.671152   -16.658881
 0.160000   78.585413   -17.658922
 0.165000   78.494563   -18.689809
 0.170000   78.398515   -19.729504
 0.175000   78.297268   -20.772277
 0.180000   78.190792   -21.814466
 0.185000   78.079124   -22.840757
 0.190000   77.962385   -23.822954
 0.195000   77.840894   -24.718398
 0.200000   77.715201   -25.524144
 0.205000   77.585653   -26.249664
 0.210000   77.452704   -26.881199
 0.215000   77.316841   -27.414087
 0.220000   77.178563   -27.826750
 0.225000   77.038573   -28.085907
 0.230000   76.897704   -28.270140
 0.235000   76.755872   -28.427147
 0.240000   76.613433   -28.517823
 0.245000   76.470693   -28.554357
 0.250000   76.327889   -28.541526
 0.255000   76.185278   -28.473154
 0.260000   76.043158   -28.457365
 0.265000   75.900705   -28.556145
 0.270000   75.757596   -28.730583
 0.275000   75.613399   -28.999725
 0.280000   75.467599   -29.376366
 0.285000   75.319635   -29.868363
 0.290000   75.168915   -30.421910
 0.295000   75.015416   -30.979786
 0.300000   74.859117   -31.539672
 0.305000   74.700019   -32.097672
 0.310000   74.538141   -32.649693
 0.315000   74.373522   -33.202516
 0.320000   74.206115   -33.733611
 0.325000   74.036186   -34.224710
 0.330000   73.863868   -34.687341
 0.335000   73.689313   -35.117961
 0.340000   73.512689   -35.512943
 0.345000   73.334183   -35.860333
 0.350000   73.154085   -36.154227
 0.355000   72.972641   -36.398750
 0.360000   72.790098   -36.591884
 0.365000   72.606722   -36.731516
 0.370000   72.422783   -36.818137
 0.375000   72.238541   -36.829539
 0.380000   72.054487   -36.823792
 0.385000   71.870303   -36.937188
 0.390000   71.685116   -37.257786
 0.395000   71.497725   -37.843195
 0.400000   71.306684   -38.730715
 0.405000   71.110418   -40.056416
 0.410000   70.906119   -41.811377
 0.415000   70.692304   -43.779929
 0.420000   70.468320   -45.905632
 0.425000   70.233248   -48.194318
 0.430000   69.986377   -50.602874
 0.435000   69.727219   -53.220345
 0.440000   69.454174   -55.934363
 0.445000   69.167875   -58.416424
 0.450000   68.870009   -60.643271
 0.455000   68.561443   -62.669250
 0.460000   68.243317   -64.439757
 0.465000   67.917045   -65.917660
 0.470000   67.584140   -67.005996
 0.475000   67.246985   -67.712755
 0.480000   66.907013   -68.231296
 0.485000   66.564672   -68.680655
 0.490000   66.220206   -69.091092
 0.495000   65.873761   -69.482914
 0.500000   65.525377   -69.867951
 0.505000   65.175082   -70.215305
 0.510000   64.823224   -70.509861
 0.515000   64.469983   -70.767535
 0.520000   64.115549   -70.986682
 0.525000   63.760116   -71.175525
 0.530000   63.403793   -71.350252
 0.535000   63.046614   -71.470100
 0.540000   62.689092   -71.515244
 0.545000   62.331461   -71.514291
 0.550000   61.973949   -71.467948
 0.555000   61.616782   -71.379890
 0.560000   61.260150   -71.242214
 0.565000   60.904360   -70.987781
 0.570000   60.550273   -70.584360
 0.575000   60.198516   -70.060135
 0.580000   59.849671   -69.426584
 0.585000   59.504250   -68.695697
 0.590000   59.162714   -67.815267
 0.595000   58.826098   -66.867216
 0.600000   58.494042   -65.953977
 0.605000   58.166558   -65.049884
 0.610000   57.843543   -64.176910
 0.615000   57.524789   -63.356361
 0.620000   57.209980   -62.545853
 0.625000   56.899330   -61.856776
 0.630000   56.591412   -61.405553
 0.635000   56.285275   -61.167290
 0.640000   55.979739   -61.187469
 0.645000   55.673400   -61.505211
 0.650000   55.364687   -62.183137
 0.655000   55.051569   -63.052502
 0.660000   54.734162   -63.837752
 0.665000   54.413191   -64.478885
 0.670000   54.089373   -64.990067
 0.675000   53.763291   -65.417293
 0.680000   53.435200   -65.825783
 0.685000   53.105033   -66.343995
 0.690000   52.771760   -67.054262
 0.695000   52.434490   -67.936896
 0.700000   52.092391   -68.988963
 0.705000   51.744600   -70.216360
 0.710000   51.390228   -71.661871
 0.715000   51.027982   -73.359641
 0.720000   50.656631   -75.372166
 0.725000   50.274260   -77.915658
 0.730000   49.877475   -81.244028
 0.735000   49.461820   -85.542725
 0.740000   49.022047   -91.240304
 0.745000   48.549417   -98.308511
 0.750000   48.038962   -105.861605
 0.755000   47.490801   -113.553147
 0.760000   46.903431   -121.458080
 0.765000   46.276220   -129.390307
 0.770000   45.609528   -137.374709
 0.775000   44.902473   -145.115490
 0.780000   44.158373   -151.840856
 0.785000   43.384064   -157.621375
 0.790000   42.582159   -162.894061
 0.795000   41.755124   -167.643993
 0.800000   40.905719   -171.947595
 0.805000   40.035648   -175.751678
 0.810000   39.148202   -178.075509
 0.815000   38.254893   -178.414055
 0.820000   37.364062   -177.156660
 0.825000   36.483326   -174.528301
 0.830000   35.618779   -171.082013
 0.835000   34.772506   -167.739913
 0.840000   33.941380   -164.082781
 0.845000   33.131678   -159.913402
 0.850000   32.342246   -156.463490
 0.855000   31.567043   -154.979943
 0.860000   30.792446   -157.350155
 0.865000   29.993542   -166.424557
 0.870000   29.128201   -183.976953
 0.875000   28.153772   -211.821665
 0.880000   27.009984   -252.188072
 0.885000   25.631891   -305.052705
 0.890000   23.959457   -368.191039
 0.895000   21.949981   -437.510250
 0.900000   19.584354   -503.737630
 0.905000   16.912605   -555.396721
 0.910000   14.030387   -582.926484
 0.915000   11.083340   -578.209875
 0.920000   8.248289   -537.883718
 0.925000   5.704503   -463.296014
 0.930000   3.615328   -364.187433
 0.935000   2.062628   -254.674880
 0.940000   1.068580   -146.778291
 0.945000   0.594845   -51.221415
 0.950000   0.556365   24.681011
 0.955000   0.841656   77.078318
 0.960000   1.327149   106.615040
 0.965000   1.907806   117.007571
 0.970000   2.497224   112.195187
 0.975000   3.029758   96.550438
 0.980000   3.462729   74.465964
 0.985000   3.774417   49.579368
 0.990000   3.958522   24.992823
 0.995000   4.024346   2.414120
 1.000000   3.982664   -19.086950
201 psinorm omegp(kRad/s) domegp/dpsiN
 0.000000   -0.010664   88.376598
 0.005000   0.339070   51.516928
 0.010000   0.504506   31.118460
 0.015000   0.650255   28.460352
 0.020000   0.789109   27.258880
 0.025000   0.922844   26.166480
 0.030000   1.050774   24.890515
 0.035000   1.171749   23.643971
 0.040000   1.287214   22.435270
 0.045000   1.396102   21.176724
 0.050000   1.498981   20.039844
 0.055000   1.596500   19.081663
 0.060000   1.689798   18.292745
 0.065000   1.779427   17.590947
 0.070000   1.865707   16.949399
 0.075000   1.948921   16.359413
 0.080000   2.029301   15.765671
 0.085000   2.106578   15.200496
 0.090000   2.181306   14.913509
 0.095000   2.255713   14.918503
 0.100000   2.330491   15.218332
 0.105000   2.407897   15.756828
 0.110000   2.488060   16.444393
 0.115000   2.572340   17.331567
 0.120000   2.661375   18.248275
 0.125000   2.754823   19.018454
 0.130000   2.851560   19.624323
 0.135000   2.951066   20.002146
 0.140000   3.051581   20.224805
 0.145000   3.153314   20.278623
 0.150000   3.254367   20.103575
 0.155000   3.354350   19.627854
 0.160000   3.450646   18.884484
 0.165000   3.543195   17.908956
 0.170000   3.629736   16.656247
 0.175000   3.709758   15.173782
 0.180000   3.781473   13.531157
 0.185000   3.845069   12.046525
 0.190000   3.901939   10.676115
 0.195000   3.951830   9.466152
 0.200000   3.996600   8.431968
 0.205000   4.036150   7.430855
 0.210000   4.070909   6.401197
 0.215000   4.100162   5.169605
 0.220000   4.122605   3.822779
 0.225000   4.138390   2.354965
 0.230000   4.146154   0.725514
 0.235000   4.145645   -0.910535
 0.240000   4.137049   -2.596748
 0.245000   4.119677   -4.275486
 0.250000   4.094294   -5.905786
 0.255000   4.060620   -7.631123
 0.260000   4.017983   -9.371618
 0.265000   3.966903   -11.152447
 0.270000   3.906458   -13.080788
 0.275000   3.836095   -15.003747
 0.280000   3.756421   -16.996827
 0.285000   3.666127   -19.115117
 0.290000   3.565270   -21.198206
 0.295000   3.454145   -23.372863
 0.300000   3.331541   -25.619385
 0.305000   3.197951   -27.739381
 0.310000   3.054147   -29.706236
 0.315000   2.900889   -31.389823
 0.320000   2.740249   -32.530547
 0.325000   2.575583   -33.182941
 0.330000   2.408420   -33.599830
 0.335000   2.239585   -33.891671
 0.340000   2.069503   -34.169397
 0.345000   1.897891   -34.522969
 0.350000   1.724273   -35.067929
 0.355000   1.547212   -36.068420
 0.360000   1.363589   -37.560388
 0.365000   1.171608   -39.296959
 0.370000   0.970620   -41.130505
 0.375000   0.760303   -42.941412
 0.380000   0.541205   -44.743956
 0.385000   0.312863   -46.982296
 0.390000   0.071382   -50.190620
 0.395000   -0.189043   -54.653931
 0.400000   -0.475157   -60.498710
 0.405000   -0.794030   -67.733699
 0.410000   -1.152494   -77.095858
 0.415000   -1.564988   -87.419037
 0.420000   -2.026684   -97.235264
 0.425000   -2.537341   -106.755803
 0.430000   -3.094242   -115.438375
 0.435000   -3.691725   -122.659506
 0.440000   -4.320837   -127.450319
 0.445000   -4.966228   -128.675785
 0.450000   -5.607595   -126.084573
 0.455000   -6.227074   -120.137832
 0.460000   -6.808973   -111.436097
 0.465000   -7.341435   -100.143684
 0.470000   -7.810410   -86.560189
 0.475000   -8.207037   -73.194221
 0.480000   -8.542353   -61.565098
 0.485000   -8.822688   -51.293808
 0.490000   -9.055291   -42.662129
 0.495000   -9.249309   -36.019904
 0.500000   -9.415490   -31.642509
 0.505000   -9.565734   -29.083317
 0.510000   -9.706323   -27.383658
 0.515000   -9.839571   -25.987342
 0.520000   -9.966196   -24.598509
 0.525000   -10.085556   -23.172608
 0.530000   -10.197922   -21.879180
 0.535000   -10.304348   -20.527009
 0.540000   -10.403192   -18.983919
 0.545000   -10.494187   -17.432151
 0.550000   -10.577514   -15.891178
 0.555000   -10.653098   -14.245824
 0.560000   -10.719972   -12.474525
 0.565000   -10.777844   -10.763378
 0.570000   -10.827606   -9.054484
 0.575000   -10.868389   -7.275529
 0.580000   -10.900361   -5.572509
 0.585000   -10.924114   -3.974076
 0.590000   -10.940102   -2.410636
 0.595000   -10.948220   -0.906177
 0.600000   -10.949164   0.421813
 0.605000   -10.944002   1.641327
 0.610000   -10.932750   2.824433
 0.615000   -10.915758   3.914099
 0.620000   -10.893609   4.866181
 0.625000   -10.867096   5.755519
 0.630000   -10.836054   6.621185
 0.635000   -10.800884   7.397806
 0.640000   -10.762076   8.078159
 0.645000   -10.720102   8.706798
 0.650000   -10.675008   9.299943
 0.655000   -10.627103   9.793815
 0.660000   -10.577070   10.212040
 0.665000   -10.524982   10.596098
 0.670000   -10.471109   10.926603
 0.675000   -10.415716   11.182935
 0.680000   -10.359280   11.372111
 0.685000   -10.301995   11.499567
 0.690000   -10.244284   11.531520
 0.695000   -10.186680   11.480901
 0.700000   -10.129475   11.352209
 0.705000   -10.073158   11.124797
 0.710000   -10.018227   10.790994
 0.715000   -9.965248   10.359933
 0.720000   -9.914628   9.843095
 0.725000   -9.866817   9.256032
 0.730000   -9.822067   8.594587
 0.735000   -9.780871   7.879115
 0.740000   -9.743276   7.129974
 0.745000   -9.709572   6.335500
 0.750000   -9.679921   5.483276
 0.755000   -9.654739   4.521116
 0.760000   -9.634710   3.347368
 0.765000   -9.621265   1.838785
 0.770000   -9.616322   -0.064222
 0.775000   -9.621907   -2.406692
 0.780000   -9.640389   -5.191669
 0.785000   -9.673824   -8.418682
 0.790000   -9.724576   -12.078820
 0.795000   -9.794612   -15.870193
 0.800000   -9.883278   -19.563282
 0.805000   -9.990245   -23.148353
 0.810000   -10.114762   -26.409900
 0.815000   -10.254344   -29.084676
 0.820000   -10.405608   -30.913751
 0.825000   -10.563482   -31.974648
 0.830000   -10.725355   -32.324241
 0.835000   -10.886724   -31.872763
 0.840000   -11.044082   -30.842960
 0.845000   -11.195154   -29.601512
 0.850000   -11.340098   -28.326142
 0.855000   -11.478415   -27.147965
 0.860000   -11.611577   -26.058944
 0.865000   -11.739004   -24.919262
 0.870000   -11.860770   -23.433028
 0.875000   -11.973335   -21.411220
 0.880000   -12.074882   -18.951267
 0.885000   -12.162847   -15.035591
 0.890000   -12.225238   -9.244580
 0.895000   -12.255293   -1.070897
 0.900000   -12.235947   11.418462
 0.905000   -12.141109   32.014564
 0.910000   -11.915801   60.657350
 0.915000   -11.534535   96.203688
 0.920000   -10.953764   139.762263
 0.925000   -10.136912   188.754228
 0.930000   -9.066222   227.880117
 0.935000   -7.858111   236.792083
 0.940000   -6.698301   193.008907
 0.945000   -5.928022   81.574512
 0.950000   -5.882556   -76.242012
 0.955000   -6.690442   -218.983241
 0.960000   -8.072389   -262.373075
 0.965000   -9.314173   -149.111355
 0.970000   -9.563502   104.606487
 0.975000   -8.268108   400.361758
 0.980000   -5.559885   612.555725
 0.985000   -2.142551   667.091359
 0.990000   1.111029   570.291051
 0.995000   3.560360   380.108807
 1.000000   4.912117   160.594216
201 psinorm omgvb(kRad/s) domgvb/dpsiN
 0.000000   79.696840   88.388457
 0.005000   80.046133   51.328647
 0.010000   80.210127   30.711383
 0.015000   80.353247   27.795915
 0.020000   80.488086   26.296835
 0.025000   80.616215   24.866435
 0.030000   80.736750   23.213484
 0.035000   80.848350   21.554029
 0.040000   80.952291   19.904602
 0.045000   81.047396   18.183521
 0.050000   81.134126   16.565984
 0.055000   81.213056   15.116099
 0.060000   81.285287   13.830053
 0.065000   81.351357   12.629640
 0.070000   81.411583   11.498022
 0.075000   81.466337   10.421380
 0.080000   81.515797   9.333443
 0.085000   81.559671   8.269809
 0.090000   81.598495   7.479052
 0.095000   81.634462   6.971612
 0.100000   81.668211   6.750553
 0.105000   81.701967   6.749703
 0.110000   81.735708   6.865615
 0.115000   81.770623   7.145075
 0.120000   81.807159   7.413450
 0.125000   81.844758   7.490565
 0.130000   81.882065   7.351445
 0.135000   81.918272   6.933161
 0.140000   81.951396   6.319519
 0.145000   81.981468   5.497307
 0.150000   82.006369   4.403512
 0.155000   82.025503   2.968972
 0.160000   82.036059   1.225562
 0.165000   82.037758   -0.780853
 0.170000   82.028251   -3.073257
 0.175000   82.007026   -5.598495
 0.180000   81.972266   -8.283310
 0.185000   81.924193   -10.794232
 0.190000   81.864323   -13.146839
 0.195000   81.792724   -15.252246
 0.200000   81.711801   -17.092176
 0.205000   81.621803   -18.818809
 0.210000   81.523613   -20.480002
 0.215000   81.417002   -22.244482
 0.220000   81.301168   -24.003971
 0.225000   81.176963   -25.730942
 0.230000   81.043859   -27.544626
 0.235000   80.901517   -29.337682
 0.240000   80.750482   -31.114572
 0.245000   80.590371   -32.829844
 0.250000   80.422183   -34.447311
 0.255000   80.245898   -36.104277
 0.260000   80.061140   -37.828983
 0.265000   79.867608   -39.708592
 0.270000   79.664055   -41.811371
 0.275000   79.449494   -44.003472
 0.280000   79.224020   -46.373193
 0.285000   78.985762   -48.983480
 0.290000   78.734185   -51.620115
 0.295000   78.469561   -54.352650
 0.300000   78.190659   -57.159057
 0.305000   77.897970   -59.837052
 0.310000   77.592288   -62.355928
 0.315000   77.274411   -64.592339
 0.320000   76.946365   -66.264158
 0.325000   76.611770   -67.407651
 0.330000   76.272288   -68.287171
 0.335000   75.928898   -69.009633
 0.340000   75.582192   -69.682340
 0.345000   75.232075   -70.383302
 0.350000   74.878359   -71.222156
 0.355000   74.519853   -72.467170
 0.360000   74.153687   -74.152272
 0.365000   73.778330   -76.028475
 0.370000   73.393402   -77.948642
 0.375000   72.998844   -79.770951
 0.380000   72.595693   -81.567748
 0.385000   72.183166   -83.919484
 0.390000   71.756498   -87.448407
 0.395000   71.308682   -92.497125
 0.400000   70.831527   -99.229425
 0.405000   70.316388   -107.790114
 0.410000   69.753626   -118.907235
 0.415000   69.127316   -131.198966
 0.420000   68.441636   -143.140897
 0.425000   67.695907   -154.950120
 0.430000   66.892135   -166.041250
 0.435000   66.035494   -175.879850
 0.440000   65.133336   -183.384682
 0.445000   64.201647   -187.092209
 0.450000   63.262414   -186.727845
 0.455000   62.334369   -182.807082
 0.460000   61.434343   -175.875855
 0.465000   60.575610   -166.061343
 0.470000   59.773730   -153.566185
 0.475000   59.039949   -140.906976
 0.480000   58.364660   -129.796394
 0.485000   57.741985   -119.974462
 0.490000   57.164915   -111.753221
 0.495000   56.624452   -105.502818
 0.500000   56.109887   -101.510460
 0.505000   55.609348   -99.298622
 0.510000   55.116901   -97.893518
 0.515000   54.630413   -96.754877
 0.520000   54.149352   -95.585191
 0.525000   53.674561   -94.348133
 0.530000   53.205871   -93.229432
 0.535000   52.742266   -91.997109
 0.540000   52.285900   -90.499163
 0.545000   51.837275   -88.946441
 0.550000   51.396435   -87.359126
 0.555000   50.963683   -85.625714
 0.560000   50.540178   -83.716739
 0.565000   50.126516   -81.751159
 0.570000   49.722667   -79.638844
 0.575000   49.330128   -77.335664
 0.580000   48.949310   -74.999093
 0.585000   48.580137   -72.669773
 0.590000   48.222612   -70.225903
 0.595000   47.877878   -67.773394
 0.600000   47.544878   -65.532164
 0.605000   47.222556   -63.408557
 0.610000   46.910793   -61.352478
 0.615000   46.609031   -59.442262
 0.620000   46.316370   -57.679673
 0.625000   46.032235   -56.101257
 0.630000   45.755358   -54.784367
 0.635000   45.484391   -53.769485
 0.640000   45.217663   -53.109310
 0.645000   44.953298   -52.798413
 0.650000   44.689679   -52.883194
 0.655000   44.424466   -53.258687
 0.660000   44.157092   -53.625712
 0.665000   43.888209   -53.882787
 0.670000   43.618264   -54.063464
 0.675000   43.347574   -54.234358
 0.680000   43.075920   -54.453672
 0.685000   42.803037   -54.844428
 0.690000   42.527476   -55.522741
 0.695000   42.247810   -56.455994
 0.700000   41.962916   -57.636753
 0.705000   41.671442   -59.091563
 0.710000   41.372001   -60.870878
 0.715000   41.062734   -62.999708
 0.720000   40.742003   -65.529071
 0.725000   40.407443   -68.659626
 0.730000   40.055407   -72.649440
 0.735000   39.680949   -77.663611
 0.740000   39.278771   -84.110329
 0.745000   38.839845   -91.973010
 0.750000   38.359041   -100.378329
 0.755000   37.836062   -109.032031
 0.760000   37.268721   -118.110712
 0.765000   36.654955   -127.551522
 0.770000   35.993205   -137.438931
 0.775000   35.280566   -147.522182
 0.780000   34.517984   -157.032525
 0.785000   33.710240   -166.040057
 0.790000   32.857583   -174.972880
 0.795000   31.960511   -183.514185
 0.800000   31.022441   -191.510878
 0.805000   30.045403   -198.900031
 0.810000   29.033441   -204.485409
 0.815000   28.000549   -207.498731
 0.820000   26.958454   -208.070410
 0.825000   25.919844   -206.502949
 0.830000   24.893424   -203.406253
 0.835000   23.885782   -199.612677
 0.840000   22.897297   -194.925741
 0.845000   21.936525   -189.514914
 0.850000   21.002148   -184.789632
 0.855000   20.088628   -182.127908
 0.860000   19.180869   -183.409099
 0.865000   18.254537   -191.343819
 0.870000   17.267431   -207.409981
 0.875000   16.180437   -233.232886
 0.880000   14.935102   -271.139339
 0.885000   13.469044   -320.088296
 0.890000   11.734219   -377.435619
 0.895000   9.694688   -438.581147
 0.900000   7.348408   -492.319168
 0.905000   4.771496   -523.382157
 0.910000   2.114586   -522.269134
 0.915000   -0.451195   -482.006187
 0.920000   -2.705476   -398.121456
 0.925000   -4.432410   -274.541787
 0.930000   -5.450894   -136.307316
 0.935000   -5.795483   -17.882797
 0.940000   -5.629722   46.230616
 0.945000   -5.333177   30.353097
 0.950000   -5.326191   -51.561001
 0.955000   -5.848787   -141.904923
 0.960000   -6.745240   -155.758036
 0.965000   -7.406367   -32.103784
 0.970000   -7.066278   216.801674
 0.975000   -5.238350   496.912196
 0.980000   -2.097156   687.021689
 0.985000   1.631867   716.670726
 0.990000   5.069551   595.283874
 0.995000   7.584705   382.522927
 1.000000   8.894781   141.507266
201 psinorm omgpp(kRad/s) domgpp/dpsiN
 0.000000   -0.045851   -22.755551
 0.005000   -0.185289   -33.019980
 0.010000   -0.376050   -38.697451
 0.015000   -0.572264   -39.724953
 0.020000   -0.773300   -40.596347
 0.025000   -0.978227   -41.251450
 0.030000   -1.185814   -41.689729
 0.035000   -1.395125   -41.901874
 0.040000   -1.604833   -41.852698
 0.045000   -1.813652   -41.547421
 0.050000   -2.020307   -40.934471
 0.055000   -2.222996   -40.014727
 0.060000   -2.420455   -39.096175
 0.065000   -2.613958   -38.151995
 0.070000   -2.801975   -37.007146
 0.075000   -2.984030   -35.777054
 0.080000   -3.159745   -34.421721
 0.085000   -3.328247   -32.926539
 0.090000   -3.489011   -31.642588
 0.095000   -3.644673   -30.437741
 0.100000   -3.793388   -29.040288
 0.105000   -3.935076   -27.630624
 0.110000   -4.069694   -26.200798
 0.115000   -4.197083   -24.746742
 0.120000   -4.317162   -23.382704
 0.125000   -4.430911   -21.951041
 0.130000   -4.536672   -20.311468
 0.135000   -4.634025   -18.594970
 0.140000   -4.722622   -16.816676
 0.145000   -4.802192   -14.883183
 0.150000   -4.871454   -12.992351
 0.155000   -4.932115   -11.163780
 0.160000   -4.983091   -9.234016
 0.165000   -5.024456   -7.354991
 0.170000   -5.056641   -5.612195
 0.175000   -5.080578   -4.134718
 0.180000   -5.097988   -3.209370
 0.185000   -5.112671   -2.534361
 0.190000   -5.123332   -1.797836
 0.195000   -5.130650   -1.199924
 0.200000   -5.135331   -0.724824
 0.205000   -5.137898   -0.826100
 0.210000   -5.143592   -0.623211
 0.215000   -5.144130   0.393477
 0.220000   -5.139658   1.401013
 0.225000   -5.130120   2.511644
 0.230000   -5.114541   3.820820
 0.235000   -5.091912   4.989876
 0.240000   -5.064642   6.838136
 0.245000   -5.023530   9.424496
 0.250000   -4.970397   11.686234
 0.255000   -4.906668   13.798933
 0.260000   -4.832408   15.885398
 0.265000   -4.747814   18.106081
 0.270000   -4.651347   20.375210
 0.275000   -4.544062   22.146668
 0.280000   -4.429881   23.373323
 0.285000   -4.310329   24.240646
 0.290000   -4.187474   24.707278
 0.295000   -4.063256   25.018552
 0.300000   -3.937289   24.894377
 0.305000   -3.814312   24.106754
 0.310000   -3.696221   23.294790
 0.315000   -3.581364   22.617772
 0.320000   -3.470043   21.901585
 0.325000   -3.362348   21.113440
 0.330000   -3.258909   20.207898
 0.335000   -3.160269   19.485199
 0.340000   -3.064057   18.994260
 0.345000   -2.970327   18.565040
 0.350000   -2.878406   18.299011
 0.355000   -2.787337   18.249783
 0.360000   -2.695909   18.635839
 0.365000   -2.600978   19.295942
 0.370000   -2.502949   19.703342
 0.375000   -2.403945   19.796729
 0.380000   -2.304982   19.671179
 0.385000   -2.207233   19.365824
 0.390000   -2.111324   18.960238
 0.395000   -2.017631   17.916697
 0.400000   -1.932157   16.535368
 0.405000   -1.852277   15.404603
 0.410000   -1.778111   14.261789
 0.415000   -1.709659   13.152959
 0.420000   -1.646581   12.190782
 0.425000   -1.587751   10.958145
 0.430000   -1.537000   9.547257
 0.435000   -1.492279   8.325285
 0.440000   -1.453747   7.069335
 0.445000   -1.421585   5.777724
 0.450000   -1.395970   4.372853
 0.455000   -1.377857   2.965874
 0.460000   -1.366311   1.813448
 0.465000   -1.359722   0.899863
 0.470000   -1.357312   0.094535
 0.475000   -1.358777   -0.684084
 0.480000   -1.364153   -1.483784
 0.485000   -1.373615   -2.314679
 0.490000   -1.387300   -3.129603
 0.495000   -1.404911   -3.885375
 0.500000   -1.426154   -4.589520
 0.505000   -1.450806   -5.248068
 0.510000   -1.478634   -5.816890
 0.515000   -1.508975   -6.389188
 0.520000   -1.542526   -7.011839
 0.525000   -1.579093   -7.599233
 0.530000   -1.618518   -8.173068
 0.535000   -1.660824   -8.751855
 0.540000   -1.706037   -9.328393
 0.545000   -1.754108   -9.905834
 0.550000   -1.805095   -10.425524
 0.555000   -1.858363   -10.858344
 0.560000   -1.913679   -11.262474
 0.565000   -1.970988   -11.666702
 0.570000   -2.030346   -12.149737
 0.575000   -2.092485   -12.687452
 0.580000   -2.157220   -13.132439
 0.585000   -2.223810   -13.518167
 0.590000   -2.292402   -13.899888
 0.595000   -2.362809   -14.244726
 0.600000   -2.434849   -14.689776
 0.605000   -2.509706   -15.089606
 0.610000   -2.585745   -15.084478
 0.615000   -2.660551   -14.922981
 0.620000   -2.734975   -14.796936
 0.625000   -2.808520   -14.575594
 0.630000   -2.880731   -14.376998
 0.635000   -2.952290   -14.175291
 0.640000   -3.022484   -13.732994
 0.645000   -3.089620   -13.512601
 0.650000   -3.157610   -14.010222
 0.655000   -3.229723   -15.186977
 0.660000   -3.309480   -17.418019
 0.665000   -3.403903   -20.966645
 0.670000   -3.519146   -23.232486
 0.675000   -3.636228   -24.140592
 0.680000   -3.760552   -25.363976
 0.685000   -3.889867   -26.073388
 0.690000   -4.021286   -26.518355
 0.695000   -4.155051   -27.129075
 0.700000   -4.292577   -24.658334
 0.705000   -4.401634   -20.128909
 0.710000   -4.493866   -16.402197
 0.715000   -4.565656   -12.018389
 0.720000   -4.614050   -7.141444
 0.725000   -4.637071   -1.450343
 0.730000   -4.628553   4.016938
 0.735000   -4.596901   8.201637
 0.740000   -4.546537   11.652367
 0.745000   -4.480378   14.475409
 0.750000   -4.401783   16.585368
 0.755000   -4.314524   19.228566
 0.760000   -4.209497   19.460096
 0.765000   -4.119923   17.362546
 0.770000   -4.035872   16.018705
 0.775000   -3.959736   14.169480
 0.780000   -3.894177   11.786223
 0.785000   -3.841874   8.326795
 0.790000   -3.810909   4.287506
 0.795000   -3.798999   1.635845
 0.800000   -3.794550   0.443821
 0.805000   -3.794560   -0.276787
 0.810000   -3.797318   -0.763603
 0.815000   -3.802197   -1.624159
 0.820000   -3.813560   -2.703040
 0.825000   -3.829227   -4.426306
 0.830000   -3.857823   -7.422406
 0.835000   -3.903451   -11.097860
 0.840000   -3.968802   -15.313017
 0.845000   -4.056581   -22.161106
 0.850000   -4.190413   -29.589643
 0.855000   -4.352478   -34.470586
 0.860000   -4.535118   -39.271569
 0.865000   -4.745193   -44.939495
 0.870000   -4.984513   -51.179647
 0.875000   -5.256990   -62.534157
 0.880000   -5.609855   -75.709114
 0.885000   -6.014081   -82.989403
 0.890000   -6.439749   -90.225752
 0.895000   -6.916338   -100.643741
 0.900000   -7.446186   -111.496417
 0.905000   -8.031303   -128.065842
 0.910000   -8.726845   -147.893824
 0.915000   -9.510241   -160.504065
 0.920000   -10.331885   -175.897713
 0.925000   -11.269218   -201.791818
 0.930000   -12.349804   -232.572110
 0.935000   -13.594939   -273.412475
 0.940000   -15.083928   -317.169899
 0.945000   -16.766638   -327.605633
 0.950000   -18.359985   -305.477951
 0.955000   -19.821418   -263.277675
 0.960000   -20.992761   -185.006697
 0.965000   -21.671485   -72.490008
 0.970000   -21.717662   66.074337
 0.975000   -21.010741   210.749916
 0.980000   -19.610162   326.881881
 0.985000   -17.741922   401.066917
 0.990000   -15.599493   435.804401
 0.995000   -13.383878   434.894947
 1.000000   -11.250544   418.438884
201 psinorm omgeb(kRad/s) domgeb/dpsiN
 0.000000   79.650990   65.632906
 0.005000   79.860844   18.308667
 0.010000   79.834077   -7.986068
 0.015000   79.780983   -11.929038
 0.020000   79.714786   -14.299512
 0.025000   79.637988   -16.385016
 0.030000   79.550936   -18.476245
 0.035000   79.453226   -20.347845
 0.040000   79.347458   -21.948096
 0.045000   79.233745   -23.363900
 0.050000   79.113819   -24.368486
 0.055000   78.990060   -24.898628
 0.060000   78.864832   -25.266122
 0.065000   78.737398   -25.522355
 0.070000   78.609609   -25.509124
 0.075000   78.482307   -25.355674
 0.080000   78.356052   -25.088277
 0.085000   78.231424   -24.656730
 0.090000   78.109485   -24.163536
 0.095000   77.989789   -23.466129
 0.100000   77.874823   -22.289734
 0.105000   77.766892   -20.880921
 0.110000   77.666014   -19.335183
 0.115000   77.573540   -17.601667
 0.120000   77.489997   -15.969254
 0.125000   77.413847   -14.460476
 0.130000   77.345393   -12.960023
 0.135000   77.284247   -11.661809
 0.140000   77.228775   -10.497157
 0.145000   77.179276   -9.385876
 0.150000   77.134916   -8.588839
 0.155000   77.093387   -8.194808
 0.160000   77.052968   -8.008454
 0.165000   77.013303   -8.135844
 0.170000   76.971609   -8.685452
 0.175000   76.926448   -9.733213
 0.180000   76.874277   -11.492679
 0.185000   76.811521   -13.328594
 0.190000   76.740991   -14.944674
 0.195000   76.662075   -16.452171
 0.200000   76.576470   -17.817000
 0.205000   76.483905   -19.644910
 0.210000   76.380020   -21.103212
 0.215000   76.272872   -21.851005
 0.220000   76.161510   -22.602958
 0.225000   76.046843   -23.219298
 0.230000   75.929317   -23.723806
 0.235000   75.809605   -24.347806
 0.240000   75.685839   -24.276436
 0.245000   75.566840   -23.405348
 0.250000   75.451786   -22.761078
 0.255000   75.339230   -22.305344
 0.260000   75.228732   -21.943585
 0.265000   75.119794   -21.602511
 0.270000   75.012707   -21.436162
 0.275000   74.905432   -21.856804
 0.280000   74.794139   -22.999870
 0.285000   74.675434   -24.742834
 0.290000   74.546711   -26.912837
 0.295000   74.406305   -29.334098
 0.300000   74.253370   -32.264681
 0.305000   74.083658   -35.730299
 0.310000   73.896067   -39.061138
 0.315000   73.693047   -41.974567
 0.320000   73.476321   -44.362574
 0.325000   73.249421   -46.294211
 0.330000   73.013379   -48.079273
 0.335000   72.768629   -49.524433
 0.340000   72.518135   -50.688080
 0.345000   72.261748   -51.818262
 0.350000   71.999952   -52.923145
 0.355000   71.732516   -54.217387
 0.360000   71.457778   -55.516433
 0.365000   71.177352   -56.732532
 0.370000   70.890453   -58.245299
 0.375000   70.594899   -59.974222
 0.380000   70.290711   -61.896569
 0.385000   69.975933   -64.553660
 0.390000   69.645174   -68.488169
 0.395000   69.291052   -74.580428
 0.400000   68.899370   -82.694057
 0.405000   68.464111   -92.385511
 0.410000   67.975515   -104.645446
 0.415000   67.417657   -118.046008
 0.420000   66.795055   -130.950115
 0.425000   66.108155   -143.991975
 0.430000   65.355135   -156.493993
 0.435000   64.543215   -167.554565
 0.440000   63.679589   -176.315347
 0.445000   62.780062   -181.314485
 0.450000   61.866445   -182.354992
 0.455000   60.956512   -179.841208
 0.460000   60.068032   -174.062406
 0.465000   59.215888   -165.161480
 0.470000   58.416418   -153.471651
 0.475000   57.681172   -141.591060
 0.480000   57.000507   -131.280178
 0.485000   56.368370   -122.289142
 0.490000   55.777616   -114.882824
 0.495000   55.219541   -109.388192
 0.500000   54.683734   -106.099979
 0.505000   54.158542   -104.546690
 0.510000   53.638267   -103.710408
 0.515000   53.121438   -103.144065
 0.520000   52.606826   -102.597030
 0.525000   52.095467   -101.947366
 0.530000   51.587353   -101.402500
 0.535000   51.081442   -100.748964
 0.540000   50.579863   -99.827556
 0.545000   50.083167   -98.852276
 0.550000   49.591340   -97.784649
 0.555000   49.105320   -96.484058
 0.560000   48.626500   -94.979213
 0.565000   48.155528   -93.417862
 0.570000   47.692321   -91.788582
 0.575000   47.237642   -90.023116
 0.580000   46.792090   -88.131531
 0.585000   46.356327   -86.187940
 0.590000   45.930210   -84.125791
 0.595000   45.515069   -82.018120
 0.600000   45.110029   -80.221940
 0.605000   44.712850   -78.498162
 0.610000   44.325048   -76.436955
 0.615000   43.948480   -74.365243
 0.620000   43.581395   -72.476608
 0.625000   43.223714   -70.676851
 0.630000   42.874627   -69.161365
 0.635000   42.532100   -67.944776
 0.640000   42.195179   -66.842304
 0.645000   41.863677   -66.311014
 0.650000   41.532069   -66.893416
 0.655000   41.194743   -68.445664
 0.660000   40.847612   -71.043731
 0.665000   40.484306   -74.849432
 0.670000   40.099118   -77.295949
 0.675000   39.711346   -78.374950
 0.680000   39.315368   -79.817648
 0.685000   38.913170   -80.917816
 0.690000   38.506190   -82.041096
 0.695000   38.092759   -83.585070
 0.700000   37.670339   -82.295087
 0.705000   37.269808   -79.220471
 0.710000   36.878135   -77.273074
 0.715000   36.497077   -75.018097
 0.720000   36.127954   -72.670514
 0.725000   35.770372   -70.109969
 0.730000   35.426854   -68.632503
 0.735000   35.084047   -69.461974
 0.740000   34.732234   -72.457962
 0.745000   34.359468   -77.497602
 0.750000   33.957258   -83.792962
 0.755000   33.521538   -89.803465
 0.760000   33.059224   -98.650616
 0.765000   32.535032   -110.188976
 0.770000   31.957334   -121.420226
 0.775000   31.320830   -133.352702
 0.780000   30.623807   -145.246302
 0.785000   29.868366   -157.713262
 0.790000   29.046674   -170.685375
 0.795000   28.161513   -181.878340
 0.800000   27.227891   -191.067057
 0.805000   26.250842   -199.176818
 0.810000   25.236123   -205.249012
 0.815000   24.198352   -209.122891
 0.820000   23.144894   -210.773450
 0.825000   22.090618   -210.929255
 0.830000   21.035601   -210.828660
 0.835000   19.982331   -210.710536
 0.840000   18.928496   -210.238758
 0.845000   17.879943   -211.676020
 0.850000   16.811736   -214.379275
 0.855000   15.736151   -216.598494
 0.860000   14.645751   -222.680668
 0.865000   13.509344   -236.283314
 0.870000   12.282918   -258.589628
 0.875000   10.923448   -295.767043
 0.880000   9.325247   -346.848453
 0.885000   7.454963   -403.077698
 0.890000   5.294470   -467.661371
 0.895000   2.778349   -539.224888
 0.900000   -0.097779   -603.815585
 0.905000   -3.259806   -651.447999
 0.910000   -6.612259   -670.162958
 0.915000   -9.961436   -642.510252
 0.920000   -13.037361   -574.019169
 0.925000   -15.701628   -476.333604
 0.930000   -17.800697   -368.879426
 0.935000   -19.390422   -291.295272
 0.940000   -20.713650   -270.939283
 0.945000   -22.099815   -297.252536
 0.950000   -23.686175   -357.038952
 0.955000   -25.670204   -405.182598
 0.960000   -27.738001   -340.764733
 0.965000   -29.077852   -104.593792
 0.970000   -28.783939   282.876011
 0.975000   -26.249092   707.662111
 0.980000   -21.707318   1013.903570
 0.985000   -16.110056   1117.737643
 0.990000   -10.529942   1031.088275
 0.995000   -5.799173   817.417874
 1.000000   -2.355763   559.946151
201 psinorm er(kV/m) der/dpsiN
 0.000000   0.777891   1474.904359
 0.005000   6.634661   867.803683
 0.010000   9.455928   496.961792
 0.015000   11.604279   395.970916
 0.020000   13.415637   340.608552
 0.025000   15.010364   302.381171
 0.030000   16.439448   272.948068
 0.035000   17.739845   249.918468
 0.040000   18.938633   231.587644
 0.045000   20.055721   216.292999
 0.050000   21.101563   203.585505
 0.055000   22.091576   193.939229
 0.060000   23.040955   183.581910
 0.065000   23.927396   172.221146
 0.070000   24.763167   166.270339
 0.075000   25.590099   160.368336
 0.080000   26.366850   150.809725
 0.085000   27.098196   146.870564
 0.090000   27.835556   141.574480
 0.095000   28.513941   136.192852
 0.100000   29.197484   132.658903
 0.105000   29.840530   127.157074
 0.110000   30.469055   124.920158
 0.115000   31.089732   120.671102
 0.120000   31.675766   118.373374
 0.125000   32.273465   115.148567
 0.130000   32.827252   112.562170
 0.135000   33.399087   110.342290
 0.140000   33.930675   107.306483
 0.145000   34.472152   106.012648
 0.150000   34.990801   102.462326
 0.155000   35.496775   101.475524
 0.160000   36.005556   97.580162
 0.165000   36.472577   96.678946
 0.170000   36.972346   92.561238
 0.175000   37.398189   90.264724
 0.180000   37.874993   88.450112
 0.185000   38.282690   83.336654
 0.190000   38.708360   83.677158
 0.195000   39.119462   77.797150
 0.200000   39.486331   77.176595
 0.205000   39.891228   73.140206
 0.210000   40.217733   69.204242
 0.215000   40.583270   71.142428
 0.220000   40.929157   65.010619
 0.225000   41.233376   64.701212
 0.230000   41.576170   62.885136
 0.235000   41.862228   58.623565
 0.240000   42.162405   61.297088
 0.245000   42.475199   56.348909
 0.250000   42.725894   55.082787
 0.255000   43.026026   57.924238
 0.260000   43.305137   52.558563
 0.265000   43.551612   52.792493
 0.270000   43.833062   52.914603
 0.275000   44.080758   48.407859
 0.280000   44.317140   48.979266
 0.285000   44.570551   45.985734
 0.290000   44.776998   41.502949
 0.295000   44.985580   42.059262
 0.300000   45.197590   37.076468
 0.305000   45.356345   32.413803
 0.310000   45.521728   32.606487
 0.315000   45.682410   27.147934
 0.320000   45.793208   23.434510
 0.325000   45.916755   24.330030
 0.330000   46.036508   19.691478
 0.335000   46.113670   16.665144
 0.340000   46.203159   17.668288
 0.345000   46.290353   13.982667
 0.350000   46.342986   11.136843
 0.355000   46.401721   11.520773
 0.360000   46.458194   8.524097
 0.365000   46.486962   5.482982
 0.370000   46.513023   5.068289
 0.375000   46.537645   2.723665
 0.380000   46.540260   -0.942655
 0.385000   46.528218   -2.844018
 0.390000   46.511820   -5.807398
 0.395000   46.470144   -12.358577
 0.400000   46.388234   -18.609545
 0.405000   46.284049   -24.994817
 0.410000   46.138286   -35.757603
 0.415000   45.926473   -46.194925
 0.420000   45.676337   -54.759669
 0.425000   45.378876   -65.978348
 0.430000   45.016553   -76.365600
 0.435000   44.615220   -84.145882
 0.440000   44.175094   -91.722361
 0.445000   43.697997   -97.331020
 0.450000   43.201784   -98.962050
 0.455000   42.708376   -97.847055
 0.460000   42.223314   -95.928994
 0.465000   41.749086   -90.909451
 0.470000   41.314219   -82.740045
 0.475000   40.921686   -76.080141
 0.480000   40.553418   -70.136592
 0.485000   40.220320   -63.786302
 0.490000   39.915555   -59.278317
 0.495000   39.627537   -56.919132
 0.500000   39.346363   -55.155604
 0.505000   39.075981   -53.925705
 0.510000   38.807106   -54.944929
 0.515000   38.526531   -55.461796
 0.520000   38.252488   -54.730216
 0.525000   37.979229   -55.161306
 0.530000   37.700875   -56.091650
 0.535000   37.418313   -55.886616
 0.540000   37.142009   -55.090972
 0.545000   36.867403   -55.954460
 0.550000   36.582465   -55.903147
 0.555000   36.308371   -54.413568
 0.560000   36.038329   -54.129824
 0.565000   35.767073   -54.234961
 0.570000   35.495979   -53.132988
 0.575000   35.235743   -51.475896
 0.580000   34.981220   -51.608916
 0.585000   34.719654   -50.830195
 0.590000   34.472918   -48.548851
 0.595000   34.234166   -47.542071
 0.600000   33.997498   -47.522181
 0.605000   33.758944   -46.278102
 0.610000   33.534717   -44.074096
 0.615000   33.318203   -43.772287
 0.620000   33.096994   -43.159934
 0.625000   32.886604   -41.113886
 0.630000   32.685855   -39.859086
 0.635000   32.488013   -40.587856
 0.640000   32.279976   -39.967269
 0.645000   32.088340   -38.398810
 0.650000   31.895988   -39.666834
 0.655000   31.691672   -42.095218
 0.660000   31.475036   -43.718416
 0.665000   31.254487   -45.859849
 0.670000   31.016438   -49.232065
 0.675000   30.762167   -50.825749
 0.680000   30.508180   -50.875017
 0.685000   30.253417   -51.442579
 0.690000   29.993754   -54.504028
 0.695000   29.708376   -55.912792
 0.700000   29.434626   -53.104640
 0.705000   29.177330   -51.482044
 0.710000   28.919806   -51.788391
 0.715000   28.659446   -49.609261
 0.720000   28.423713   -46.315286
 0.725000   28.196293   -45.682979
 0.730000   27.966884   -45.835798
 0.735000   27.737935   -45.488298
 0.740000   27.512001   -46.949118
 0.745000   27.268444   -52.814511
 0.750000   26.983856   -58.651922
 0.755000   26.681925   -62.060074
 0.760000   26.363255   -68.820977
 0.765000   25.993715   -80.269203
 0.770000   25.560563   -89.776831
 0.775000   25.095947   -97.811323
 0.780000   24.582450   -107.768316
 0.785000   24.018264   -119.986485
 0.790000   23.382585   -130.800477
 0.795000   22.710259   -138.598512
 0.800000   21.996600   -146.907886
 0.805000   21.241180   -155.489221
 0.810000   20.441707   -160.664367
 0.815000   19.634536   -162.949809
 0.820000   18.812209   -165.393936
 0.825000   17.980597   -167.350630
 0.830000   17.138703   -167.373653
 0.835000   16.306860   -166.635391
 0.840000   15.472349   -167.444892
 0.845000   14.632411   -170.280955
 0.850000   13.769539   -172.440353
 0.855000   12.908008   -173.688481
 0.860000   12.032655   -179.933049
 0.865000   11.108677   -192.568779
 0.870000   10.106967   -210.686732
 0.875000   9.001810   -240.895043
 0.880000   7.698016   -284.514405
 0.885000   6.156666   -331.951834
 0.890000   4.378498   -384.637756
 0.895000   2.310288   -444.091765
 0.900000   -0.062420   -501.727969
 0.905000   -2.706991   -544.344236
 0.910000   -5.505862   -558.961572
 0.915000   -8.296607   -536.373031
 0.920000   -10.869592   -492.004125
 0.925000   -13.216648   -420.989260
 0.930000   -15.079485   -324.451664
 0.935000   -16.461165   -253.614397
 0.940000   -17.615629   -262.683099
 0.945000   -19.087996   -307.599171
 0.950000   -20.691621   -337.203537
 0.955000   -22.460031   -362.910353
 0.960000   -24.320724   -326.013311
 0.965000   -25.720164   -141.435628
 0.970000   -25.735080   222.164380
 0.975000   -23.498520   627.540066
 0.980000   -19.459680   903.473720
 0.985000   -14.463783   997.741764
 0.990000   -9.482262   922.513086
 0.995000   -5.238652   733.195140
 1.000000   -2.150311   502.141578
201 psinorm ommvb() dommvb/dpsiN
 0.000000   -55.382081   13917.125646
 0.005000   7.185252   11109.807606
 0.010000   55.715995   9768.023386
 0.015000   104.865486   9247.188372
 0.020000   148.187879   8162.944870
 0.025000   186.494935   7305.635004
 0.030000   221.244229   6648.349416
 0.035000   252.978429   5819.199699
 0.040000   279.436226   4943.865382
 0.045000   302.417083   4485.450817
 0.050000   324.290734   3883.555916
 0.055000   341.252642   3434.188720
 0.060000   358.632621   3122.158327
 0.065000   372.474225   2799.768394
 0.070000   386.630305   2552.959651
 0.075000   398.003822   2184.504846
 0.080000   408.475354   1930.925948
 0.085000   417.313081   1620.161912
 0.090000   424.676973   1335.618151
 0.095000   430.669263   1107.978771
 0.100000   435.756761   932.735838
 0.105000   439.996621   770.756821
 0.110000   443.464329   535.820154
 0.115000   445.354823   281.701070
 0.120000   446.281340   126.520649
 0.125000   446.620029   -19.511800
 0.130000   446.086222   -178.204999
 0.135000   444.837979   -366.143450
 0.140000   442.424787   -628.807132
 0.145000   438.549908   -701.184384
 0.150000   435.412943   -686.079637
 0.155000   431.689112   -791.426943
 0.160000   427.498674   -886.858142
 0.165000   422.820530   -979.505491
 0.170000   417.703619   -1148.082365
 0.175000   411.339707   -1201.334860
 0.180000   405.690270   -1141.029283
 0.185000   399.929414   -1211.605115
 0.190000   393.574219   -1297.819004
 0.195000   386.951224   -1336.046891
 0.200000   380.213750   -1357.244337
 0.205000   373.378780   -1372.602248
 0.210000   366.487728   -1380.407183
 0.215000   359.574708   -1506.441146
 0.220000   351.423316   -1592.215847
 0.225000   343.652550   -1470.831828
 0.230000   336.714998   -1358.405485
 0.235000   330.068495   -1308.607428
 0.240000   323.628924   -1271.599875
 0.245000   317.352496   -1291.791915
 0.250000   310.711005   -1399.287307
 0.255000   303.359623   -1287.979149
 0.260000   297.831213   -1081.495420
 0.265000   292.544669   -1033.914575
 0.270000   287.492067   -983.293004
 0.275000   282.711739   -1048.146786
 0.280000   277.010599   -1029.989904
 0.285000   272.411840   -853.919187
 0.290000   268.471408   -766.857952
 0.295000   264.743261   -723.379403
 0.300000   261.237614   -788.264365
 0.305000   256.860617   -755.223102
 0.310000   253.685383   -577.488310
 0.315000   251.085734   -500.876125
 0.320000   248.676621   -466.662073
 0.325000   246.419113   -514.590869
 0.330000   243.530713   -446.322754
 0.335000   241.955886   -296.690663
 0.340000   240.563806   -261.750602
 0.345000   239.338379   -264.032458
 0.350000   237.923481   -247.799301
 0.355000   236.860386   -163.494536
 0.360000   236.288536   -102.219453
 0.365000   235.838192   -82.277678
 0.370000   235.465759   -81.851929
 0.375000   235.019673   -40.725497
 0.380000   235.058504   16.712272
 0.385000   235.186795   33.663616
 0.390000   235.395140   32.615299
 0.395000   235.512948   44.353646
 0.400000   235.838677   68.807811
 0.405000   236.201026   70.704428
 0.410000   236.545721   57.482495
 0.415000   236.775851   44.469591
 0.420000   236.990417   44.738176
 0.425000   237.223233   41.586451
 0.430000   237.406282   27.725072
 0.435000   237.500484   14.584225
 0.440000   237.552124   15.367914
 0.445000   237.654163   21.714033
 0.450000   237.769264   25.551667
 0.455000   237.909680   35.184752
 0.460000   238.121112   48.605924
 0.465000   238.395739   63.202505
 0.470000   238.753137   81.547616
 0.475000   239.211215   98.624749
 0.480000   239.739384   118.908577
 0.485000   240.400301   140.030127
 0.490000   241.139686   153.886667
 0.495000   241.939168   159.972038
 0.500000   242.739406   165.426552
 0.505000   243.593433   175.185133
 0.510000   244.491257   182.072371
 0.515000   245.414157   185.545272
 0.520000   246.346710   190.436333
 0.525000   247.318520   199.505587
 0.530000   248.341766   209.394102
 0.535000   249.412461   220.693281
 0.540000   250.548699   236.982091
 0.545000   251.782282   251.526240
 0.550000   253.063961   263.308688
 0.555000   254.415369   277.696814
 0.560000   255.840929   300.743329
 0.565000   257.422802   320.671462
 0.570000   259.047644   338.212012
 0.575000   260.804922   363.949507
 0.580000   262.687139   393.130665
 0.585000   264.736229   428.807566
 0.590000   266.975215   449.393030
 0.595000   269.230159   458.183136
 0.600000   271.557046   474.239301
 0.605000   273.972552   524.706571
 0.610000   276.804112   577.356262
 0.615000   279.746115   598.989795
 0.620000   282.794010   620.629373
 0.625000   285.952409   638.583445
 0.630000   289.179844   702.650459
 0.635000   292.978913   750.091532
 0.640000   296.680759   748.635167
 0.645000   300.465265   768.650166
 0.650000   304.367261   789.571825
 0.655000   308.360983   859.224597
 0.660000   312.959507   903.784255
 0.665000   317.398826   899.244847
 0.670000   321.951955   931.358699
 0.675000   326.712413   973.576304
 0.680000   331.687718   1059.352144
 0.685000   337.305934   1114.737460
 0.690000   342.835093   1109.055698
 0.695000   348.396491   1132.189448
 0.700000   354.156988   1175.585791
 0.705000   360.152349   1225.053494
 0.710000   366.407522   1308.626414
 0.715000   373.238613   1345.286032
 0.720000   379.860383   1348.504396
 0.725000   386.723657   1395.807186
 0.730000   393.818455   1439.837281
 0.735000   401.122030   1481.583848
 0.740000   408.634293   1533.659066
 0.745000   416.458621   1553.813137
 0.750000   424.172424   1563.865698
 0.755000   432.097278   1608.684978
 0.760000   440.259274   1655.291955
 0.765000   448.650197   1705.168935
 0.770000   457.310964   1761.356753
 0.775000   466.263765   1820.417365
 0.780000   475.515137   1890.185283
 0.785000   485.165617   1972.333141
 0.790000   495.238469   2062.284865
 0.795000   505.788466   2160.038050
 0.800000   516.838849   2260.572028
 0.805000   528.394186   2367.088211
 0.810000   540.509731   2485.476940
 0.815000   553.248956   2611.333843
 0.820000   566.623070   2786.462649
 0.825000   581.113582   2999.164581
 0.830000   596.614716   3203.100424
 0.835000   613.144587   3415.393397
 0.840000   630.768650   3643.298014
 0.845000   649.577567   3894.639343
 0.850000   669.715043   4175.364463
 0.855000   691.331211   4453.174218
 0.860000   714.246785   4726.757884
 0.865000   738.598790   4989.503953
 0.870000   764.141825   5271.851709
 0.875000   791.317307   5639.543871
 0.880000   820.537263   5990.601400
 0.885000   851.223321   6278.760934
 0.890000   883.324873   6508.329283
 0.895000   916.306614   6666.275906
 0.900000   949.987632   6805.052550
 0.905000   984.357140   6970.867649
 0.910000   1019.696308   7255.464270
 0.915000   1056.911782   7753.234993
 0.920000   1097.228658   8586.266031
 0.925000   1142.774443   10061.449089
 0.930000   1197.843149   12702.247751
 0.935000   1269.796920   17140.362830
 0.940000   1369.246777   24078.439567
 0.945000   1510.581316   34049.686070
 0.950000   1709.743638   46717.336359
 0.955000   1977.754679   59384.998391
 0.960000   2303.593622   67226.051939
 0.965000   2650.015199   67662.600775
 0.970000   2980.219630   60133.044460
 0.975000   3251.345643   44666.135221
 0.980000   3426.880982   29415.880131
 0.985000   3545.504445   35414.467925
 0.990000   3781.025661   74118.105300
 0.995000   4286.685498   364593.657231
 1.000000   7426.962234   891517.037115
201 psinorm ommpp() dommpp/dpsiN
 0.000000   135.033071   -13851.492740
 0.005000   72.675591   -11091.498940
 0.010000   24.118081   -9776.009454
 0.015000   -25.084503   -9259.117410
 0.020000   -68.473093   -8177.244382
 0.025000   -106.856947   -7322.020019
 0.030000   -141.693293   -6666.825661
 0.035000   -173.525204   -5839.547545
 0.040000   -200.088769   -4965.813478
 0.045000   -223.183338   -4508.814717
 0.050000   -245.176916   -3907.924402
 0.055000   -262.262582   -3459.087348
 0.060000   -279.767789   -3147.424449
 0.065000   -293.736827   -2825.290748
 0.070000   -308.020697   -2578.468774
 0.075000   -319.521515   -2209.860520
 0.080000   -330.119302   -1956.014226
 0.085000   -339.081657   -1644.818642
 0.090000   -346.567488   -1359.781688
 0.095000   -352.679474   -1131.444900
 0.100000   -357.881937   -955.025572
 0.105000   -362.229729   -791.637742
 0.110000   -365.798315   -555.155337
 0.115000   -367.781283   -299.302737
 0.120000   -368.791342   -142.489903
 0.125000   -369.206182   5.051323
 0.130000   -368.740829   165.244976
 0.135000   -367.553732   354.481641
 0.140000   -365.196012   618.309975
 0.145000   -361.370632   691.798508
 0.150000   -358.278027   677.490798
 0.155000   -354.595724   783.232135
 0.160000   -350.445706   878.849688
 0.165000   -345.807228   971.369647
 0.170000   -340.732010   1139.396913
 0.175000   -334.413258   1191.601647
 0.180000   -328.815993   1129.536604
 0.185000   -323.117892   1198.276521
 0.190000   -316.833228   1282.874330
 0.195000   -310.289149   1319.594720
 0.200000   -303.637281   1339.427337
 0.205000   -296.894876   1352.957338
 0.210000   -290.107707   1359.303971
 0.215000   -283.301836   1484.590140
 0.220000   -275.261806   1569.612889
 0.225000   -267.605707   1447.612530
 0.230000   -260.785681   1334.681679
 0.235000   -254.258890   1284.259622
 0.240000   -247.943084   1247.323439
 0.245000   -241.785656   1268.386568
 0.250000   -235.259219   1376.526229
 0.255000   -228.020394   1265.673805
 0.260000   -222.602481   1059.551834
 0.265000   -217.424875   1012.312064
 0.270000   -212.479360   961.856843
 0.275000   -207.806307   1026.289982
 0.280000   -202.216460   1006.990035
 0.285000   -197.736406   829.176352
 0.290000   -193.924697   739.945115
 0.295000   -190.336955   694.045305
 0.300000   -186.984244   755.999685
 0.305000   -182.776959   719.492803
 0.310000   -179.789316   538.427172
 0.315000   -177.392687   458.901558
 0.320000   -175.200300   422.299499
 0.325000   -173.169692   468.296658
 0.330000   -170.517333   398.243481
 0.335000   -169.187257   247.166230
 0.340000   -168.045671   211.062522
 0.345000   -167.076632   212.214196
 0.350000   -165.923529   194.876157
 0.355000   -165.127870   109.277149
 0.360000   -164.830758   46.703020
 0.365000   -164.660840   25.545145
 0.370000   -164.575306   23.606630
 0.375000   -164.424774   -19.248724
 0.380000   -164.767793   -78.608842
 0.385000   -165.210862   -98.217276
 0.390000   -165.749966   -101.103468
 0.395000   -166.221897   -118.934074
 0.400000   -166.939307   -151.501868
 0.405000   -167.736915   -163.089939
 0.410000   -168.570206   -162.127940
 0.415000   -169.358195   -162.515598
 0.420000   -170.195362   -175.688290
 0.425000   -171.115078   -185.578427
 0.430000   -172.051147   -184.219065
 0.435000   -172.957268   -182.138790
 0.440000   -173.872534   -191.683261
 0.445000   -174.874101   -203.028519
 0.450000   -175.902820   -207.906659
 0.455000   -176.953168   -215.025960
 0.460000   -178.053079   -222.668330
 0.465000   -179.179851   -228.363985
 0.470000   -180.336719   -235.019267
 0.475000   -181.530044   -240.215809
 0.480000   -182.738877   -250.188755
 0.485000   -184.031931   -262.319269
 0.490000   -185.362070   -268.769491
 0.495000   -186.719626   -269.360231
 0.500000   -188.055672   -271.526531
 0.505000   -189.434891   -279.731823
 0.510000   -190.852990   -285.782779
 0.515000   -192.292719   -288.689336
 0.520000   -193.739884   -293.033363
 0.525000   -195.223053   -301.452953
 0.530000   -196.754413   -310.796602
 0.535000   -198.331019   -321.442245
 0.540000   -199.968836   -336.809648
 0.545000   -201.699115   -350.378515
 0.550000   -203.472621   -361.093337
 0.555000   -205.310049   -374.180872
 0.560000   -207.214430   -395.722542
 0.565000   -209.267274   -414.089324
 0.570000   -211.355323   -430.000594
 0.575000   -213.567280   -453.972623
 0.580000   -215.895049   -481.262196
 0.585000   -218.379902   -514.995506
 0.590000   -221.045004   -533.518821
 0.595000   -223.715090   -540.201255
 0.600000   -226.447017   -554.461241
 0.605000   -229.259703   -603.204733
 0.610000   -232.479064   -653.793217
 0.615000   -235.797635   -673.355038
 0.620000   -239.212614   -693.105981
 0.625000   -242.728695   -709.260296
 0.630000   -246.305217   -771.811824
 0.635000   -250.446813   -818.036308
 0.640000   -254.485580   -815.477471
 0.645000   -258.601588   -834.961180
 0.650000   -262.835192   -856.465241
 0.655000   -267.166240   -927.670261
 0.660000   -272.111895   -974.827987
 0.665000   -276.914520   -974.094278
 0.670000   -281.852838   -1008.654648
 0.675000   -287.001066   -1051.951254
 0.680000   -292.372350   -1139.169792
 0.685000   -298.392764   -1195.655276
 0.690000   -304.328903   -1191.096794
 0.695000   -310.303732   -1215.774518
 0.700000   -316.486648   -1257.880879
 0.705000   -322.882541   -1304.273965
 0.710000   -329.529388   -1385.899488
 0.715000   -336.741536   -1420.304128
 0.720000   -343.732429   -1421.174910
 0.725000   -350.953285   -1465.917154
 0.730000   -358.391601   -1508.469784
 0.735000   -366.037983   -1551.045822
 0.740000   -373.902059   -1606.117028
 0.745000   -382.099153   -1631.310738
 0.750000   -390.215166   -1647.658660
 0.755000   -398.575740   -1698.488443
 0.760000   -407.200051   -1753.942570
 0.765000   -416.115165   -1815.357911
 0.770000   -425.353630   -1882.776979
 0.775000   -434.942935   -1953.770067
 0.780000   -444.891330   -2035.431584
 0.785000   -455.297251   -2130.046403
 0.790000   -466.191794   -2232.970240
 0.795000   -477.626953   -2341.916390
 0.800000   -489.610958   -2451.639084
 0.805000   -502.143344   -2566.265029
 0.810000   -515.273609   -2690.725952
 0.815000   -529.050604   -2820.456734
 0.820000   -543.478176   -2997.236099
 0.825000   -559.022965   -3210.093836
 0.830000   -575.579114   -3413.929084
 0.835000   -593.162256   -3626.103933
 0.840000   -611.840154   -3853.536772
 0.845000   -631.697623   -4106.315363
 0.850000   -652.903307   -4389.743738
 0.855000   -675.595061   -4669.772713
 0.860000   -699.601034   -4949.438552
 0.865000   -725.089446   -5225.787268
 0.870000   -751.858907   -5530.441337
 0.875000   -780.393860   -5935.310914
 0.880000   -811.212016   -6337.449853
 0.885000   -843.768358   -6681.838632
 0.890000   -878.030403   -6975.990654
 0.895000   -913.528265   -7205.500795
 0.900000   -950.085411   -7408.868136
 0.905000   -987.616946   -7622.315648
 0.910000   -1026.308567   -7925.627227
 0.915000   -1066.873218   -8395.745245
 0.920000   -1110.266019   -9160.285200
 0.925000   -1158.476070   -10537.782694
 0.930000   -1215.643846   -13071.127178
 0.935000   -1289.187342   -17431.658102
 0.940000   -1389.960427   -24349.378850
 0.945000   -1532.681131   -34346.938606
 0.950000   -1733.429813   -47074.375311
 0.955000   -2003.424884   -59790.180988
 0.960000   -2331.331623   -67566.816671
 0.965000   -2679.093050   -67767.194568
 0.970000   -3009.003569   -59850.168449
 0.975000   -3277.594735   -43958.473110
 0.980000   -3448.588300   -28401.976561
 0.985000   -3561.614500   -34296.730281
 0.990000   -3791.555603   -73087.017024
 0.995000   -4292.484671   -363776.239357
 1.000000   -7429.317997   -890957.090965
201 psinorm omevb() domevb/dpsiN
 0.000000   70.987527   44.914608
 0.005000   71.077969   -8.737860
 0.010000   70.900148   -38.127253
 0.015000   70.696696   -41.928400
 0.020000   70.480864   -44.151244
 0.025000   70.255184   -46.083347
 0.030000   70.020031   -48.015439
 0.035000   69.775029   -49.722204
 0.040000   69.522809   -51.151960
 0.045000   69.263510   -52.391654
 0.050000   68.998892   -53.214558
 0.055000   68.731364   -53.557489
 0.060000   68.463317   -53.732291
 0.065000   68.194041   -53.790400
 0.070000   67.925413   -53.573663
 0.075000   67.658305   -53.211378
 0.080000   67.393300   -52.729871
 0.085000   67.131006   -52.078994
 0.090000   66.872510   -51.361306
 0.095000   66.617393   -50.434301
 0.100000   66.368167   -49.023265
 0.105000   66.127160   -47.374829
 0.110000   65.894418   -45.584549
 0.115000   65.671315   -43.601639
 0.120000   65.458402   -41.715045
 0.125000   65.254164   -39.947367
 0.130000   65.058928   -38.183365
 0.135000   64.872331   -36.617023
 0.140000   64.692758   -35.179737
 0.145000   64.520533   -33.791389
 0.150000   64.354844   -32.712927
 0.155000   64.193404   -32.033191
 0.160000   64.034512   -31.556926
 0.165000   63.877835   -31.390280
 0.170000   63.720609   -31.641806
 0.175000   63.561417   -32.387520
 0.180000   63.396734   -33.841057
 0.185000   63.223006   -35.367243
 0.190000   63.043062   -36.669880
 0.195000   62.856307   -37.860303
 0.200000   62.664459   -38.904516
 0.205000   62.467262   -40.408352
 0.210000   62.260375   -41.539214
 0.215000   62.051870   -41.956287
 0.220000   61.840812   -42.374331
 0.225000   61.628127   -42.653664
 0.230000   61.414276   -42.818158
 0.235000   61.199945   -43.099230
 0.240000   60.983283   -42.682110
 0.245000   60.773124   -41.462544
 0.250000   60.568658   -40.467163
 0.255000   60.368452   -39.657779
 0.260000   60.172080   -38.939927
 0.265000   59.979053   -38.240411
 0.270000   59.789676   -37.713369
 0.275000   59.601919   -37.771165
 0.280000   59.411964   -38.549327
 0.285000   59.216426   -39.925427
 0.290000   59.012710   -41.726705
 0.295000   58.799159   -43.777476
 0.300000   58.574935   -46.335905
 0.305000   58.335800   -49.427802
 0.310000   58.080657   -52.383452
 0.315000   57.811965   -54.920323
 0.320000   57.531454   -56.930502
 0.325000   57.242660   -58.483141
 0.330000   56.946623   -59.888132
 0.335000   56.643779   -60.952248
 0.340000   56.337100   -61.733977
 0.345000   56.026439   -62.481466
 0.350000   55.712286   -63.202980
 0.355000   55.394410   -64.113276
 0.360000   55.071153   -65.027895
 0.365000   54.744131   -65.859187
 0.370000   54.412561   -66.986862
 0.375000   54.074262   -68.330507
 0.380000   53.729256   -69.867488
 0.385000   53.375587   -72.139220
 0.390000   53.007864   -75.688474
 0.395000   52.618702   -81.395678
 0.400000   52.193907   -89.124547
 0.405000   51.727457   -98.431631
 0.410000   51.209591   -110.307679
 0.415000   50.624380   -123.324933
 0.420000   49.976341   -135.846402
 0.425000   49.265916   -148.506389
 0.430000   48.491277   -160.627387
 0.435000   47.659642   -171.307885
 0.440000   46.778199   -179.689629
 0.445000   45.862746   -184.310854
 0.450000   44.935090   -184.974661
 0.455000   44.012999   -182.085479
 0.460000   43.114235   -175.932667
 0.465000   42.253673   -166.659205
 0.470000   41.447643   -154.598398
 0.475000   40.707689   -142.348473
 0.480000   40.024158   -131.669982
 0.485000   39.390989   -122.313144
 0.490000   38.801027   -114.542914
 0.495000   38.245560   -108.686336
 0.500000   37.714164   -105.038224
 0.505000   37.195177   -103.127160
 0.510000   36.682892   -101.935303
 0.515000   36.175824   -101.015658
 0.520000   35.672735   -100.117671
 0.525000   35.174648   -99.119474
 0.530000   34.681541   -98.228566
 0.535000   34.192362   -97.231548
 0.540000   33.709225   -95.969286
 0.545000   33.232669   -94.655843
 0.550000   32.762667   -93.252812
 0.555000   32.300141   -91.619634
 0.560000   31.846470   -89.785081
 0.565000   31.402290   -87.896958
 0.570000   30.967501   -85.943896
 0.575000   30.542851   -83.857690
 0.580000   30.128924   -81.648456
 0.585000   29.726367   -79.390350
 0.590000   29.335020   -77.016861
 0.595000   28.956198   -74.601060
 0.600000   28.589010   -72.499989
 0.605000   28.231198   -70.474581
 0.610000   27.884264   -68.115019
 0.615000   27.550048   -65.748230
 0.620000   27.226782   -63.567789
 0.625000   26.914370   -61.479475
 0.630000   26.611987   -59.678643
 0.635000   26.317584   -58.179857
 0.640000   26.030188   -56.798258
 0.645000   25.749601   -55.990794
 0.650000   25.470280   -56.299828
 0.655000   25.186603   -57.581321
 0.660000   24.894467   -59.911002
 0.665000   24.587493   -63.450378
 0.670000   24.259963   -65.632248
 0.675000   23.931170   -66.447803
 0.680000   23.595485   -67.627669
 0.685000   23.254894   -68.464898
 0.690000   22.910836   -69.324250
 0.695000   22.561651   -70.602233
 0.700000   22.204814   -69.042891
 0.705000   21.871222   -65.693966
 0.710000   21.547874   -63.465400
 0.715000   21.236568   -60.920094
 0.720000   20.938674   -58.270264
 0.725000   20.653866   -55.392248
 0.730000   20.384751   -53.578152
 0.735000   20.118084   -54.047157
 0.740000   19.844279   -56.653313
 0.745000   19.551551   -61.267244
 0.750000   19.231607   -67.093400
 0.755000   18.880617   -72.582343
 0.760000   18.505784   -80.845350
 0.765000   18.072164   -91.725286
 0.770000   17.588531   -102.210599
 0.775000   17.050058   -113.294871
 0.780000   16.455582   -124.221831
 0.785000   15.807839   -135.586432
 0.790000   15.099718   -147.302607
 0.795000   14.334813   -157.068535
 0.800000   13.529032   -164.643378
 0.805000   12.688379   -170.940676
 0.810000   11.819626   -174.997295
 0.815000   10.938406   -176.659909
 0.820000   10.053027   -175.929607
 0.825000   9.179110   -173.589196
 0.830000   8.317135   -170.972649
 0.835000   7.469384   -168.474090
 0.840000   6.632394   -165.997264
 0.845000   5.809411   -166.163228
 0.850000   4.970761   -168.851195
 0.855000   4.120899   -173.057424
 0.860000   3.240187   -184.177551
 0.865000   2.279124   -207.319964
 0.870000   1.166988   -245.644369
 0.875000   -0.177320   -307.965916
 0.880000   -1.912672   -396.795185
 0.885000   -4.145272   -507.832349
 0.890000   -6.990995   -649.808879
 0.895000   -10.643361   -827.884652
 0.900000   -15.269842   -1035.291877
 0.905000   -20.996279   -1268.990794
 0.910000   -27.959750   -1522.002120
 0.915000   -36.216301   -1777.001357
 0.920000   -45.729763   -2030.568210
 0.925000   -56.521983   -2271.093204
 0.930000   -68.440695   -2475.531319
 0.935000   -81.277296   -2619.989214
 0.940000   -94.640587   -2652.465331
 0.945000   -107.801949   -2483.228308
 0.950000   -119.472870   -2047.110391
 0.955000   -128.273053   -1305.462671
 0.960000   -132.527497   -243.340217
 0.965000   -130.706455   1038.679292
 0.970000   -122.140704   2326.944410
 0.975000   -107.437011   3344.820230
 0.980000   -88.692502   3862.230558
 0.985000   -68.814706   3829.313113
 0.990000   -50.399371   3371.332444
 0.995000   -35.101381   2687.641048
 1.000000   -23.522960   1943.727281
201 psinorm omepp() domepp/dpsiN
 0.000000   8.663463   20.718299
 0.005000   8.782875   27.046526
 0.010000   8.933928   30.141184
 0.015000   9.084287   29.999362
 0.020000   9.233922   29.851732
 0.025000   9.382804   29.698331
 0.030000   9.530905   29.539194
 0.035000   9.678196   29.374358
 0.040000   9.824649   29.203865
 0.045000   9.970235   29.027755
 0.050000   10.114926   28.846072
 0.055000   10.258696   28.658861
 0.060000   10.401515   28.466169
 0.065000   10.543357   28.268045
 0.070000   10.684195   28.064539
 0.075000   10.824003   27.855705
 0.080000   10.962752   27.641594
 0.085000   11.100419   27.422263
 0.090000   11.236975   27.197770
 0.095000   11.372396   26.968172
 0.100000   11.506657   26.733531
 0.105000   11.639732   26.493908
 0.110000   11.771596   26.249367
 0.115000   11.902225   25.999972
 0.120000   12.031596   25.745791
 0.125000   12.159683   25.486891
 0.130000   12.286465   25.223342
 0.135000   12.411917   24.955214
 0.140000   12.536017   24.682580
 0.145000   12.658742   24.405513
 0.150000   12.780072   24.124089
 0.155000   12.899983   23.838382
 0.160000   13.018456   23.548472
 0.165000   13.135468   23.254436
 0.170000   13.251000   22.956354
 0.175000   13.365032   22.654307
 0.180000   13.477543   22.348378
 0.185000   13.588515   22.038650
 0.190000   13.697930   21.725206
 0.195000   13.805767   21.408133
 0.200000   13.912011   21.087516
 0.205000   14.016643   20.763443
 0.210000   14.119645   20.436002
 0.215000   14.221003   20.105282
 0.220000   14.320698   19.771373
 0.225000   14.418716   19.434366
 0.230000   14.515042   19.094352
 0.235000   14.609660   18.751424
 0.240000   14.702556   18.405674
 0.245000   14.793717   18.057197
 0.250000   14.883128   17.706085
 0.255000   14.970777   17.352435
 0.260000   15.056652   16.996341
 0.265000   15.140741   16.637900
 0.270000   15.223031   16.277208
 0.275000   15.303513   15.914361
 0.280000   15.382175   15.549457
 0.285000   15.459007   15.182593
 0.290000   15.534001   14.813868
 0.295000   15.607146   14.443378
 0.300000   15.678435   14.071224
 0.305000   15.747858   13.697503
 0.310000   15.815410   13.322314
 0.315000   15.881081   12.945756
 0.320000   15.944867   12.567928
 0.325000   16.006761   12.188929
 0.330000   16.066757   11.808859
 0.335000   16.124849   11.427815
 0.340000   16.181035   11.045897
 0.345000   16.235308   10.663205
 0.350000   16.287667   10.279836
 0.355000   16.338107   9.895889
 0.360000   16.386626   9.511462
 0.365000   16.433221   9.126654
 0.370000   16.477892   8.741563
 0.375000   16.520637   8.356285
 0.380000   16.561455   7.970919
 0.385000   16.600346   7.585560
 0.390000   16.637311   7.200305
 0.395000   16.672349   6.815250
 0.400000   16.705463   6.430490
 0.405000   16.736654   6.046119
 0.410000   16.765924   5.662233
 0.415000   16.793276   5.278925
 0.420000   16.818714   4.896288
 0.425000   16.842239   4.514413
 0.430000   16.863858   4.133394
 0.435000   16.883573   3.753320
 0.440000   16.901391   3.374282
 0.445000   16.917316   2.996369
 0.450000   16.931355   2.619669
 0.455000   16.943513   2.244271
 0.460000   16.953797   1.870261
 0.465000   16.962215   1.497725
 0.470000   16.968775   1.126748
 0.475000   16.973483   0.757413
 0.480000   16.976349   0.389804
 0.485000   16.977381   0.024003
 0.490000   16.976589   -0.339911
 0.495000   16.973982   -0.701856
 0.500000   16.969570   -1.061755
 0.505000   16.963364   -1.419530
 0.510000   16.955375   -1.775105
 0.515000   16.945613   -2.128406
 0.520000   16.934091   -2.479359
 0.525000   16.920820   -2.827892
 0.530000   16.905812   -3.173934
 0.535000   16.889080   -3.517416
 0.540000   16.870638   -3.858271
 0.545000   16.850498   -4.196432
 0.550000   16.828673   -4.531837
 0.555000   16.805179   -4.864424
 0.560000   16.780029   -5.194132
 0.565000   16.753238   -5.520904
 0.570000   16.724820   -5.844686
 0.575000   16.694791   -6.165426
 0.580000   16.663166   -6.483075
 0.585000   16.629960   -6.797590
 0.590000   16.595190   -7.108930
 0.595000   16.558871   -7.417060
 0.600000   16.521019   -7.721951
 0.605000   16.481651   -8.023581
 0.610000   16.440784   -8.321937
 0.615000   16.398432   -8.617013
 0.620000   16.354613   -8.908819
 0.625000   16.309344   -9.197376
 0.630000   16.262640   -9.482723
 0.635000   16.214517   -9.764918
 0.640000   16.164990   -10.044046
 0.645000   16.114076   -10.320220
 0.650000   16.061788   -10.593588
 0.655000   16.008140   -10.864343
 0.660000   15.953145   -11.132729
 0.665000   15.896813   -11.399054
 0.670000   15.839154   -11.663701
 0.675000   15.780176   -11.927147
 0.680000   15.719883   -12.189979
 0.685000   15.658276   -12.452918
 0.690000   15.595354   -12.716846
 0.695000   15.531108   -12.982836
 0.700000   15.465525   -13.252196
 0.705000   15.398586   -13.526505
 0.710000   15.330260   -13.807674
 0.715000   15.260509   -14.098003
 0.720000   15.189280   -14.400251
 0.725000   15.116507   -14.717721
 0.730000   15.042103   -15.054351
 0.735000   14.965963   -15.414817
 0.740000   14.887955   -15.804649
 0.745000   14.807917   -16.230358
 0.750000   14.725651   -16.699562
 0.755000   14.640921   -17.221122
 0.760000   14.553440   -17.805266
 0.765000   14.462868   -18.463690
 0.770000   14.368803   -19.209626
 0.775000   14.270772   -20.057831
 0.780000   14.168225   -21.024471
 0.785000   14.060527   -22.126830
 0.790000   13.946956   -23.382768
 0.795000   13.826700   -24.809806
 0.800000   13.698858   -26.423679
 0.805000   13.562463   -28.236142
 0.810000   13.416497   -30.251717
 0.815000   13.259946   -32.462981
 0.820000   13.091867   -34.843843
 0.825000   12.911507   -37.340059
 0.830000   12.718467   -39.856011
 0.835000   12.512947   -42.236447
 0.840000   12.296102   -44.241494
 0.845000   12.070532   -45.512792
 0.850000   11.840974   -45.528080
 0.855000   11.615251   -43.541071
 0.860000   11.405564   -38.503117
 0.865000   11.230220   -28.963350
 0.870000   11.115930   -12.945258
 0.875000   11.100768   12.198874
 0.880000   11.237919   49.946732
 0.885000   11.600235   104.754651
 0.890000   12.285465   182.147508
 0.895000   13.421710   288.659763
 0.900000   15.172063   431.476292
 0.905000   17.736473   617.542795
 0.910000   21.347491   851.839162
 0.915000   26.254865   1134.491105
 0.920000   32.692402   1456.549041
 0.925000   40.820355   1794.759599
 0.930000   50.639998   2106.651893
 0.935000   61.886874   2328.693942
 0.940000   73.926937   2381.526048
 0.945000   85.702134   2185.975772
 0.950000   95.786695   1690.071439
 0.955000   102.602849   900.280073
 0.960000   104.789496   -97.424516
 0.965000   101.628604   -1143.273084
 0.970000   93.356765   -2044.068398
 0.975000   81.187920   -2637.158118
 0.980000   66.985184   -2848.326988
 0.985000   52.704650   -2711.575470
 0.990000   39.869429   -2340.244168
 0.995000   29.302208   -1870.223174
 1.000000   21.167197   -1383.781130
201 psinorm kpol(km/s/T) dkpol/dpsiN
 0.000000   -0.010427   88.754394
 0.005000   0.344042   53.033009
 0.010000   0.519903   33.399735
 0.015000   0.678039   31.098814
 0.020000   0.830891   30.195183
 0.025000   0.979991   29.355573
 0.030000   1.124447   28.278200
 0.035000   1.262773   27.179915
 0.040000   1.396246   26.083208
 0.045000   1.523605   24.907844
 0.050000   1.645325   23.835824
 0.055000   1.761963   22.931552
 0.060000   1.874640   22.195435
 0.065000   1.983917   21.545160
 0.070000   2.090092   20.947282
 0.075000   2.193390   20.392106
 0.080000   2.294013   19.826078
 0.085000   2.391651   19.284361
 0.090000   2.486856   19.046803
 0.095000   2.582119   19.140792
 0.100000   2.678264   19.575738
 0.105000   2.777876   20.287912
 0.110000   2.881143   21.178128
 0.115000   2.989658   22.309524
 0.120000   3.104239   23.487807
 0.125000   3.224536   24.499313
 0.130000   3.349232   25.325347
 0.135000   3.477789   25.893266
 0.140000   3.608164   26.277030
 0.145000   3.740560   26.459531
 0.150000   3.872760   26.371004
 0.155000   4.004270   25.921454
 0.160000   4.131974   25.140822
 0.165000   4.255678   24.070188
 0.170000   4.372676   22.659097
 0.175000   4.482269   20.954095
 0.180000   4.582217   19.038322
 0.185000   4.672652   17.296696
 0.190000   4.755184   15.681726
 0.195000   4.829469   14.246960
 0.200000   4.897654   13.013898
 0.205000   4.959608   11.815223
 0.210000   5.015806   10.569736
 0.215000   5.065306   9.064527
 0.220000   5.106451   7.404463
 0.225000   5.139350   5.582276
 0.230000   5.162274   3.546712
 0.235000   5.174817   1.484479
 0.240000   5.177119   -0.653583
 0.245000   5.168281   -2.795333
 0.250000   5.149165   -4.894535
 0.255000   5.119336   -7.125492
 0.260000   5.077910   -9.390196
 0.265000   5.025434   -11.722543
 0.270000   4.960685   -14.255146
 0.275000   4.882883   -16.799346
 0.280000   4.792692   -19.448508
 0.285000   4.688398   -22.272643
 0.290000   4.569965   -25.072311
 0.295000   4.437675   -28.005680
 0.300000   4.289908   -31.047484
 0.305000   4.127200   -33.946461
 0.310000   3.950444   -36.662837
 0.315000   3.760571   -39.025359
 0.320000   3.560190   -40.697066
 0.325000   3.353601   -41.740506
 0.330000   3.142785   -42.479263
 0.335000   2.928808   -43.057402
 0.340000   2.712211   -43.617892
 0.345000   2.492629   -44.278522
 0.350000   2.269426   -45.194208
 0.355000   2.040687   -46.714636
 0.360000   1.802280   -48.891448
 0.365000   1.551773   -51.404270
 0.370000   1.288237   -54.058836
 0.375000   1.011184   -56.696729
 0.380000   0.721270   -59.337700
 0.385000   0.417807   -62.574942
 0.390000   0.095520   -67.128623
 0.395000   -0.253479   -73.391690
 0.400000   -0.638397   -81.547460
 0.405000   -1.068954   -91.622913
 0.410000   -1.554626   -104.627916
 0.415000   -2.115233   -119.003313
 0.420000   -2.744659   -132.774061
 0.425000   -3.442973   -146.219721
 0.430000   -4.206856   -158.596200
 0.435000   -5.028935   -169.047004
 0.440000   -5.897326   -176.234566
 0.445000   -6.791281   -178.573178
 0.450000   -7.683058   -175.684149
 0.455000   -8.548123   -168.167335
 0.460000   -9.364731   -156.807569
 0.465000   -10.116198   -141.800715
 0.470000   -10.782739   -123.542976
 0.475000   -11.351628   -105.483886
 0.480000   -11.837577   -89.722555
 0.485000   -12.248854   -75.758188
 0.490000   -12.595159   -64.003192
 0.495000   -12.888886   -54.949669
 0.500000   -13.144656   -49.006571
 0.505000   -13.378951   -45.582173
 0.510000   -13.600478   -43.341234
 0.515000   -13.812364   -41.507270
 0.520000   -14.015550   -39.676862
 0.525000   -14.209132   -37.788617
 0.530000   -14.393437   -36.067942
 0.535000   -14.569812   -34.253803
 0.540000   -14.735975   -32.167271
 0.545000   -14.891484   -30.052216
 0.550000   -15.036497   -27.937157
 0.555000   -15.170856   -25.665405
 0.560000   -15.293151   -23.204793
 0.565000   -15.402904   -20.810594
 0.570000   -15.501257   -18.405367
 0.575000   -15.586957   -15.893861
 0.580000   -15.660195   -13.477419
 0.585000   -15.721732   -11.192780
 0.590000   -15.772123   -8.948833
 0.595000   -15.811220   -6.785351
 0.600000   -15.839977   -4.859135
 0.605000   -15.859811   -3.078251
 0.610000   -15.870759   -1.348428
 0.615000   -15.873296   0.254624
 0.620000   -15.868213   1.670895
 0.625000   -15.856587   3.001782
 0.630000   -15.838195   4.298425
 0.635000   -15.813602   5.473410
 0.640000   -15.783461   6.517854
 0.645000   -15.748424   7.487237
 0.650000   -15.708589   8.403902
 0.655000   -15.664385   9.186007
 0.660000   -15.616729   9.860939
 0.665000   -15.565775   10.481428
 0.670000   -15.511914   11.025577
 0.675000   -15.455520   11.467553
 0.680000   -15.397239   11.811532
 0.685000   -15.337404   12.057839
 0.690000   -15.276660   12.165249
 0.695000   -15.215752   12.154686
 0.700000   -15.155114   12.022493
 0.705000   -15.095527   11.737312
 0.710000   -15.037740   11.295719
 0.715000   -14.982570   10.707728
 0.720000   -14.930663   9.982253
 0.725000   -14.882747   9.143659
 0.730000   -14.839227   8.196286
 0.735000   -14.800784   7.162550
 0.740000   -14.767601   6.064783
 0.745000   -14.740137   4.893988
 0.750000   -14.718661   3.635147
 0.755000   -14.703785   2.201995
 0.760000   -14.696641   0.431770
 0.765000   -14.699467   -1.856032
 0.770000   -14.715202   -4.753795
 0.775000   -14.747005   -8.343105
 0.780000   -14.798633   -12.633228
 0.785000   -14.873338   -17.620226
 0.790000   -14.974835   -23.294086
 0.795000   -15.106279   -29.201065
 0.800000   -15.266846   -34.986913
 0.805000   -15.456148   -40.626554
 0.810000   -15.673111   -45.788505
 0.815000   -15.914033   -50.067170
 0.820000   -16.173783   -53.052102
 0.825000   -16.444554   -54.847065
 0.830000   -16.722253   -55.538478
 0.835000   -16.999939   -54.986878
 0.840000   -17.272122   -53.528075
 0.845000   -17.535219   -51.724118
 0.850000   -17.789363   -49.856800
 0.855000   -18.033787   -48.141003
 0.860000   -18.270773   -46.557384
 0.865000   -18.499361   -44.878672
 0.870000   -18.719560   -42.644264
 0.875000   -18.925804   -39.559951
 0.880000   -19.115160   -35.767736
 0.885000   -19.283481   -29.638882
 0.890000   -19.411548   -20.502598
 0.895000   -19.488507   -7.538733
 0.900000   -19.486936   12.364123
 0.905000   -19.364866   45.308744
 0.910000   -19.033848   91.261666
 0.915000   -18.452249   148.468664
 0.920000   -17.549162   218.775563
 0.925000   -16.264494   298.122536
 0.930000   -14.567936   361.936103
 0.935000   -12.645133   377.352275
 0.940000   -10.794414   307.828901
 0.945000   -9.566844   128.744791
 0.950000   -9.506966   -126.101726
 0.955000   -10.827861   -357.574097
 0.960000   -13.082707   -428.838092
 0.965000   -15.116242   -245.960455
 0.970000   -15.542311   166.070175
 0.975000   -13.455540   648.174324
 0.980000   -9.060568   995.919264
 0.985000   -3.496347   1087.608928
 0.990000   1.815521   932.222953
 0.995000   5.825882   623.322965
 1.000000   8.048751   265.824524
201 psinorm omghb() domghb/dpsiN
 0.000000   -0.000040   0.044435
 0.005000   0.000141   0.027852
 0.010000   0.000239   0.037773
 0.015000   0.000519   0.061896
 0.020000   0.000858   0.071635
 0.025000   0.001235   0.078662
 0.030000   0.001645   0.089577
 0.035000   0.002131   0.098114
 0.040000   0.002626   0.104902
 0.045000   0.003180   0.108304
 0.050000   0.003709   0.101171
 0.055000   0.004192   0.093235
 0.060000   0.004641   0.084877
 0.065000   0.005041   0.070393
 0.070000   0.005345   0.074434
 0.075000   0.005785   0.083127
 0.080000   0.006176   0.066221
 0.085000   0.006447   0.051415
 0.090000   0.006690   0.037026
 0.095000   0.006817   0.007611
 0.100000   0.006767   -0.015725
 0.105000   0.006660   -0.028861
 0.110000   0.006478   -0.043655
 0.115000   0.006224   -0.061522
 0.120000   0.005863   -0.065390
 0.125000   0.005570   -0.075179
 0.130000   0.005111   -0.085033
 0.135000   0.004719   -0.069403
 0.140000   0.004417   -0.056233
 0.145000   0.004157   -0.044447
 0.150000   0.003972   -0.030668
 0.155000   0.003850   -0.019229
 0.160000   0.003780   0.007921
 0.165000   0.003929   0.073918
 0.170000   0.004519   0.125195
 0.175000   0.005181   0.169229
 0.180000   0.006212   0.205303
 0.185000   0.007234   0.226852
 0.190000   0.008480   0.262366
 0.195000   0.009858   0.234256
 0.200000   0.010823   0.203880
 0.205000   0.011897   0.193942
 0.210000   0.012762   0.185873
 0.215000   0.013756   0.219557
 0.220000   0.014958   0.239237
 0.225000   0.016148   0.118195
 0.230000   0.016140   0.034289
 0.235000   0.016491   0.056862
 0.240000   0.016708   0.034139
 0.245000   0.016832   0.011900
 0.250000   0.016827   -0.008122
 0.255000   0.016751   -0.046870
 0.260000   0.016359   -0.029504
 0.265000   0.016456   0.051881
 0.270000   0.016877   0.105510
 0.275000   0.017511   0.162579
 0.280000   0.018503   0.183892
 0.285000   0.019350   0.373765
 0.290000   0.022241   0.552217
 0.295000   0.024872   0.562172
 0.300000   0.027863   0.607284
 0.305000   0.030945   0.616773
 0.310000   0.034030   0.596001
 0.315000   0.036905   0.594329
 0.320000   0.039974   0.541396
 0.325000   0.042319   0.442529
 0.330000   0.044399   0.370591
 0.335000   0.046025   0.310062
 0.340000   0.047499   0.377924
 0.345000   0.049804   0.362758
 0.350000   0.051127   0.285144
 0.355000   0.052656   0.330536
 0.360000   0.054432   0.387408
 0.365000   0.056530   0.450241
 0.370000   0.058935   0.413345
 0.375000   0.060663   0.426101
 0.380000   0.063196   0.600821
 0.385000   0.066671   0.812877
 0.390000   0.071325   1.188437
 0.395000   0.078556   1.720240
 0.400000   0.088527   2.105165
 0.405000   0.099607   2.460005
 0.410000   0.113127   2.836732
 0.415000   0.127975   3.045801
 0.420000   0.143585   3.319330
 0.425000   0.161168   3.329400
 0.430000   0.176879   2.879708
 0.435000   0.189965   2.397903
 0.440000   0.200858   1.865181
 0.445000   0.208617   1.146339
 0.450000   0.212321   0.181022
 0.455000   0.210427   -0.841809
 0.460000   0.203903   -1.559984
 0.465000   0.194827   -2.055665
 0.470000   0.183347   -2.365358
 0.475000   0.171174   -2.370770
 0.480000   0.159639   -2.392862
 0.485000   0.147245   -2.008934
 0.490000   0.139550   -1.270339
 0.495000   0.134542   -0.788968
 0.500000   0.131660   -0.415186
 0.505000   0.130390   -0.152925
 0.510000   0.130131   0.017327
 0.515000   0.130563   0.041969
 0.520000   0.130550   -0.014388
 0.525000   0.130419   -0.018956
 0.530000   0.130361   -0.009445
 0.535000   0.130325   -0.045821
 0.540000   0.129903   -0.091910
 0.545000   0.129406   -0.107725
 0.550000   0.128825   -0.171363
 0.555000   0.127692   -0.249727
 0.560000   0.126328   -0.271384
 0.565000   0.124978   -0.286041
 0.570000   0.123468   -0.340777
 0.575000   0.121570   -0.405369
 0.580000   0.119414   -0.406948
 0.585000   0.117501   -0.347774
 0.590000   0.115936   -0.420994
 0.595000   0.113291   -0.485628
 0.600000   0.111080   -0.443453
 0.605000   0.108857   -0.456648
 0.610000   0.106514   -0.449564
 0.615000   0.104361   -0.332343
 0.620000   0.103190   -0.404755
 0.625000   0.100313   -0.482611
 0.630000   0.098364   -0.360056
 0.635000   0.096713   -0.258533
 0.640000   0.095779   -0.129286
 0.645000   0.095420   0.170570
 0.650000   0.097484   0.505463
 0.655000   0.100475   0.687550
 0.660000   0.104360   0.793687
 0.665000   0.108411   0.776971
 0.670000   0.112130   0.715950
 0.675000   0.115571   1.099868
 0.680000   0.123128   0.730877
 0.685000   0.122880   -0.059779
 0.690000   0.122530   0.019300
 0.695000   0.123073   0.036397
 0.700000   0.122894   -0.127339
 0.705000   0.121799   -0.172174
 0.710000   0.121173   -0.691807
 0.715000   0.114881   -1.102304
 0.720000   0.110150   -0.725972
 0.725000   0.107621   -0.250911
 0.730000   0.107641   0.209556
 0.735000   0.109717   0.461509
 0.740000   0.112256   0.923952
 0.745000   0.118957   1.846846
 0.750000   0.130724   2.440784
 0.755000   0.143364   2.938739
 0.760000   0.160111   3.317918
 0.765000   0.176544   3.303781
 0.770000   0.193149   3.663031
 0.775000   0.213174   4.250758
 0.780000   0.235657   4.325403
 0.785000   0.256428   4.276021
 0.790000   0.278417   4.167332
 0.795000   0.298101   3.752513
 0.800000   0.315942   3.240688
 0.805000   0.330508   2.353470
 0.810000   0.339477   1.595064
 0.815000   0.346459   1.220409
 0.820000   0.351681   0.729281
 0.825000   0.353752   0.401523
 0.830000   0.355696   0.528399
 0.835000   0.359036   0.028546
 0.840000   0.355982   -0.248707
 0.845000   0.356548   0.496138
 0.850000   0.360943   1.112985
 0.855000   0.367678   2.084112
 0.860000   0.381784   4.934223
 0.865000   0.417021   6.309557
 0.870000   0.444880   8.757690
 0.875000   0.504597   14.371309
 0.880000   0.588593   18.872377
 0.885000   0.693321   22.591633
 0.890000   0.814509   28.432540
 0.895000   0.977647   25.462184
 0.900000   1.069131   17.180958
 0.905000   1.149456   11.354871
 0.910000   1.182680   -0.128602
 0.915000   1.148170   -14.107980
 0.920000   1.041600   -23.501393
 0.925000   0.913156   -36.148685
 0.930000   0.680113   -39.199804
 0.935000   0.521158   -21.843982
 0.940000   0.461673   1.661489
 0.945000   0.537773   25.030715
 0.950000   0.711980   35.289152
 0.955000   0.890665   0.335504
 0.960000   0.715335   -67.167301
 0.965000   0.218992   -129.563518
 0.970000   -0.580300   -169.015041
 0.975000   -1.471159   -155.214800
 0.980000   -2.132448   -90.542066
 0.985000   -2.376579   -5.119143
 0.990000   -2.183639   67.122909
 0.995000   -1.705350   102.729275
 1.000000   -1.156346   116.872293
201 psinorm nz1(10^20/m^3) dnz1/dpsiN
 0.000000   0.039849   0.000005
 0.005000   0.039847   -0.001076
 0.010000   0.039839   -0.002166
 0.015000   0.039825   -0.003274
 0.020000   0.039806   -0.004395
 0.025000   0.039781   -0.005523
 0.030000   0.039751   -0.006652
 0.035000   0.039715   -0.007776
 0.040000   0.039673   -0.008886
 0.045000   0.039626   -0.009975
 0.050000   0.039573   -0.011040
 0.055000   0.039515   -0.012075
 0.060000   0.039452   -0.013074
 0.065000   0.039385   -0.014034
 0.070000   0.039312   -0.014947
 0.075000   0.039235   -0.015818
 0.080000   0.039154   -0.016651
 0.085000   0.039069   -0.017443
 0.090000   0.038979   -0.018192
 0.095000   0.038887   -0.018899
 0.100000   0.038790   -0.019565
 0.105000   0.038691   -0.020190
 0.110000   0.038589   -0.020774
 0.115000   0.038483   -0.021313
 0.120000   0.038375   -0.021806
 0.125000   0.038265   -0.022252
 0.130000   0.038153   -0.022653
 0.135000   0.038039   -0.023006
 0.140000   0.037923   -0.023306
 0.145000   0.037806   -0.023549
 0.150000   0.037687   -0.023735
 0.155000   0.037568   -0.023862
 0.160000   0.037449   -0.023929
 0.165000   0.037329   -0.023933
 0.170000   0.037209   -0.023880
 0.175000   0.037090   -0.023772
 0.180000   0.036972   -0.023612
 0.185000   0.036854   -0.023401
 0.190000   0.036738   -0.023147
 0.195000   0.036623   -0.022867
 0.200000   0.036509   -0.022577
 0.205000   0.036397   -0.022280
 0.210000   0.036286   -0.021974
 0.215000   0.036177   -0.021654
 0.220000   0.036070   -0.021320
 0.225000   0.035964   -0.020971
 0.230000   0.035860   -0.020580
 0.235000   0.035758   -0.020131
 0.240000   0.035659   -0.019630
 0.245000   0.035562   -0.019074
 0.250000   0.035468   -0.018463
 0.255000   0.035377   -0.017794
 0.260000   0.035290   -0.017060
 0.265000   0.035207   -0.016268
 0.270000   0.035127   -0.015427
 0.275000   0.035052   -0.014547
 0.280000   0.034982   -0.013632
 0.285000   0.034916   -0.012684
 0.290000   0.034855   -0.011721
 0.295000   0.034799   -0.010767
 0.300000   0.034747   -0.009822
 0.305000   0.034701   -0.008895
 0.310000   0.034658   -0.007993
 0.315000   0.034621   -0.007118
 0.320000   0.034587   -0.006277
 0.325000   0.034558   -0.005469
 0.330000   0.034532   -0.004685
 0.335000   0.034511   -0.003920
 0.340000   0.034493   -0.003173
 0.345000   0.034479   -0.002441
 0.350000   0.034469   -0.001724
 0.355000   0.034462   -0.001027
 0.360000   0.034459   -0.000354
 0.365000   0.034458   0.000290
 0.370000   0.034461   0.000901
 0.375000   0.034467   0.001474
 0.380000   0.034476   0.002005
 0.385000   0.034488   0.002490
 0.390000   0.034501   0.002928
 0.395000   0.034517   0.003316
 0.400000   0.034534   0.003653
 0.405000   0.034553   0.003938
 0.410000   0.034574   0.004174
 0.415000   0.034595   0.004365
 0.420000   0.034617   0.004510
 0.425000   0.034640   0.004609
 0.430000   0.034663   0.004661
 0.435000   0.034687   0.004665
 0.440000   0.034710   0.004621
 0.445000   0.034733   0.004520
 0.450000   0.034755   0.004357
 0.455000   0.034777   0.004128
 0.460000   0.034797   0.003832
 0.465000   0.034815   0.003467
 0.470000   0.034831   0.003032
 0.475000   0.034845   0.002528
 0.480000   0.034856   0.001960
 0.485000   0.034865   0.001331
 0.490000   0.034870   0.000646
 0.495000   0.034871   -0.000088
 0.500000   0.034869   -0.000865
 0.505000   0.034863   -0.001681
 0.510000   0.034852   -0.002532
 0.515000   0.034837   -0.003414
 0.520000   0.034818   -0.004327
 0.525000   0.034794   -0.005268
 0.530000   0.034765   -0.006236
 0.535000   0.034732   -0.007238
 0.540000   0.034693   -0.008275
 0.545000   0.034649   -0.009344
 0.550000   0.034599   -0.010441
 0.555000   0.034544   -0.011562
 0.560000   0.034484   -0.012698
 0.565000   0.034418   -0.013844
 0.570000   0.034345   -0.014996
 0.575000   0.034268   -0.016149
 0.580000   0.034184   -0.017301
 0.585000   0.034095   -0.018451
 0.590000   0.033999   -0.019602
 0.595000   0.033899   -0.020760
 0.600000   0.033792   -0.021920
 0.605000   0.033679   -0.023082
 0.610000   0.033561   -0.024242
 0.615000   0.033437   -0.025397
 0.620000   0.033307   -0.026553
 0.625000   0.033171   -0.027697
 0.630000   0.033030   -0.028811
 0.635000   0.032883   -0.029894
 0.640000   0.032731   -0.030940
 0.645000   0.032574   -0.031947
 0.650000   0.032412   -0.032983
 0.655000   0.032244   -0.034194
 0.660000   0.032070   -0.035685
 0.665000   0.031887   -0.037492
 0.670000   0.031695   -0.039618
 0.675000   0.031491   -0.042042
 0.680000   0.031274   -0.044909
 0.685000   0.031042   -0.048035
 0.690000   0.030794   -0.051053
 0.695000   0.030531   -0.053956
 0.700000   0.030254   -0.056709
 0.705000   0.029964   -0.059211
 0.710000   0.029662   -0.061427
 0.715000   0.029350   -0.063110
 0.720000   0.029031   -0.064017
 0.725000   0.028710   -0.064218
 0.730000   0.028389   -0.063763
 0.735000   0.028072   -0.062669
 0.740000   0.027762   -0.060881
 0.745000   0.027463   -0.058472
 0.750000   0.027178   -0.055808
 0.755000   0.026905   -0.053079
 0.760000   0.026647   -0.050308
 0.765000   0.026402   -0.047586
 0.770000   0.026171   -0.044926
 0.775000   0.025953   -0.042445
 0.780000   0.025747   -0.040394
 0.785000   0.025549   -0.038770
 0.790000   0.025359   -0.037445
 0.795000   0.025175   -0.036354
 0.800000   0.024995   -0.035403
 0.805000   0.024821   -0.034475
 0.810000   0.024651   -0.033528
 0.815000   0.024485   -0.032580
 0.820000   0.024325   -0.031642
 0.825000   0.024169   -0.030727
 0.830000   0.024017   -0.029839
 0.835000   0.023870   -0.028983
 0.840000   0.023728   -0.028255
 0.845000   0.023588   -0.027768
 0.850000   0.023450   -0.027564
 0.855000   0.023312   -0.027668
 0.860000   0.023173   -0.028098
 0.865000   0.023031   -0.028998
 0.870000   0.022883   -0.030306
 0.875000   0.022728   -0.031984
 0.880000   0.022563   -0.034210
 0.885000   0.022386   -0.037065
 0.890000   0.022193   -0.040694
 0.895000   0.021979   -0.045972
 0.900000   0.021733   -0.052982
 0.905000   0.021449   -0.061657
 0.910000   0.021117   -0.073067
 0.915000   0.020719   -0.088219
 0.920000   0.020234   -0.108377
 0.925000   0.019635   -0.136691
 0.930000   0.018867   -0.173059
 0.935000   0.017904   -0.215541
 0.940000   0.016712   -0.263263
 0.945000   0.015272   -0.311522
 0.950000   0.013597   -0.352593
 0.955000   0.011746   -0.378882
 0.960000   0.009808   -0.380919
 0.965000   0.007937   -0.355328
 0.970000   0.006255   -0.309800
 0.975000   0.004839   -0.254279
 0.980000   0.003712   -0.198363
 0.985000   0.002855   -0.148579
 0.990000   0.002226   -0.108121
 0.995000   0.001774   -0.077669
 1.000000   0.001449   -0.052057
201 psinorm vtor1(km/s) dvtor1/dpsiN
 0.000000   139.877778   672.396048
 0.005000   142.487938   371.667930
 0.010000   143.594457   194.987935
 0.015000   144.437817   154.213833
 0.020000   145.136595   130.577302
 0.025000   145.743590   115.417421
 0.030000   146.290770   104.638495
 0.035000   146.789975   95.543563
 0.040000   147.246205   87.966029
 0.045000   147.669635   81.909608
 0.050000   148.065301   76.592566
 0.055000   148.435561   71.662856
 0.060000   148.781930   67.287844
 0.065000   149.108440   63.483777
 0.070000   149.416768   59.893479
 0.075000   149.707374   56.508735
 0.080000   149.981855   53.469113
 0.085000   150.242065   50.618169
 0.090000   150.488037   47.804035
 0.095000   150.720106   45.142607
 0.100000   150.939463   42.671577
 0.105000   151.146822   40.228916
 0.110000   151.341752   37.772644
 0.115000   151.524548   35.374392
 0.120000   151.695496   33.029670
 0.125000   151.854845   30.553325
 0.130000   152.001029   28.032278
 0.135000   152.135167   25.588516
 0.140000   152.256914   23.036138
 0.145000   152.365529   20.409455
 0.150000   152.461009   17.796950
 0.155000   152.543498   15.172583
 0.160000   152.612735   12.418695
 0.165000   152.667685   9.620629
 0.170000   152.708941   6.900758
 0.175000   152.736693   4.188454
 0.180000   152.750826   1.460988
 0.185000   152.751303   -1.205403
 0.190000   152.738772   -3.738527
 0.195000   152.713917   -6.117009
 0.200000   152.677601   -8.317281
 0.205000   152.630745   -10.319594
 0.210000   152.574405   -12.116144
 0.215000   152.509583   -13.730255
 0.220000   152.437103   -15.087488
 0.225000   152.358708   -16.099247
 0.230000   152.276110   -16.967090
 0.235000   152.189037   -17.781038
 0.240000   152.098300   -18.436437
 0.245000   152.004673   -18.959698
 0.250000   151.908703   -19.395801
 0.255000   151.810715   -19.707834
 0.260000   151.711625   -20.087050
 0.265000   151.609845   -20.694421
 0.270000   151.504681   -21.455969
 0.275000   151.395285   -22.388255
 0.280000   151.280798   -23.515971
 0.285000   151.160125   -24.886106
 0.290000   151.031937   -26.380993
 0.295000   150.896315   -27.869909
 0.300000   150.753238   -29.357936
 0.305000   150.602736   -30.843528
 0.310000   150.444803   -32.307208
 0.315000   150.279664   -33.756682
 0.320000   150.107236   -35.172086
 0.325000   149.927943   -36.517730
 0.330000   149.742058   -37.790810
 0.335000   149.550035   -38.983243
 0.340000   149.352226   -40.110387
 0.345000   149.148931   -41.136905
 0.350000   148.940857   -42.048595
 0.355000   148.728445   -42.864959
 0.360000   148.512207   -43.568493
 0.365000   148.292760   -44.148391
 0.370000   148.070723   -44.616135
 0.375000   147.846599   -44.946031
 0.380000   147.621263   -45.230800
 0.385000   147.394291   -45.735351
 0.390000   147.163910   -46.669786
 0.395000   146.927593   -48.163436
 0.400000   146.682275   -50.270799
 0.405000   146.424885   -53.265853
 0.410000   146.149617   -57.163284
 0.415000   145.853252   -61.518900
 0.420000   145.534428   -66.194879
 0.425000   145.191303   -71.209878
 0.430000   144.822329   -76.497924
 0.435000   144.426324   -82.231911
 0.440000   144.000010   -88.164015
 0.445000   143.544684   -93.630669
 0.450000   143.063703   -98.591450
 0.455000   142.558769   -103.136507
 0.460000   142.032338   -107.147057
 0.465000   141.487299   -110.571006
 0.470000   140.926628   -113.188986
 0.475000   140.355409   -114.998158
 0.480000   139.776647   -116.423576
 0.485000   139.191173   -117.712260
 0.490000   138.599524   -118.908808
 0.495000   138.002085   -120.063514
 0.500000   137.398889   -121.216080
 0.505000   136.789924   -122.284170
 0.510000   136.176047   -123.233141
 0.515000   135.557593   -124.112634
 0.520000   134.934921   -124.909034
 0.525000   134.308503   -125.636366
 0.530000   133.678557   -126.335791
 0.535000   133.045145   -126.918403
 0.540000   132.409373   -127.340529
 0.545000   131.771739   -127.665412
 0.550000   131.132719   -127.889161
 0.555000   130.492848   -128.023416
 0.560000   129.852485   -128.054301
 0.565000   129.212305   -127.827616
 0.570000   128.574209   -127.284482
 0.575000   127.939460   -126.485387
 0.580000   127.309355   -125.440519
 0.585000   126.685055   -124.186903
 0.590000   126.067486   -122.613451
 0.595000   125.458920   -120.883343
 0.600000   124.858652   -119.222186
 0.605000   124.266698   -117.575491
 0.610000   123.682897   -115.987778
 0.615000   123.106821   -114.508951
 0.620000   122.537808   -113.041752
 0.625000   121.976403   -111.832109
 0.630000   121.419487   -111.131200
 0.635000   120.865091   -110.876724
 0.640000   120.310719   -111.180567
 0.645000   119.753285   -112.125529
 0.650000   119.189464   -113.842480
 0.655000   118.614861   -115.976801
 0.660000   118.029696   -117.933240
 0.665000   117.435528   -119.582616
 0.670000   116.833870   -120.953298
 0.675000   116.225995   -122.141319
 0.680000   115.612457   -123.295931
 0.685000   114.993036   -124.687577
 0.690000   114.365581   -126.494466
 0.695000   113.728091   -128.682829
 0.700000   113.078753   -131.240571
 0.705000   112.415686   -134.184759
 0.710000   111.736905   -137.608054
 0.715000   111.039605   -141.588931
 0.720000   110.321016   -146.265520
 0.725000   109.576950   -152.105080
 0.730000   108.799965   -159.673887
 0.735000   107.980211   -169.378833
 0.740000   107.106177   -182.161087
 0.745000   106.158600   -197.971401
 0.750000   105.126463   -214.878301
 0.755000   104.009817   -232.130049
 0.760000   102.805162   -249.884992
 0.765000   101.510967   -267.741294
 0.770000   100.127749   -285.754548
 0.775000   98.653422   -303.268709
 0.780000   97.095062   -318.589340
 0.785000   95.467528   -331.863119
 0.790000   93.776431   -344.048442
 0.795000   92.027044   -355.104866
 0.800000   90.225382   -365.199347
 0.805000   88.375050   -374.213416
 0.810000   86.483248   -379.971018
 0.815000   84.575340   -381.348901
 0.820000   82.669759   -379.193892
 0.825000   80.783401   -373.995720
 0.830000   78.929802   -366.968250
 0.835000   77.113719   -360.152658
 0.840000   75.328275   -352.619925
 0.845000   73.587520   -343.927833
 0.850000   71.888997   -336.813760
 0.855000   70.219382   -334.056410
 0.860000   68.548433   -339.874621
 0.865000   66.820636   -360.645668
 0.870000   64.941976   -400.369510
 0.875000   62.816941   -463.156271
 0.880000   60.310414   -554.052108
 0.885000   57.276420   -673.088671
 0.890000   53.579527   -815.372692
 0.895000   49.122693   -971.810613
 0.900000   43.861421   -1121.662685
 0.905000   37.906066   -1239.177779
 0.910000   31.469643   -1302.804427
 0.915000   24.878021   -1294.154768
 0.920000   18.528095   -1205.455746
 0.925000   12.823464   -1039.503352
 0.930000   8.133062   -817.997777
 0.935000   4.643486   -572.568252
 0.940000   2.407379   -330.240938
 0.945000   1.341077   -115.216308
 0.950000   1.255216   55.912123
 0.955000   1.900198   174.317171
 0.960000   2.998388   241.304696
 0.965000   4.313245   265.133676
 0.970000   5.649725   254.599443
 0.975000   6.859239   219.511041
 0.980000   7.844835   169.757102
 0.985000   8.556810   113.547605
 0.990000   8.980311   57.905571
 0.995000   9.135866   6.709453
 1.000000   9.047406   -42.093675
201 psinorm vpol1(km/s) dvpol1/dpsiN
 0.000000   -0.000066   2.984961
 0.005000   0.015957   3.424414
 0.010000   0.034178   3.858008
 0.015000   0.054537   4.274023
 0.020000   0.076918   4.650000
 0.025000   0.101037   4.967578
 0.030000   0.126594   5.206250
 0.035000   0.153100   5.376562
 0.040000   0.180359   5.497656
 0.045000   0.208076   5.577539
 0.050000   0.236135   5.635156
 0.055000   0.264428   5.682227
 0.060000   0.292957   5.727344
 0.065000   0.321701   5.771875
 0.070000   0.350676   5.811523
 0.075000   0.379816   5.833594
 0.080000   0.409012   5.844922
 0.085000   0.438266   5.855273
 0.090000   0.467564   5.901367
 0.095000   0.497279   6.012109
 0.100000   0.527686   6.186133
 0.105000   0.559141   6.418164
 0.110000   0.591867   6.693555
 0.115000   0.626076   7.026563
 0.120000   0.662133   7.382617
 0.125000   0.699902   7.705859
 0.130000   0.739191   7.994141
 0.135000   0.779844   8.235742
 0.140000   0.821549   8.430664
 0.145000   0.864150   8.580273
 0.150000   0.907352   8.661328
 0.155000   0.950764   8.655859
 0.160000   0.993910   8.558203
 0.165000   1.036346   8.374219
 0.170000   1.077652   8.106250
 0.175000   1.117408   7.739063
 0.180000   1.155043   7.312695
 0.185000   1.190535   6.900586
 0.190000   1.224049   6.517773
 0.195000   1.255713   6.161328
 0.200000   1.285662   5.839453
 0.205000   1.314107   5.537500
 0.210000   1.341037   5.194336
 0.215000   1.366051   4.785742
 0.220000   1.388895   4.315820
 0.225000   1.409209   3.784766
 0.230000   1.426742   3.207227
 0.235000   1.441281   2.583789
 0.240000   1.452580   1.937109
 0.245000   1.460652   1.286914
 0.250000   1.465449   0.617969
 0.255000   1.466832   -0.076758
 0.260000   1.464682   -0.806445
 0.265000   1.458768   -1.573828
 0.270000   1.448943   -2.380469
 0.275000   1.434963   -3.230664
 0.280000   1.416637   -4.120508
 0.285000   1.393758   -5.046680
 0.290000   1.366170   -6.004688
 0.295000   1.333711   -7.006055
 0.300000   1.296109   -8.034570
 0.305000   1.253365   -9.051953
 0.310000   1.205590   -10.013281
 0.315000   1.153232   -10.863867
 0.320000   1.096951   -11.524805
 0.325000   1.037984   -11.985156
 0.330000   0.977100   -12.343750
 0.335000   0.914547   -12.664648
 0.340000   0.850453   -12.971094
 0.345000   0.784836   -13.301172
 0.350000   0.717441   -13.722168
 0.355000   0.647614   -14.330273
 0.360000   0.574139   -15.142871
 0.365000   0.496186   -16.075781
 0.370000   0.413381   -17.056543
 0.375000   0.325620   -18.031152
 0.380000   0.233069   -19.016992
 0.385000   0.135450   -20.200195
 0.390000   0.031067   -21.815820
 0.395000   -0.082708   -24.000098
 0.400000   -0.208934   -26.818164
 0.405000   -0.350890   -30.289355
 0.410000   -0.511827   -34.747266
 0.415000   -0.698362   -39.683203
 0.420000   -0.908659   -44.459277
 0.425000   -1.142955   -49.157324
 0.430000   -1.400232   -53.512305
 0.435000   -1.678078   -57.254687
 0.440000   -1.972779   -59.938281
 0.445000   -2.277461   -60.970605
 0.450000   -2.582485   -60.240918
 0.455000   -2.879870   -57.972559
 0.460000   -3.162211   -54.349023
 0.465000   -3.423360   -49.441602
 0.470000   -3.656627   -43.427832
 0.475000   -3.857639   -37.436621
 0.480000   -4.030993   -32.148535
 0.485000   -4.179124   -27.456934
 0.490000   -4.305562   -23.530371
 0.495000   -4.414428   -20.450488
 0.500000   -4.510067   -18.414258
 0.505000   -4.598570   -17.287500
 0.510000   -4.682942   -16.537988
 0.515000   -4.763950   -15.892578
 0.520000   -4.841868   -15.272070
 0.525000   -4.916671   -14.658398
 0.530000   -4.988452   -14.042480
 0.535000   -5.057096   -13.390137
 0.540000   -5.122354   -12.695996
 0.545000   -5.184056   -11.961914
 0.550000   -5.241973   -11.196973
 0.555000   -5.296025   -10.399805
 0.560000   -5.345971   -9.559961
 0.565000   -5.391625   -8.692969
 0.570000   -5.432900   -7.815918
 0.575000   -5.469784   -6.944922
 0.580000   -5.502350   -6.089453
 0.585000   -5.530679   -5.250146
 0.590000   -5.554851   -4.439014
 0.595000   -5.575069   -3.680566
 0.600000   -5.591657   -2.973145
 0.605000   -5.604800   -2.307178
 0.610000   -5.614729   -1.687402
 0.615000   -5.621674   -1.112402
 0.620000   -5.625853   -0.577148
 0.625000   -5.627446   -0.076172
 0.630000   -5.626614   0.389160
 0.635000   -5.623554   0.824561
 0.640000   -5.618369   1.225439
 0.645000   -5.611300   1.588184
 0.650000   -5.602487   1.922217
 0.655000   -5.592078   2.222314
 0.660000   -5.580264   2.486670
 0.665000   -5.567211   2.718994
 0.670000   -5.553074   2.923975
 0.675000   -5.537971   3.098779
 0.680000   -5.522086   3.237695
 0.685000   -5.505594   3.335547
 0.690000   -5.488730   3.384375
 0.695000   -5.471750   3.392041
 0.700000   -5.454810   3.354858
 0.705000   -5.438202   3.261426
 0.710000   -5.422196   3.110400
 0.715000   -5.407098   2.905859
 0.720000   -5.393137   2.651953
 0.725000   -5.380578   2.356470
 0.730000   -5.369573   2.020068
 0.735000   -5.360378   1.651440
 0.740000   -5.353058   1.259375
 0.745000   -5.347784   0.840356
 0.750000   -5.344655   0.390576
 0.755000   -5.343878   -0.124170
 0.760000   -5.345896   -0.765576
 0.765000   -5.351534   -1.593140
 0.770000   -5.361828   -2.638257
 0.775000   -5.377917   -3.942505
 0.780000   -5.401253   -5.512646
 0.785000   -5.433043   -7.329126
 0.790000   -5.474544   -9.390161
 0.795000   -5.526945   -11.553540
 0.800000   -5.590079   -13.688354
 0.805000   -5.663828   -15.746631
 0.810000   -5.747546   -17.620142
 0.815000   -5.840030   -19.200098
 0.820000   -5.939547   -20.321338
 0.825000   -6.043243   -20.954419
 0.830000   -6.149091   -21.167163
 0.835000   -6.254915   -20.973730
 0.840000   -6.358828   -20.459375
 0.845000   -6.459508   -19.727734
 0.850000   -6.556105   -18.957910
 0.855000   -6.649087   -18.329590
 0.860000   -6.739401   -17.760059
 0.865000   -6.826688   -17.069312
 0.870000   -6.910094   -16.167798
 0.875000   -6.988366   -15.034985
 0.880000   -7.060444   -13.649731
 0.885000   -7.124863   -11.661133
 0.890000   -7.177056   -8.553467
 0.895000   -7.210398   -3.764209
 0.900000   -7.214698   3.514404
 0.905000   -7.175254   14.482568
 0.910000   -7.069872   30.470166
 0.915000   -6.870552   51.973926
 0.920000   -6.550133   78.363623
 0.925000   -6.086916   106.806445
 0.930000   -5.482068   130.244336
 0.935000   -4.784473   137.582129
 0.940000   -4.106247   112.577539
 0.945000   -3.658697   44.949316
 0.950000   -3.656754   -52.979883
 0.955000   -4.188496   -143.237891
 0.960000   -5.089133   -172.429297
 0.965000   -5.912789   -100.602930
 0.970000   -6.095162   62.538281
 0.975000   -5.287406   252.765625
 0.980000   -3.567506   390.801172
 0.985000   -1.379395   428.383789
 0.990000   0.716332   367.484180
 0.995000   2.295447   245.050586
 1.000000   3.166838   103.505664
3 N Z A of ION SPECIES
 6.000000   6.000000   12.010700
 1.000000   1.000000   2.000000
 1.000000   1.000000   2.000000
