201 psinorm ne(10^20/m^3) dne/dpsiN
 0.000000   0.456635   -0.296339
 0.005000   0.455158   -0.294724
 0.010000   0.453688   -0.293114
 0.015000   0.452227   -0.291514
 0.020000   0.450773   -0.289923
 0.025000   0.449327   -0.288341
 0.030000   0.447890   -0.286769
 0.035000   0.446460   -0.285206
 0.040000   0.445037   -0.283652
 0.045000   0.443623   -0.282107
 0.050000   0.442216   -0.280570
 0.055000   0.440817   -0.279043
 0.060000   0.439426   -0.277525
 0.065000   0.438042   -0.276016
 0.070000   0.436666   -0.274515
 0.075000   0.435297   -0.273023
 0.080000   0.433936   -0.271539
 0.085000   0.432582   -0.270065
 0.090000   0.431235   -0.268598
 0.095000   0.429896   -0.267140
 0.100000   0.428564   -0.265691
 0.105000   0.427239   -0.264250
 0.110000   0.425921   -0.262817
 0.115000   0.424611   -0.261392
 0.120000   0.423307   -0.259976
 0.125000   0.422011   -0.258567
 0.130000   0.420721   -0.257167
 0.135000   0.419439   -0.255775
 0.140000   0.418164   -0.254390
 0.145000   0.416895   -0.253014
 0.150000   0.415634   -0.251645
 0.155000   0.414379   -0.250284
 0.160000   0.413131   -0.248931
 0.165000   0.411889   -0.247585
 0.170000   0.410655   -0.246248
 0.175000   0.409427   -0.244917
 0.180000   0.408206   -0.243595
 0.185000   0.406991   -0.242279
 0.190000   0.405783   -0.240971
 0.195000   0.404581   -0.239671
 0.200000   0.403386   -0.238378
 0.205000   0.402198   -0.237092
 0.210000   0.401015   -0.235813
 0.215000   0.399839   -0.234542
 0.220000   0.398670   -0.233277
 0.225000   0.397507   -0.232020
 0.230000   0.396350   -0.230769
 0.235000   0.395199   -0.229526
 0.240000   0.394054   -0.228290
 0.245000   0.392916   -0.227060
 0.250000   0.391784   -0.225838
 0.255000   0.390658   -0.224622
 0.260000   0.389538   -0.223412
 0.265000   0.388424   -0.222210
 0.270000   0.387316   -0.221014
 0.275000   0.386213   -0.219825
 0.280000   0.385117   -0.218642
 0.285000   0.384027   -0.217466
 0.290000   0.382943   -0.216297
 0.295000   0.381864   -0.215134
 0.300000   0.380791   -0.213977
 0.305000   0.379724   -0.212826
 0.310000   0.378663   -0.211682
 0.315000   0.377607   -0.210544
 0.320000   0.376558   -0.209412
 0.325000   0.375513   -0.208287
 0.330000   0.374475   -0.207168
 0.335000   0.373442   -0.206054
 0.340000   0.372414   -0.204947
 0.345000   0.371392   -0.203846
 0.350000   0.370376   -0.202751
 0.355000   0.369365   -0.201661
 0.360000   0.368359   -0.200578
 0.365000   0.367359   -0.199500
 0.370000   0.366364   -0.198429
 0.375000   0.365375   -0.197363
 0.380000   0.364390   -0.196302
 0.385000   0.363412   -0.195248
 0.390000   0.362438   -0.194199
 0.395000   0.361470   -0.193156
 0.400000   0.360506   -0.192118
 0.405000   0.359548   -0.191086
 0.410000   0.358596   -0.190059
 0.415000   0.357648   -0.189038
 0.420000   0.356705   -0.188022
 0.425000   0.355768   -0.187012
 0.430000   0.354835   -0.186007
 0.435000   0.353908   -0.185007
 0.440000   0.352985   -0.184013
 0.445000   0.352067   -0.183024
 0.450000   0.351155   -0.182040
 0.455000   0.350247   -0.181061
 0.460000   0.349344   -0.180088
 0.465000   0.348446   -0.179119
 0.470000   0.347553   -0.178156
 0.475000   0.346665   -0.177198
 0.480000   0.345781   -0.176244
 0.485000   0.344902   -0.175296
 0.490000   0.344028   -0.174353
 0.495000   0.343159   -0.173414
 0.500000   0.342294   -0.172481
 0.505000   0.341434   -0.171552
 0.510000   0.340578   -0.170628
 0.515000   0.339728   -0.169709
 0.520000   0.338881   -0.168795
 0.525000   0.338040   -0.167885
 0.530000   0.337202   -0.166980
 0.535000   0.336370   -0.166080
 0.540000   0.335542   -0.165184
 0.545000   0.334718   -0.164293
 0.550000   0.333899   -0.163406
 0.555000   0.333084   -0.162524
 0.560000   0.332273   -0.161647
 0.565000   0.331467   -0.160774
 0.570000   0.330666   -0.159905
 0.575000   0.329868   -0.159041
 0.580000   0.329075   -0.158181
 0.585000   0.328287   -0.157326
 0.590000   0.327502   -0.156475
 0.595000   0.326722   -0.155628
 0.600000   0.325946   -0.154786
 0.605000   0.325174   -0.153947
 0.610000   0.324406   -0.153113
 0.615000   0.323643   -0.152283
 0.620000   0.322883   -0.151458
 0.625000   0.322128   -0.150636
 0.630000   0.321377   -0.149819
 0.635000   0.320630   -0.149005
 0.640000   0.319887   -0.148196
 0.645000   0.319148   -0.147390
 0.650000   0.318413   -0.146589
 0.655000   0.317682   -0.145792
 0.660000   0.316955   -0.144998
 0.665000   0.316232   -0.144209
 0.670000   0.315513   -0.143423
 0.675000   0.314798   -0.142641
 0.680000   0.314087   -0.141863
 0.685000   0.313379   -0.141089
 0.690000   0.312676   -0.140319
 0.695000   0.311976   -0.139552
 0.700000   0.311280   -0.138789
 0.705000   0.310588   -0.138030
 0.710000   0.309900   -0.137275
 0.715000   0.309215   -0.136523
 0.720000   0.308535   -0.135775
 0.725000   0.307858   -0.135030
 0.730000   0.307184   -0.134289
 0.735000   0.306515   -0.133552
 0.740000   0.305849   -0.132818
 0.745000   0.305187   -0.132088
 0.750000   0.304528   -0.131361
 0.755000   0.303873   -0.130637
 0.760000   0.303222   -0.129918
 0.765000   0.302574   -0.129201
 0.770000   0.301930   -0.128488
 0.775000   0.301289   -0.127778
 0.780000   0.300652   -0.127072
 0.785000   0.300018   -0.126369
 0.790000   0.299388   -0.125669
 0.795000   0.298762   -0.124973
 0.800000   0.298138   -0.124279
 0.805000   0.297519   -0.123589
 0.810000   0.296903   -0.122903
 0.815000   0.296290   -0.122219
 0.820000   0.295680   -0.121539
 0.825000   0.295074   -0.120862
 0.830000   0.294472   -0.120188
 0.835000   0.293873   -0.119517
 0.840000   0.293277   -0.118849
 0.845000   0.292684   -0.118184
 0.850000   0.292095   -0.117522
 0.855000   0.291509   -0.116864
 0.860000   0.290926   -0.116208
 0.865000   0.290347   -0.115555
 0.870000   0.289771   -0.114904
 0.875000   0.289198   -0.114256
 0.880000   0.288628   -0.113607
 0.885000   0.288062   -0.112954
 0.890000   0.287498   -0.112286
 0.895000   0.286939   -0.111582
 0.900000   0.286383   -0.110791
 0.905000   0.285831   -0.109806
 0.910000   0.285285   -0.108408
 0.915000   0.284747   -0.106214
 0.920000   0.284222   -0.102710
 0.925000   0.283720   -0.097923
 0.930000   0.283243   -0.095665
 0.935000   0.282763   -0.115833
 0.940000   0.282085   -0.233596
 0.945000   0.280427   -0.671994
 0.950000   0.275365   -1.859337
 0.955000   0.261834   -3.913449
 0.960000   0.236230   -5.651159
 0.965000   0.205322   -5.691073
 0.970000   0.179320   -4.503057
 0.975000   0.160292   -3.336161
 0.980000   0.145958   -2.596357
 0.985000   0.134328   -2.161252
 0.990000   0.124346   -1.882156
 0.995000   0.115506   -1.678861
 1.000000   0.107557   -1.500888
201 psinorm te(KeV) dte/dpsiN
 0.000000   3.925518   -3.428630
 0.005000   3.908351   -3.438184
 0.010000   3.891136   -3.447608
 0.015000   3.873874   -3.456773
 0.020000   3.856568   -3.465680
 0.025000   3.839218   -3.474329
 0.030000   3.821825   -3.482719
 0.035000   3.804390   -3.490852
 0.040000   3.786916   -3.498728
 0.045000   3.769403   -3.506347
 0.050000   3.751853   -3.513710
 0.055000   3.734266   -3.520817
 0.060000   3.716645   -3.527669
 0.065000   3.698989   -3.534267
 0.070000   3.681302   -3.540610
 0.075000   3.663583   -3.546700
 0.080000   3.645835   -3.552537
 0.085000   3.628058   -3.558122
 0.090000   3.610254   -3.563456
 0.095000   3.592423   -3.568539
 0.100000   3.574568   -3.573372
 0.105000   3.556690   -3.577955
 0.110000   3.538789   -3.582291
 0.115000   3.520867   -3.586379
 0.120000   3.502925   -3.590220
 0.125000   3.484965   -3.593816
 0.130000   3.466987   -3.597166
 0.135000   3.448993   -3.600273
 0.140000   3.430984   -3.603137
 0.145000   3.412961   -3.605760
 0.150000   3.394926   -3.608141
 0.155000   3.376880   -3.610282
 0.160000   3.358824   -3.612185
 0.165000   3.340758   -3.613850
 0.170000   3.322685   -3.615279
 0.175000   3.304605   -3.616472
 0.180000   3.286520   -3.617431
 0.185000   3.268431   -3.618156
 0.190000   3.250339   -3.618650
 0.195000   3.232245   -3.618914
 0.200000   3.214150   -3.618948
 0.205000   3.196055   -3.618754
 0.210000   3.177962   -3.618333
 0.215000   3.159872   -3.617687
 0.220000   3.141785   -3.616817
 0.225000   3.123704   -3.615724
 0.230000   3.105628   -3.614410
 0.235000   3.087560   -3.612876
 0.240000   3.069499   -3.611124
 0.245000   3.051448   -3.609154
 0.250000   3.033408   -3.606969
 0.255000   3.015379   -3.604570
 0.260000   2.997362   -3.601958
 0.265000   2.979359   -3.599135
 0.270000   2.961371   -3.596102
 0.275000   2.943398   -3.592861
 0.280000   2.925442   -3.589414
 0.285000   2.907504   -3.585763
 0.290000   2.889584   -3.581908
 0.295000   2.871685   -3.577851
 0.300000   2.853806   -3.573594
 0.305000   2.835949   -3.569139
 0.310000   2.818115   -3.564487
 0.315000   2.800304   -3.559640
 0.320000   2.782518   -3.554600
 0.325000   2.764758   -3.549369
 0.330000   2.747024   -3.543947
 0.335000   2.729318   -3.538337
 0.340000   2.711641   -3.532541
 0.345000   2.693993   -3.526560
 0.350000   2.676375   -3.520396
 0.355000   2.658789   -3.514051
 0.360000   2.641235   -3.507527
 0.365000   2.623714   -3.500825
 0.370000   2.606227   -3.493947
 0.375000   2.588774   -3.486896
 0.380000   2.571358   -3.479672
 0.385000   2.553978   -3.472278
 0.390000   2.536635   -3.464716
 0.395000   2.519331   -3.456987
 0.400000   2.502065   -3.449094
 0.405000   2.484840   -3.441037
 0.410000   2.467655   -3.432820
 0.415000   2.450511   -3.424444
 0.420000   2.433410   -3.415911
 0.425000   2.416352   -3.407222
 0.430000   2.399338   -3.398380
 0.435000   2.382368   -3.389387
 0.440000   2.365444   -3.380244
 0.445000   2.348566   -3.370954
 0.450000   2.331735   -3.361518
 0.455000   2.314951   -3.351938
 0.460000   2.298215   -3.342216
 0.465000   2.281529   -3.332355
 0.470000   2.264892   -3.322356
 0.475000   2.248305   -3.312221
 0.480000   2.231770   -3.301952
 0.485000   2.215286   -3.291551
 0.490000   2.198854   -3.281019
 0.495000   2.182475   -3.270360
 0.500000   2.166150   -3.259575
 0.505000   2.149880   -3.248665
 0.510000   2.133664   -3.237633
 0.515000   2.117503   -3.226481
 0.520000   2.101399   -3.215211
 0.525000   2.085351   -3.203824
 0.530000   2.069361   -3.192323
 0.535000   2.053428   -3.180709
 0.540000   2.037554   -3.168985
 0.545000   2.021738   -3.157153
 0.550000   2.005982   -3.145214
 0.555000   1.990286   -3.133170
 0.560000   1.974650   -3.121024
 0.565000   1.959076   -3.108777
 0.570000   1.943563   -3.096432
 0.575000   1.928111   -3.083990
 0.580000   1.912723   -3.071452
 0.585000   1.897397   -3.058822
 0.590000   1.882134   -3.046101
 0.595000   1.866936   -3.033291
 0.600000   1.851802   -3.020394
 0.605000   1.836732   -3.007412
 0.610000   1.821727   -2.994346
 0.615000   1.806789   -2.981199
 0.620000   1.791915   -2.967973
 0.625000   1.777109   -2.954669
 0.630000   1.762369   -2.941290
 0.635000   1.747696   -2.927836
 0.640000   1.733090   -2.914311
 0.645000   1.718553   -2.900716
 0.650000   1.704083   -2.887053
 0.655000   1.689682   -2.873323
 0.660000   1.675350   -2.859529
 0.665000   1.661087   -2.845673
 0.670000   1.646893   -2.831756
 0.675000   1.632769   -2.817779
 0.680000   1.618716   -2.803746
 0.685000   1.604732   -2.789657
 0.690000   1.590819   -2.775515
 0.695000   1.576977   -2.761321
 0.700000   1.563206   -2.747078
 0.705000   1.549506   -2.732785
 0.710000   1.535878   -2.718447
 0.715000   1.522322   -2.704063
 0.720000   1.508837   -2.689636
 0.725000   1.495425   -2.675168
 0.730000   1.482086   -2.660659
 0.735000   1.468819   -2.646112
 0.740000   1.455624   -2.631528
 0.745000   1.442503   -2.616907
 0.750000   1.429455   -2.602251
 0.755000   1.416481   -2.587561
 0.760000   1.403580   -2.572838
 0.765000   1.390752   -2.558081
 0.770000   1.377999   -2.543290
 0.775000   1.365320   -2.528464
 0.780000   1.352714   -2.513603
 0.785000   1.340183   -2.498702
 0.790000   1.327727   -2.483759
 0.795000   1.315346   -2.468766
 0.800000   1.303040   -2.453719
 0.805000   1.290809   -2.438605
 0.810000   1.278654   -2.423413
 0.815000   1.266575   -2.408126
 0.820000   1.254572   -2.392725
 0.825000   1.242647   -2.377188
 0.830000   1.230800   -2.361488
 0.835000   1.219032   -2.345598
 0.840000   1.207344   -2.329495
 0.845000   1.195738   -2.313161
 0.850000   1.184213   -2.296605
 0.855000   1.172771   -2.279874
 0.860000   1.161414   -2.263092
 0.865000   1.150141   -2.246515
 0.870000   1.138949   -2.230616
 0.875000   1.127834   -2.216227
 0.880000   1.116787   -2.204751
 0.885000   1.105787   -2.198500
 0.890000   1.094802   -2.201204
 0.895000   1.083775   -2.218787
 0.900000   1.072614   -2.260526
 0.905000   1.061170   -2.340761
 0.910000   1.049206   -2.481354
 0.915000   1.036356   -2.715070
 0.920000   1.022055   -3.089949
 0.925000   1.005457   -3.674213
 0.930000   0.985313   -4.560071
 0.935000   0.959856   -5.862228
 0.940000   0.926691   -7.702482
 0.945000   0.882831   -10.166418
 0.950000   0.825027   -13.217924
 0.955000   0.750652   -16.577676
 0.960000   0.659250   -19.631279
 0.965000   0.554339   -21.509067
 0.970000   0.444159   -21.449724
 0.975000   0.339842   -19.296731
 0.980000   0.251192   -15.687338
 0.985000   0.182968   -11.678399
 0.990000   0.134408   -8.142319
 0.995000   0.101545   -5.458987
 1.000000   0.079818   -3.231766
201 psinorm ni(10^20/m^3) dni/dpsiN
 0.000000   0.265777   -0.420711
 0.005000   0.263955   -0.307939
 0.010000   0.262697   -0.214054
 0.015000   0.261814   -0.146902
 0.020000   0.261228   -0.092272
 0.025000   0.260892   -0.045305
 0.030000   0.260775   -0.005187
 0.035000   0.260840   0.027331
 0.040000   0.261048   0.053180
 0.045000   0.261372   0.074301
 0.050000   0.261791   0.090777
 0.055000   0.262279   0.102854
 0.060000   0.262820   0.112277
 0.065000   0.263402   0.118871
 0.070000   0.264009   0.122707
 0.075000   0.264629   0.124478
 0.080000   0.265254   0.124461
 0.085000   0.265874   0.122675
 0.090000   0.266480   0.119428
 0.095000   0.267068   0.115275
 0.100000   0.267633   0.110219
 0.105000   0.268170   0.104089
 0.110000   0.268674   0.096910
 0.115000   0.269139   0.089334
 0.120000   0.269567   0.081571
 0.125000   0.269955   0.073432
 0.130000   0.270302   0.065004
 0.135000   0.270605   0.056365
 0.140000   0.270865   0.047603
 0.145000   0.271081   0.038793
 0.150000   0.271253   0.029990
 0.155000   0.271381   0.021260
 0.160000   0.271466   0.012658
 0.165000   0.271508   0.004215
 0.170000   0.271508   -0.004025
 0.175000   0.271467   -0.012022
 0.180000   0.271388   -0.019755
 0.185000   0.271270   -0.027211
 0.190000   0.271116   -0.034386
 0.195000   0.270926   -0.041265
 0.200000   0.270703   -0.047836
 0.205000   0.270448   -0.054097
 0.210000   0.270162   -0.060053
 0.215000   0.269847   -0.066202
 0.220000   0.269500   -0.072031
 0.225000   0.269127   -0.077056
 0.230000   0.268729   -0.081777
 0.235000   0.268309   -0.086182
 0.240000   0.267868   -0.090300
 0.245000   0.267406   -0.094154
 0.250000   0.266926   -0.098099
 0.255000   0.266425   -0.101947
 0.260000   0.265907   -0.105192
 0.265000   0.265373   -0.108050
 0.270000   0.264826   -0.110711
 0.275000   0.264266   -0.113183
 0.280000   0.263694   -0.115841
 0.285000   0.263108   -0.118417
 0.290000   0.262510   -0.120487
 0.295000   0.261903   -0.122354
 0.300000   0.261286   -0.124120
 0.305000   0.260662   -0.126007
 0.310000   0.260026   -0.127898
 0.315000   0.259383   -0.129445
 0.320000   0.258732   -0.130777
 0.325000   0.258075   -0.132041
 0.330000   0.257412   -0.133454
 0.335000   0.256740   -0.134820
 0.340000   0.256063   -0.135893
 0.345000   0.255381   -0.136888
 0.350000   0.254694   -0.137930
 0.355000   0.254002   -0.139091
 0.360000   0.253304   -0.140149
 0.365000   0.252601   -0.141046
 0.370000   0.251893   -0.141941
 0.375000   0.251181   -0.142988
 0.380000   0.250463   -0.144010
 0.385000   0.249741   -0.144837
 0.390000   0.249015   -0.145635
 0.395000   0.248285   -0.146504
 0.400000   0.247550   -0.147348
 0.405000   0.246811   -0.148009
 0.410000   0.246070   -0.148559
 0.415000   0.245326   -0.149120
 0.420000   0.244579   -0.149658
 0.425000   0.243829   -0.150031
 0.430000   0.243078   -0.150271
 0.435000   0.242326   -0.150497
 0.440000   0.241573   -0.150703
 0.445000   0.240819   -0.150780
 0.450000   0.240065   -0.150748
 0.455000   0.239312   -0.150739
 0.460000   0.238558   -0.150727
 0.465000   0.237805   -0.150567
 0.470000   0.237052   -0.150268
 0.475000   0.236302   -0.149935
 0.480000   0.235553   -0.149539
 0.485000   0.234806   -0.148958
 0.490000   0.234063   -0.148205
 0.495000   0.233324   -0.147390
 0.500000   0.232590   -0.146488
 0.505000   0.231860   -0.145392
 0.510000   0.231136   -0.144126
 0.515000   0.230418   -0.142794
 0.520000   0.229708   -0.141366
 0.525000   0.229005   -0.139738
 0.530000   0.228310   -0.137941
 0.535000   0.227625   -0.136076
 0.540000   0.226950   -0.134110
 0.545000   0.226284   -0.131945
 0.550000   0.225630   -0.129603
 0.555000   0.224988   -0.127158
 0.560000   0.224359   -0.124589
 0.565000   0.223742   -0.121824
 0.570000   0.223140   -0.118887
 0.575000   0.222553   -0.115846
 0.580000   0.221982   -0.112700
 0.585000   0.221426   -0.109406
 0.590000   0.220888   -0.105992
 0.595000   0.220366   -0.102513
 0.600000   0.219863   -0.098974
 0.605000   0.219377   -0.095335
 0.610000   0.218909   -0.091587
 0.615000   0.218461   -0.087744
 0.620000   0.218032   -0.083783
 0.625000   0.217623   -0.079681
 0.630000   0.217235   -0.075454
 0.635000   0.216868   -0.071121
 0.640000   0.216524   -0.066687
 0.645000   0.216202   -0.062163
 0.650000   0.215902   -0.057545
 0.655000   0.215626   -0.052887
 0.660000   0.215373   -0.048156
 0.665000   0.215145   -0.043168
 0.670000   0.214942   -0.037787
 0.675000   0.214767   -0.031911
 0.680000   0.214623   -0.025232
 0.685000   0.214514   -0.017845
 0.690000   0.214444   -0.010220
 0.695000   0.214412   -0.002461
 0.700000   0.214419   0.005374
 0.705000   0.214466   0.013144
 0.710000   0.214551   0.020934
 0.715000   0.214675   0.028305
 0.720000   0.214834   0.034570
 0.725000   0.215021   0.039673
 0.730000   0.215231   0.043575
 0.735000   0.215457   0.046169
 0.740000   0.215692   0.047224
 0.745000   0.215929   0.046486
 0.750000   0.216157   0.044158
 0.755000   0.216371   0.040578
 0.760000   0.216563   0.035990
 0.765000   0.216730   0.030695
 0.770000   0.216870   0.024812
 0.775000   0.216979   0.018689
 0.780000   0.217057   0.013076
 0.785000   0.217109   0.008156
 0.790000   0.217138   0.003764
 0.795000   0.217147   -0.000064
 0.800000   0.217138   -0.003341
 0.805000   0.217114   -0.006142
 0.810000   0.217076   -0.008727
 0.815000   0.217026   -0.011332
 0.820000   0.216963   -0.013997
 0.825000   0.216886   -0.016694
 0.830000   0.216796   -0.019385
 0.835000   0.216692   -0.022039
 0.840000   0.216576   -0.024596
 0.845000   0.216447   -0.027003
 0.850000   0.216306   -0.029232
 0.855000   0.216154   -0.031205
 0.860000   0.215994   -0.032855
 0.865000   0.215826   -0.034032
 0.870000   0.215653   -0.034671
 0.875000   0.215479   -0.034806
 0.880000   0.215305   -0.034346
 0.885000   0.215135   -0.033129
 0.890000   0.214974   -0.030936
 0.895000   0.214826   -0.027078
 0.900000   0.214703   -0.021266
 0.905000   0.214613   -0.013045
 0.910000   0.214573   -0.001029
 0.915000   0.214603   0.016434
 0.920000   0.214737   0.041654
 0.925000   0.215020   0.079457
 0.930000   0.215532   0.129025
 0.935000   0.216310   0.172477
 0.940000   0.217256   0.139370
 0.945000   0.217704   -0.190936
 0.950000   0.215347   -1.248184
 0.955000   0.205222   -3.151209
 0.960000   0.183835   -4.737619
 0.965000   0.157846   -4.659745
 0.970000   0.137237   -3.410832
 0.975000   0.123737   -2.255496
 0.980000   0.114683   -1.597044
 0.985000   0.107767   -1.289897
 0.990000   0.101784   -1.156740
 0.995000   0.096199   -1.087396
 1.000000   0.090910   -1.028557
201 psinorm ti(KeV) dti/dpsiN
 0.000000   5.348023   0.002143
 0.005000   5.347349   -0.272078
 0.010000   5.345303   -0.549365
 0.015000   5.341855   -0.832460
 0.020000   5.336978   -1.120671
 0.025000   5.330648   -1.413222
 0.030000   5.322846   -1.709251
 0.035000   5.313556   -2.007828
 0.040000   5.302768   -2.307725
 0.045000   5.290479   -2.608064
 0.050000   5.276687   -2.908187
 0.055000   5.261397   -3.207098
 0.060000   5.244616   -3.503877
 0.065000   5.226358   -3.797580
 0.070000   5.206640   -4.086562
 0.075000   5.185492   -4.370113
 0.080000   5.162939   -4.648241
 0.085000   5.139010   -4.920072
 0.090000   5.113738   -5.184916
 0.095000   5.087161   -5.442273
 0.100000   5.059316   -5.690995
 0.105000   5.030251   -5.931040
 0.110000   5.000005   -6.163363
 0.115000   4.968617   -6.388201
 0.120000   4.936123   -6.606231
 0.125000   4.902555   -6.818504
 0.130000   4.867938   -7.026483
 0.135000   4.832290   -7.229652
 0.140000   4.795642   -7.424600
 0.145000   4.758044   -7.609193
 0.150000   4.719550   -7.782808
 0.155000   4.680216   -7.944606
 0.160000   4.640104   -8.093715
 0.165000   4.599279   -8.228760
 0.170000   4.557816   -8.349071
 0.175000   4.515788   -8.454785
 0.180000   4.473268   -8.545729
 0.185000   4.430331   -8.621860
 0.190000   4.387050   -8.682847
 0.195000   4.343502   -8.730639
 0.200000   4.299743   -8.770931
 0.205000   4.255793   -8.806562
 0.210000   4.211678   -8.837465
 0.215000   4.167418   -8.864415
 0.220000   4.123033   -8.888890
 0.225000   4.078529   -8.913797
 0.230000   4.033895   -8.936283
 0.235000   3.989167   -8.952962
 0.240000   3.944366   -8.964333
 0.245000   3.899523   -8.968815
 0.250000   3.854678   -8.965336
 0.255000   3.809870   -8.954032
 0.260000   3.765137   -8.928219
 0.265000   3.720588   -8.884573
 0.270000   3.676292   -8.826580
 0.275000   3.632322   -8.753887
 0.280000   3.588753   -8.666293
 0.285000   3.545659   -8.561906
 0.290000   3.503134   -8.439523
 0.295000   3.461264   -8.300259
 0.300000   3.420131   -8.146415
 0.305000   3.379800   -7.982363
 0.310000   3.340307   -7.813888
 0.315000   3.301661   -7.645707
 0.320000   3.263850   -7.485713
 0.325000   3.226804   -7.336429
 0.330000   3.190486   -7.193920
 0.335000   3.154864   -7.058021
 0.340000   3.119906   -6.928408
 0.345000   3.085580   -6.809351
 0.350000   3.051812   -6.697375
 0.355000   3.018607   -6.585315
 0.360000   2.985959   -6.473926
 0.365000   2.953867   -6.362262
 0.370000   2.922337   -6.248222
 0.375000   2.891385   -6.130961
 0.380000   2.861027   -5.999920
 0.385000   2.831386   -5.847987
 0.390000   2.802547   -5.681003
 0.395000   2.774576   -5.502062
 0.400000   2.747527   -5.313463
 0.405000   2.721441   -5.114090
 0.410000   2.696386   -4.908767
 0.415000   2.672354   -4.707463
 0.420000   2.649311   -4.511848
 0.425000   2.627235   -4.321364
 0.430000   2.606097   -4.137047
 0.435000   2.585865   -3.956438
 0.440000   2.566533   -3.782376
 0.445000   2.548041   -3.622783
 0.450000   2.530305   -3.477229
 0.455000   2.513269   -3.343313
 0.460000   2.496872   -3.221323
 0.465000   2.481055   -3.110878
 0.470000   2.465763   -3.013670
 0.475000   2.450919   -2.930957
 0.480000   2.436454   -2.859120
 0.485000   2.422327   -2.794115
 0.490000   2.408512   -2.733592
 0.495000   2.394991   -2.676158
 0.500000   2.381751   -2.622064
 0.505000   2.368771   -2.572221
 0.510000   2.356029   -2.526877
 0.515000   2.343502   -2.485952
 0.520000   2.331169   -2.449351
 0.525000   2.319009   -2.417031
 0.530000   2.306999   -2.389007
 0.535000   2.295119   -2.364892
 0.540000   2.283350   -2.344386
 0.545000   2.271675   -2.327509
 0.550000   2.260075   -2.314103
 0.555000   2.248534   -2.304031
 0.560000   2.237035   -2.297197
 0.565000   2.225562   -2.293181
 0.570000   2.214103   -2.291686
 0.575000   2.202645   -2.292711
 0.580000   2.191176   -2.296102
 0.585000   2.179684   -2.301767
 0.590000   2.168158   -2.309870
 0.595000   2.156585   -2.320495
 0.600000   2.144953   -2.333439
 0.605000   2.133251   -2.348500
 0.610000   2.121468   -2.365454
 0.615000   2.109596   -2.384065
 0.620000   2.097627   -2.404477
 0.625000   2.085551   -2.426081
 0.630000   2.073367   -2.448150
 0.635000   2.061070   -2.470842
 0.640000   2.048658   -2.494369
 0.645000   2.036126   -2.519310
 0.650000   2.023465   -2.548302
 0.655000   2.010643   -2.582126
 0.660000   1.997644   -2.619051
 0.665000   1.984453   -2.658586
 0.670000   1.971058   -2.699801
 0.675000   1.957455   -2.741088
 0.680000   1.943647   -2.781971
 0.685000   1.929635   -2.819363
 0.690000   1.915453   -2.851013
 0.695000   1.901125   -2.878636
 0.700000   1.886667   -2.902471
 0.705000   1.872100   -2.922072
 0.710000   1.857446   -2.937126
 0.715000   1.842729   -2.946405
 0.720000   1.827982   -2.949299
 0.725000   1.813236   -2.946608
 0.730000   1.798516   -2.938663
 0.735000   1.783849   -2.925697
 0.740000   1.769259   -2.907339
 0.745000   1.754776   -2.885488
 0.750000   1.740404   -2.864437
 0.755000   1.726131   -2.845380
 0.760000   1.711951   -2.827320
 0.765000   1.697858   -2.809364
 0.770000   1.683857   -2.789819
 0.775000   1.669960   -2.767073
 0.780000   1.656186   -2.741766
 0.785000   1.642542   -2.715147
 0.790000   1.629035   -2.688178
 0.795000   1.615661   -2.662697
 0.800000   1.602408   -2.641156
 0.805000   1.589249   -2.627191
 0.810000   1.576136   -2.621666
 0.815000   1.563032   -2.622802
 0.820000   1.549908   -2.629544
 0.825000   1.536737   -2.640790
 0.830000   1.523500   -2.656498
 0.835000   1.510172   -2.680944
 0.840000   1.496690   -2.714990
 0.845000   1.483022   -2.758075
 0.850000   1.469110   -2.812405
 0.855000   1.454898   -2.877611
 0.860000   1.440334   -2.954459
 0.865000   1.425353   -3.049607
 0.870000   1.409838   -3.153869
 0.875000   1.393815   -3.260181
 0.880000   1.377236   -3.378351
 0.885000   1.360031   -3.513004
 0.890000   1.342106   -3.670512
 0.895000   1.323326   -3.873618
 0.900000   1.303369   -4.114813
 0.905000   1.282178   -4.383568
 0.910000   1.259534   -4.698607
 0.915000   1.235192   -5.064662
 0.920000   1.208887   -5.484695
 0.925000   1.180345   -5.996205
 0.930000   1.148925   -6.573890
 0.935000   1.114606   -7.174279
 0.940000   1.077182   -7.813461
 0.945000   1.036471   -8.481877
 0.950000   0.992364   -9.162021
 0.955000   0.944851   -9.868820
 0.960000   0.893675   -10.528955
 0.965000   0.839562   -11.041445
 0.970000   0.783261   -11.389464
 0.975000   0.725667   -11.540097
 0.980000   0.667860   -11.464175
 0.985000   0.611025   -11.154803
 0.990000   0.556312   -10.604834
 0.995000   0.504977   -9.844131
 1.000000   0.457871   -8.998400
201 psinorm nb(10^20/m^3) dnb/dpsiN
 0.000000   0.101487   0.124371
 0.005000   0.101831   0.013126
 0.010000   0.101618   -0.079236
 0.015000   0.101038   -0.144873
 0.020000   0.100170   -0.197993
 0.025000   0.099059   -0.243456
 0.030000   0.097735   -0.282072
 0.035000   0.096238   -0.313088
 0.040000   0.094604   -0.337435
 0.045000   0.092863   -0.357052
 0.050000   0.091034   -0.372020
 0.055000   0.089143   -0.382583
 0.060000   0.087208   -0.390486
 0.065000   0.085238   -0.395552
 0.070000   0.083252   -0.397851
 0.075000   0.081260   -0.398076
 0.080000   0.079272   -0.396501
 0.085000   0.077295   -0.393147
 0.090000   0.075340   -0.388320
 0.095000   0.073412   -0.382574
 0.100000   0.071514   -0.375914
 0.105000   0.069653   -0.368169
 0.110000   0.067833   -0.359363
 0.115000   0.066059   -0.350150
 0.120000   0.064331   -0.340741
 0.125000   0.062652   -0.330947
 0.130000   0.061022   -0.320856
 0.135000   0.059443   -0.310550
 0.140000   0.057916   -0.300116
 0.145000   0.056442   -0.289630
 0.150000   0.055020   -0.279150
 0.155000   0.053650   -0.268744
 0.160000   0.052332   -0.258468
 0.165000   0.051066   -0.248354
 0.170000   0.049849   -0.238448
 0.175000   0.048681   -0.228792
 0.180000   0.047561   -0.219410
 0.185000   0.046487   -0.210317
 0.190000   0.045458   -0.201520
 0.195000   0.044472   -0.193036
 0.200000   0.043527   -0.184880
 0.205000   0.042623   -0.177056
 0.210000   0.041757   -0.169561
 0.215000   0.040927   -0.161897
 0.220000   0.040138   -0.154578
 0.225000   0.039382   -0.148087
 0.230000   0.038657   -0.141927
 0.235000   0.037962   -0.136114
 0.240000   0.037296   -0.130623
 0.245000   0.036656   -0.125433
 0.250000   0.036042   -0.120192
 0.255000   0.035454   -0.115090
 0.260000   0.034891   -0.110640
 0.265000   0.034348   -0.106630
 0.270000   0.033824   -0.102872
 0.275000   0.033319   -0.099359
 0.280000   0.032831   -0.095722
 0.285000   0.032362   -0.092227
 0.290000   0.031909   -0.089305
 0.295000   0.031469   -0.086650
 0.300000   0.031042   -0.084161
 0.305000   0.030627   -0.081612
 0.310000   0.030226   -0.079118
 0.315000   0.029836   -0.077026
 0.320000   0.029456   -0.075200
 0.325000   0.029084   -0.073489
 0.330000   0.028721   -0.071674
 0.335000   0.028367   -0.069950
 0.340000   0.028021   -0.068568
 0.345000   0.027682   -0.067313
 0.350000   0.027348   -0.066065
 0.355000   0.027021   -0.064754
 0.360000   0.026701   -0.063598
 0.365000   0.026385   -0.062656
 0.370000   0.026074   -0.061760
 0.375000   0.025767   -0.060751
 0.380000   0.025467   -0.059795
 0.385000   0.025169   -0.059046
 0.390000   0.024876   -0.058329
 0.395000   0.024586   -0.057533
 0.400000   0.024301   -0.056739
 0.405000   0.024019   -0.056087
 0.410000   0.023740   -0.055489
 0.415000   0.023464   -0.054820
 0.420000   0.023192   -0.054110
 0.425000   0.022923   -0.053494
 0.430000   0.022657   -0.052939
 0.435000   0.022393   -0.052318
 0.440000   0.022134   -0.051645
 0.445000   0.021877   -0.051055
 0.450000   0.021623   -0.050528
 0.455000   0.021372   -0.049928
 0.460000   0.021124   -0.049280
 0.465000   0.020879   -0.048726
 0.470000   0.020636   -0.048244
 0.475000   0.020396   -0.047706
 0.480000   0.020159   -0.047129
 0.485000   0.019925   -0.046632
 0.490000   0.019693   -0.046194
 0.495000   0.019463   -0.045702
 0.500000   0.019236   -0.045176
 0.505000   0.019011   -0.044721
 0.510000   0.018789   -0.044316
 0.515000   0.018568   -0.043858
 0.520000   0.018350   -0.043378
 0.525000   0.018134   -0.042979
 0.530000   0.017920   -0.042630
 0.535000   0.017708   -0.042226
 0.540000   0.017498   -0.041793
 0.545000   0.017290   -0.041430
 0.550000   0.017084   -0.041109
 0.555000   0.016879   -0.040757
 0.560000   0.016676   -0.040395
 0.565000   0.016475   -0.040093
 0.570000   0.016275   -0.039833
 0.575000   0.016077   -0.039557
 0.580000   0.015880   -0.039277
 0.585000   0.015684   -0.039046
 0.590000   0.015489   -0.038854
 0.595000   0.015296   -0.038663
 0.600000   0.015103   -0.038471
 0.605000   0.014911   -0.038315
 0.610000   0.014720   -0.038199
 0.615000   0.014529   -0.038095
 0.620000   0.014339   -0.038000
 0.625000   0.014149   -0.037933
 0.630000   0.013959   -0.037896
 0.635000   0.013770   -0.037874
 0.640000   0.013581   -0.037870
 0.645000   0.013391   -0.037890
 0.650000   0.013202   -0.037926
 0.655000   0.013012   -0.037972
 0.660000   0.012822   -0.038036
 0.665000   0.012632   -0.038126
 0.670000   0.012441   -0.038226
 0.675000   0.012249   -0.038328
 0.680000   0.012057   -0.038441
 0.685000   0.011865   -0.038587
 0.690000   0.011672   -0.038757
 0.695000   0.011477   -0.038921
 0.700000   0.011282   -0.039089
 0.705000   0.011086   -0.039269
 0.710000   0.010890   -0.039489
 0.715000   0.010692   -0.039716
 0.720000   0.010492   -0.039918
 0.725000   0.010292   -0.040123
 0.730000   0.010091   -0.040334
 0.735000   0.009889   -0.040581
 0.740000   0.009685   -0.040827
 0.745000   0.009481   -0.041037
 0.750000   0.009275   -0.041240
 0.755000   0.009068   -0.041436
 0.760000   0.008861   -0.041638
 0.765000   0.008652   -0.041834
 0.770000   0.008442   -0.042001
 0.775000   0.008232   -0.042149
 0.780000   0.008021   -0.042284
 0.785000   0.007809   -0.042406
 0.790000   0.007597   -0.042519
 0.795000   0.007384   -0.042608
 0.800000   0.007171   -0.042664
 0.805000   0.006957   -0.042696
 0.810000   0.006744   -0.042705
 0.815000   0.006530   -0.042687
 0.820000   0.006317   -0.042639
 0.825000   0.006104   -0.042548
 0.830000   0.005891   -0.042418
 0.835000   0.005680   -0.042256
 0.840000   0.005469   -0.042052
 0.845000   0.005259   -0.041805
 0.850000   0.005051   -0.041510
 0.855000   0.004844   -0.041167
 0.860000   0.004639   -0.040761
 0.865000   0.004436   -0.040322
 0.870000   0.004236   -0.039912
 0.875000   0.004037   -0.039534
 0.880000   0.003841   -0.039171
 0.885000   0.003646   -0.038823
 0.890000   0.003452   -0.038496
 0.895000   0.003261   -0.038197
 0.900000   0.003070   -0.037937
 0.905000   0.002881   -0.037729
 0.910000   0.002693   -0.037589
 0.915000   0.002505   -0.037531
 0.920000   0.002318   -0.037562
 0.925000   0.002130   -0.037682
 0.930000   0.001941   -0.037846
 0.935000   0.001751   -0.037921
 0.940000   0.001562   -0.037660
 0.945000   0.001375   -0.036652
 0.950000   0.001195   -0.034531
 0.955000   0.001029   -0.031610
 0.960000   0.000879   -0.029064
 0.965000   0.000739   -0.027104
 0.970000   0.000608   -0.024477
 0.975000   0.000494   -0.020732
 0.980000   0.000401   -0.017025
 0.985000   0.000324   -0.014445
 0.990000   0.000256   -0.012944
 0.995000   0.000194   -0.012549
 1.000000   0.000131   -0.012850
201 psinorm pb(KPa) dpb/dpsiN
 0.000000   41.142767   34.130120
 0.005000   41.209816   -7.310237
 0.010000   41.069664   -42.854052
 0.015000   40.781276   -68.779158
 0.020000   40.381873   -89.495158
 0.025000   39.886324   -107.548648
 0.030000   39.306386   -122.997183
 0.035000   38.656352   -135.324488
 0.040000   37.953141   -144.704715
 0.045000   37.209305   -152.086326
 0.050000   36.432278   -157.586362
 0.055000   35.633442   -161.314891
 0.060000   34.819129   -163.955652
 0.065000   33.993885   -165.461327
 0.070000   33.164516   -165.876680
 0.075000   32.335118   -165.452469
 0.080000   31.509991   -164.327769
 0.085000   30.691841   -162.529613
 0.090000   29.884695   -160.162084
 0.095000   29.090220   -157.466808
 0.100000   28.310027   -154.431664
 0.105000   27.545903   -151.009993
 0.110000   26.799927   -147.179070
 0.115000   26.074113   -143.183086
 0.120000   25.368096   -139.143888
 0.125000   24.682674   -134.967534
 0.130000   24.018421   -130.690870
 0.135000   23.375765   -126.347134
 0.140000   22.754950   -121.957741
 0.145000   22.156188   -117.564625
 0.150000   21.579303   -113.210085
 0.155000   21.024087   -108.907233
 0.160000   20.490231   -104.672433
 0.165000   19.977362   -100.518856
 0.170000   19.485042   -96.462550
 0.175000   19.012737   -92.521370
 0.180000   18.559829   -88.712289
 0.185000   18.125614   -85.032215
 0.190000   17.709507   -81.469241
 0.195000   17.310922   -78.034024
 0.200000   16.929166   -74.738330
 0.205000   16.563538   -71.583111
 0.210000   16.213335   -68.567006
 0.215000   15.877868   -65.497659
 0.220000   15.558359   -62.571321
 0.225000   15.252155   -59.961745
 0.230000   14.958741   -57.485880
 0.235000   14.677296   -55.165670
 0.240000   14.407085   -52.981409
 0.245000   14.147482   -50.918680
 0.250000   13.897898   -48.844118
 0.255000   13.659041   -46.830415
 0.260000   13.429594   -45.068404
 0.265000   13.208357   -43.478002
 0.270000   12.994814   -41.991412
 0.275000   12.788443   -40.607547
 0.280000   12.588738   -39.182973
 0.285000   12.396613   -37.808972
 0.290000   12.210648   -36.647718
 0.295000   12.030136   -35.590295
 0.300000   11.854745   -34.596590
 0.305000   11.684170   -33.584104
 0.310000   11.518904   -32.594550
 0.315000   11.358224   -31.756405
 0.320000   11.201340   -31.020392
 0.325000   11.048021   -30.329214
 0.330000   10.898048   -29.607041
 0.335000   10.751950   -28.921475
 0.340000   10.608833   -28.358495
 0.345000   10.468365   -27.842994
 0.350000   10.330403   -27.331612
 0.355000   10.195049   -26.799046
 0.360000   10.062413   -26.324496
 0.365000   9.931804   -25.928291
 0.370000   9.803130   -25.549981
 0.375000   9.676304   -25.132632
 0.380000   9.551804   -24.735285
 0.385000   9.428951   -24.411102
 0.390000   9.307693   -24.095556
 0.395000   9.187996   -23.751517
 0.400000   9.070178   -23.413585
 0.405000   8.953860   -23.130353
 0.410000   8.838874   -22.866274
 0.415000   8.725197   -22.576418
 0.420000   8.613110   -22.270742
 0.425000   8.502490   -21.998047
 0.430000   8.393129   -21.747287
 0.435000   8.285017   -21.472158
 0.440000   8.178408   -21.179122
 0.445000   8.073226   -20.916667
 0.450000   7.969241   -20.677414
 0.455000   7.866452   -20.410549
 0.460000   7.765136   -20.128588
 0.465000   7.665166   -19.884498
 0.470000   7.566291   -19.668028
 0.475000   7.468485   -19.434180
 0.480000   7.371949   -19.189699
 0.485000   7.276589   -18.974699
 0.490000   7.182202   -18.781681
 0.495000   7.088772   -18.571909
 0.500000   6.996483   -18.351688
 0.505000   6.905255   -18.155584
 0.510000   6.814927   -17.976529
 0.515000   6.725490   -17.780160
 0.520000   6.637125   -17.579024
 0.525000   6.549699   -17.408503
 0.530000   6.463040   -17.255959
 0.535000   6.377140   -17.081112
 0.540000   6.292229   -16.895317
 0.545000   6.208187   -16.733672
 0.550000   6.124893   -16.584921
 0.555000   6.042337   -16.424345
 0.560000   5.960649   -16.260641
 0.565000   5.879731   -16.118035
 0.570000   5.799469   -15.988582
 0.575000   5.719845   -15.854277
 0.580000   5.640926   -15.720185
 0.585000   5.562643   -15.602766
 0.590000   5.484898   -15.496812
 0.595000   5.407675   -15.389911
 0.600000   5.330999   -15.284142
 0.605000   5.254834   -15.192101
 0.610000   5.179078   -15.111886
 0.615000   5.103715   -15.034036
 0.620000   5.028738   -14.959192
 0.625000   4.954123   -14.894449
 0.630000   4.879793   -14.839803
 0.635000   4.805725   -14.789981
 0.640000   4.731894   -14.745779
 0.645000   4.658267   -14.708812
 0.650000   4.584805   -14.677045
 0.655000   4.511497   -14.647878
 0.660000   4.438327   -14.623737
 0.665000   4.365259   -14.606715
 0.670000   4.292259   -14.592162
 0.675000   4.219338   -14.577840
 0.680000   4.146481   -14.566136
 0.685000   4.073676   -14.563847
 0.690000   4.000843   -14.571263
 0.695000   3.927964   -14.579624
 0.700000   3.855046   -14.588975
 0.705000   3.782074   -14.603120
 0.710000   3.709015   -14.630649
 0.715000   3.635767   -14.661155
 0.720000   3.562404   -14.684592
 0.725000   3.488921   -14.709059
 0.730000   3.415313   -14.736023
 0.735000   3.341561   -14.774875
 0.740000   3.267564   -14.813141
 0.745000   3.193430   -14.838669
 0.750000   3.119178   -14.860571
 0.755000   3.044824   -14.879210
 0.760000   2.970385   -14.898034
 0.765000   2.895844   -14.913459
 0.770000   2.821251   -14.919125
 0.775000   2.746653   -14.918086
 0.780000   2.672070   -14.912745
 0.785000   2.597525   -14.903005
 0.790000   2.523040   -14.888959
 0.795000   2.448636   -14.866384
 0.800000   2.374376   -14.833080
 0.805000   2.300305   -14.791322
 0.810000   2.226463   -14.740976
 0.815000   2.152895   -14.681534
 0.820000   2.079648   -14.610812
 0.825000   2.006787   -14.524148
 0.830000   1.934406   -14.424697
 0.835000   1.862540   -14.315043
 0.840000   1.791256   -14.191263
 0.845000   1.720627   -14.052321
 0.850000   1.650732   -13.897605
 0.855000   1.581651   -13.726850
 0.860000   1.513464   -13.533071
 0.865000   1.446320   -13.320990
 0.870000   1.380254   -13.111712
 0.875000   1.315203   -12.907319
 0.880000   1.251181   -12.701049
 0.885000   1.188193   -12.494499
 0.890000   1.126236   -12.290733
 0.895000   1.065286   -12.094772
 0.900000   1.005288   -11.912976
 0.905000   0.946156   -11.753255
 0.910000   0.887756   -11.625810
 0.915000   0.829898   -11.542611
 0.920000   0.772329   -11.516241
 0.925000   0.714735   -11.558761
 0.930000   0.656742   -11.676702
 0.935000   0.597968   -11.838710
 0.940000   0.538355   -11.949102
 0.945000   0.478477   -11.816234
 0.950000   0.420192   -11.203120
 0.955000   0.366446   -10.188121
 0.960000   0.318311   -9.457732
 0.965000   0.271869   -9.422287
 0.970000   0.224088   -9.421172
 0.975000   0.177657   -8.716764
 0.980000   0.136921   -7.421462
 0.985000   0.103442   -5.994030
 0.990000   0.076980   -4.662710
 0.995000   0.056815   -3.738431
 1.000000   0.039596   -3.149235
201 psinorm ptot(KPa) dptot/dpsiN
 0.000000   93.911575   -45.636103
 0.005000   93.601403   -78.432770
 0.010000   93.127248   -106.959921
 0.015000   92.531804   -128.178329
 0.020000   91.845464   -145.283247
 0.025000   91.078972   -160.406534
 0.030000   90.241399   -173.535954
 0.035000   89.343612   -184.217352
 0.040000   88.399226   -192.540629
 0.045000   87.418206   -199.285363
 0.050000   86.406372   -204.557792
 0.055000   85.372628   -208.441493
 0.060000   84.321957   -211.466977
 0.065000   83.257958   -213.595685
 0.070000   82.186000   -214.856883
 0.075000   81.109389   -215.437429
 0.080000   80.031626   -215.451013
 0.085000   78.954879   -214.916109
 0.090000   77.882465   -213.905584
 0.095000   76.815823   -212.610633
 0.100000   75.756358   -211.011251
 0.105000   74.705711   -209.071758
 0.110000   73.665641   -206.768990
 0.115000   72.638021   -204.293373
 0.120000   71.622707   -201.751312
 0.125000   70.620508   -199.067082
 0.130000   69.632036   -196.275749
 0.135000   68.657750   -193.400460
 0.140000   67.698032   -190.438981
 0.145000   66.753360   -187.416460
 0.150000   65.823867   -184.367098
 0.155000   64.909689   -181.294461
 0.160000   64.010922   -178.206128
 0.165000   63.127628   -175.106471
 0.170000   62.259858   -172.004936
 0.175000   61.407579   -168.917295
 0.180000   60.570685   -165.858430
 0.185000   59.748994   -162.824588
 0.190000   58.942439   -159.802670
 0.195000   58.150968   -156.811957
 0.200000   57.374319   -153.890149
 0.205000   56.612066   -151.051928
 0.210000   55.863800   -148.296799
 0.215000   55.129098   -145.469778
 0.220000   54.409102   -142.740018
 0.225000   53.701698   -140.263508
 0.230000   53.006467   -137.878840
 0.235000   52.322910   -135.592551
 0.240000   51.650542   -133.390108
 0.245000   50.989009   -131.252353
 0.250000   50.338018   -129.063679
 0.255000   49.698372   -126.886303
 0.260000   49.069155   -124.851056
 0.265000   48.449861   -122.877896
 0.270000   47.840376   -120.927593
 0.275000   47.240585   -118.999122
 0.280000   46.650385   -116.970557
 0.285000   46.070880   -114.910293
 0.290000   45.501282   -112.952068
 0.295000   44.941359   -111.010926
 0.300000   44.391173   -109.063841
 0.305000   43.850721   -107.060561
 0.310000   43.320567   -105.062447
 0.315000   42.800096   -103.200623
 0.320000   42.288561   -101.468068
 0.325000   41.785416   -99.826402
 0.330000   41.290297   -98.193531
 0.335000   40.803480   -96.626159
 0.340000   40.324035   -95.196278
 0.345000   39.851517   -93.858360
 0.350000   39.385452   -92.559908
 0.355000   38.925918   -91.247889
 0.360000   38.472973   -89.994161
 0.365000   38.025977   -88.812352
 0.370000   37.584849   -87.641041
 0.375000   37.149566   -86.426916
 0.380000   36.720580   -85.176356
 0.385000   36.297803   -83.905409
 0.390000   35.881526   -82.583087
 0.395000   35.471972   -81.190596
 0.400000   35.069620   -79.768670
 0.405000   34.674285   -78.354991
 0.410000   34.286070   -76.938144
 0.415000   33.904904   -75.520454
 0.420000   33.530866   -74.117260
 0.425000   33.163731   -72.768918
 0.430000   32.803176   -71.469966
 0.435000   32.449032   -70.168917
 0.440000   32.101487   -68.883350
 0.445000   31.760198   -67.689313
 0.450000   31.424594   -66.577930
 0.455000   31.094419   -65.493413
 0.460000   30.769660   -64.447818
 0.465000   30.449941   -63.486283
 0.470000   30.134797   -62.605402
 0.475000   29.823886   -61.769031
 0.480000   29.517107   -60.967657
 0.485000   29.214210   -60.220068
 0.490000   28.914906   -59.509742
 0.495000   28.619113   -58.796559
 0.500000   28.326941   -58.086799
 0.505000   28.038245   -57.414478
 0.510000   27.752796   -56.774276
 0.515000   27.470502   -56.135332
 0.520000   27.191443   -55.508521
 0.525000   26.915417   -54.925076
 0.530000   26.642192   -54.373458
 0.535000   26.371682   -53.815529
 0.540000   26.104036   -53.260210
 0.545000   25.839080   -52.738957
 0.550000   25.576647   -52.240731
 0.555000   25.316673   -51.742897
 0.560000   25.059218   -51.252964
 0.565000   24.804143   -50.790933
 0.570000   24.551309   -50.348584
 0.575000   24.300657   -49.910199
 0.580000   24.052207   -49.480163
 0.585000   23.805855   -49.073031
 0.590000   23.561476   -48.685097
 0.595000   23.319004   -48.306052
 0.600000   23.078416   -47.937386
 0.605000   22.839631   -47.589547
 0.610000   22.602520   -47.259490
 0.615000   22.367036   -46.937576
 0.620000   22.133145   -46.624306
 0.625000   21.900793   -46.323874
 0.630000   21.669906   -46.034102
 0.635000   21.440452   -45.750993
 0.640000   21.212396   -45.476354
 0.645000   20.985688   -45.214332
 0.650000   20.760253   -44.972630
 0.655000   20.535962   -44.753026
 0.660000   20.312722   -44.550695
 0.665000   20.090455   -44.361059
 0.670000   19.869112   -44.172781
 0.675000   19.648727   -43.975487
 0.680000   19.429357   -43.762238
 0.685000   19.211105   -43.531530
 0.690000   18.994042   -43.288088
 0.695000   18.778224   -43.032604
 0.700000   18.563716   -42.767603
 0.705000   18.350548   -42.498861
 0.710000   18.138727   -42.231662
 0.715000   17.928231   -41.962002
 0.720000   17.719107   -41.694223
 0.725000   17.511289   -41.439643
 0.730000   17.304710   -41.200948
 0.735000   17.099279   -40.989816
 0.740000   16.894812   -40.796886
 0.745000   16.691311   -40.621852
 0.750000   16.488594   -40.483399
 0.755000   16.286477   -40.377301
 0.760000   16.084821   -40.296808
 0.765000   15.883509   -40.227586
 0.770000   15.682545   -40.153946
 0.775000   15.481969   -40.064858
 0.780000   15.281896   -39.948390
 0.785000   15.082485   -39.805437
 0.790000   14.883842   -39.643690
 0.795000   14.686048   -39.465393
 0.800000   14.489188   -39.278056
 0.805000   14.293268   -39.099187
 0.810000   14.098196   -38.937485
 0.815000   13.903893   -38.790898
 0.820000   13.710287   -38.654012
 0.825000   13.517353   -38.517447
 0.830000   13.325113   -38.383167
 0.835000   13.133521   -38.268618
 0.840000   12.942427   -38.171632
 0.845000   12.751805   -38.087973
 0.850000   12.561547   -38.024532
 0.855000   12.371559   -37.978397
 0.860000   12.181763   -37.944690
 0.865000   11.992112   -37.950691
 0.870000   11.802256   -37.984894
 0.875000   11.612264   -38.028398
 0.880000   11.421972   -38.115274
 0.885000   11.231111   -38.271830
 0.890000   11.039254   -38.537679
 0.895000   10.845734   -39.015417
 0.900000   10.649099   -39.721634
 0.905000   10.448518   -40.683378
 0.910000   10.242266   -42.053284
 0.915000   10.027985   -43.979639
 0.920000   9.802469   -46.665268
 0.925000   9.561332   -50.507227
 0.930000   9.297397   -55.944161
 0.935000   9.001891   -63.939365
 0.940000   8.658003   -77.190682
 0.945000   8.229984   -101.816348
 0.950000   7.639840   -146.760308
 0.955000   6.762381   -207.124583
 0.960000   5.568594   -243.894330
 0.965000   4.323437   -225.945857
 0.970000   3.309135   -176.451151
 0.975000   2.558926   -130.260163
 0.980000   2.006534   -96.388928
 0.985000   1.595037   -72.143819
 0.990000   1.285096   -54.621444
 0.995000   1.048822   -42.085518
 1.000000   0.864240   -31.747134
201 psinorm omeg(kRad/s) domeg/dpsiN
 0.000000   58.917734   0.018677
 0.005000   58.917285   -0.198254
 0.010000   58.915752   -0.445279
 0.015000   58.912832   -0.756360
 0.020000   58.908188   -1.138095
 0.025000   58.901452   -1.595187
 0.030000   58.892236   -2.130482
 0.035000   58.880147   -2.744527
 0.040000   58.864791   -3.431554
 0.045000   58.845831   -4.185926
 0.050000   58.822932   -5.003702
 0.055000   58.795794   -5.876825
 0.060000   58.764163   -6.796428
 0.065000   58.727830   -7.753040
 0.070000   58.686633   -8.722477
 0.075000   58.640605   -9.703829
 0.080000   58.589595   -10.713035
 0.085000   58.533475   -11.745697
 0.090000   58.472138   -12.801477
 0.095000   58.405460   -13.883409
 0.100000   58.333304   -14.980140
 0.105000   58.255659   -16.093107
 0.110000   58.172373   -17.235281
 0.115000   58.083306   -18.406972
 0.120000   57.988303   -19.619077
 0.125000   57.887115   -20.892256
 0.130000   57.779380   -22.251866
 0.135000   57.664596   -23.707884
 0.140000   57.542301   -25.235227
 0.145000   57.412244   -26.810744
 0.150000   57.274194   -28.429879
 0.155000   57.127945   -30.088001
 0.160000   56.973314   -31.780990
 0.165000   56.810135   -33.489016
 0.170000   56.638424   -35.183709
 0.175000   56.458298   -36.851290
 0.180000   56.269911   -38.482235
 0.185000   56.073476   -40.064011
 0.190000   55.869271   -41.567216
 0.195000   55.657804   -42.938336
 0.200000   55.439887   -44.172184
 0.205000   55.216082   -45.271237
 0.210000   54.987175   -46.209878
 0.215000   54.753983   -46.985398
 0.220000   54.517321   -47.571006
 0.225000   54.278273   -47.928593
 0.230000   54.038035   -48.191173
 0.235000   53.796361   -48.438959
 0.240000   53.553646   -48.608345
 0.245000   53.310278   -48.696756
 0.250000   53.066678   -48.675095
 0.255000   52.823527   -48.473824
 0.260000   52.581940   -48.225135
 0.265000   52.341276   -48.032050
 0.270000   52.101619   -47.836209
 0.275000   51.862914   -47.666166
 0.280000   51.624958   -47.547986
 0.285000   51.387434   -47.505628
 0.290000   51.149901   -47.588760
 0.295000   50.911546   -47.750723
 0.300000   50.672394   -47.887989
 0.305000   50.432666   -47.969379
 0.310000   50.192700   -47.980320
 0.315000   49.952863   -47.892445
 0.320000   49.713776   -47.733490
 0.325000   49.475528   -47.540649
 0.330000   49.238369   -47.300406
 0.335000   49.002524   -47.018829
 0.340000   48.768181   -46.703146
 0.345000   48.535493   -46.338505
 0.350000   48.304796   -45.961064
 0.355000   48.075882   -45.608485
 0.360000   47.848711   -45.263052
 0.365000   47.623251   -44.925363
 0.370000   47.399458   -44.595838
 0.375000   47.177293   -44.260721
 0.380000   46.956850   -43.903805
 0.385000   46.738255   -43.518460
 0.390000   46.521666   -43.101225
 0.395000   46.307243   -42.661420
 0.400000   46.095052   -42.226992
 0.405000   45.884973   -41.899683
 0.410000   45.676055   -41.853918
 0.415000   45.466434   -42.137280
 0.420000   45.254682   -42.695104
 0.425000   45.039483   -43.498709
 0.430000   44.819695   -44.509476
 0.435000   44.594388   -45.816900
 0.440000   44.361526   -47.353569
 0.445000   44.120852   -48.806232
 0.450000   43.873464   -50.106464
 0.455000   43.619787   -51.293451
 0.460000   43.360529   -52.313238
 0.465000   43.096655   -53.194135
 0.470000   42.828588   -53.848955
 0.475000   42.558166   -54.038458
 0.480000   42.288203   -53.767952
 0.485000   42.020486   -53.149898
 0.490000   41.756704   -52.218980
 0.495000   41.498296   -51.053314
 0.500000   41.246171   -49.781329
 0.505000   41.000483   -48.493677
 0.510000   40.761234   -47.216383
 0.515000   40.528319   -45.962808
 0.520000   40.301606   -44.738578
 0.525000   40.080933   -43.559578
 0.530000   39.866010   -42.451524
 0.535000   39.656418   -41.385624
 0.540000   39.452154   -40.352071
 0.545000   39.252897   -39.389827
 0.550000   39.058256   -38.513849
 0.555000   38.867759   -37.744662
 0.560000   38.680809   -37.113808
 0.565000   38.496621   -36.608561
 0.570000   38.314724   -36.232091
 0.575000   38.134300   -36.026336
 0.580000   37.954460   -36.003568
 0.585000   37.774264   -36.170903
 0.590000   37.592751   -36.519211
 0.595000   37.409072   -37.046297
 0.600000   37.222288   -37.767732
 0.605000   37.031395   -38.688399
 0.610000   36.835404   -39.802840
 0.615000   36.633366   -41.102052
 0.620000   36.424384   -42.533409
 0.625000   36.208032   -44.119710
 0.630000   35.983187   -45.898186
 0.635000   35.749050   -47.835031
 0.640000   35.504836   -49.941270
 0.645000   35.249638   -52.253554
 0.650000   34.982301   -54.885849
 0.655000   34.700779   -57.977466
 0.660000   34.402526   -61.553200
 0.665000   34.085247   -65.582585
 0.670000   33.746700   -70.019402
 0.675000   33.385053   -74.745729
 0.680000   32.999243   -79.642555
 0.685000   32.588628   -84.406847
 0.690000   32.155175   -88.834370
 0.695000   31.700284   -92.976788
 0.700000   31.225407   -96.784868
 0.705000   30.732435   -100.169101
 0.710000   30.223716   -103.011728
 0.715000   29.702318   -105.191812
 0.720000   29.171798   -106.693130
 0.725000   28.635387   -107.535281
 0.730000   28.096445   -107.706816
 0.735000   27.558319   -107.226112
 0.740000   27.024184   -106.089114
 0.745000   26.497427   -104.594283
 0.750000   25.978241   -103.220894
 0.755000   25.465218   -102.046857
 0.760000   24.957772   -100.922847
 0.765000   24.455990   -99.684160
 0.770000   23.960931   -98.182632
 0.775000   23.474164   -96.231488
 0.780000   22.998616   -93.585655
 0.785000   22.538307   -90.243338
 0.790000   22.096182   -86.361203
 0.795000   21.674695   -82.047372
 0.800000   21.275709   -77.477765
 0.805000   20.899917   -72.830450
 0.810000   20.547404   -68.002936
 0.815000   20.219888   -62.939909
 0.820000   19.918005   -57.788394
 0.825000   19.642004   -52.662584
 0.830000   19.391379   -47.768886
 0.835000   19.164315   -43.449396
 0.840000   18.956885   -39.986183
 0.845000   18.764453   -37.668239
 0.850000   18.580203   -36.885089
 0.855000   18.395603   -38.012198
 0.860000   18.200081   -41.505182
 0.865000   17.980551   -48.008037
 0.870000   17.720000   -57.836768
 0.875000   17.402183   -71.196220
 0.880000   17.008038   -88.400494
 0.885000   16.518178   -109.355663
 0.890000   15.914482   -133.620569
 0.895000   15.181972   -160.759108
 0.900000   14.306891   -188.887227
 0.905000   13.293100   -215.691719
 0.910000   12.149973   -239.529875
 0.915000   10.897801   -258.176978
 0.920000   9.568204   -269.448091
 0.925000   8.203320   -271.362492
 0.930000   6.854579   -262.170885
 0.935000   5.581612   -241.931395
 0.940000   4.435265   -212.680215
 0.945000   3.454809   -177.111232
 0.950000   2.664152   -138.435547
 0.955000   2.070454   -99.687477
 0.960000   1.667278   -64.021092
 0.965000   1.430243   -33.769423
 0.970000   1.329583   -9.796387
 0.975000   1.332279   7.512765
 0.980000   1.404711   18.311661
 0.985000   1.515396   23.153208
 0.990000   1.636243   23.120200
 0.995000   1.746598   19.544112
 1.000000   1.831684   14.490443
201 psinorm omegp(kRad/s) domegp/dpsiN
 0.000000   0.001120   119.141245
 0.005000   0.487485   75.404813
 0.010000   0.755168   51.501649
 0.015000   1.002501   49.027511
 0.020000   1.245443   48.329313
 0.025000   1.485794   47.387105
 0.030000   1.719314   45.537522
 0.035000   1.941170   43.378736
 0.040000   2.153101   41.170531
 0.045000   2.352875   38.755754
 0.050000   2.540659   36.531193
 0.055000   2.718187   34.668806
 0.060000   2.887347   33.044570
 0.065000   3.048632   31.533226
 0.070000   3.202679   30.126722
 0.075000   3.349900   28.622675
 0.080000   3.488906   26.892012
 0.085000   3.618820   25.001148
 0.090000   3.738917   22.988461
 0.095000   3.848704   21.086776
 0.100000   3.949785   19.406967
 0.105000   4.042774   17.962710
 0.110000   4.129412   16.819174
 0.115000   4.210966   15.920994
 0.120000   4.288622   15.354533
 0.125000   4.364511   15.019297
 0.130000   4.438815   14.797338
 0.135000   4.512485   14.559252
 0.140000   4.584408   14.239773
 0.145000   4.654882   13.800304
 0.150000   4.722411   13.085670
 0.155000   4.785739   12.100354
 0.160000   4.843414   10.915264
 0.165000   4.894892   9.622019
 0.170000   4.939634   8.162828
 0.175000   4.976520   6.636976
 0.180000   5.006004   5.062302
 0.185000   5.027143   3.552169
 0.190000   5.041526   2.132509
 0.195000   5.048468   0.743423
 0.200000   5.048960   -0.477195
 0.205000   5.043696   -1.658954
 0.210000   5.032370   -2.651760
 0.215000   5.017178   -3.566187
 0.220000   4.996709   -4.575641
 0.225000   4.971422   -5.541016
 0.230000   4.941298   -6.614629
 0.235000   4.905276   -7.693894
 0.240000   4.864359   -8.796345
 0.245000   4.817312   -10.032705
 0.250000   4.764032   -11.182254
 0.255000   4.705490   -12.358101
 0.260000   4.640451   -13.581947
 0.265000   4.569670   -14.721185
 0.270000   4.493240   -15.942490
 0.275000   4.410245   -17.195698
 0.280000   4.321283   -18.465362
 0.285000   4.225592   -19.874210
 0.290000   4.122541   -21.292397
 0.295000   4.012668   -22.768823
 0.300000   3.894852   -24.383044
 0.305000   3.768837   -25.933507
 0.310000   3.635517   -27.491986
 0.315000   3.493918   -29.142503
 0.320000   3.344092   -30.658118
 0.325000   3.187336   -32.026628
 0.330000   3.023826   -33.245175
 0.335000   2.854885   -34.108080
 0.340000   2.682745   -34.671769
 0.345000   2.508167   -35.014165
 0.350000   2.332603   -34.928910
 0.355000   2.158878   -34.627389
 0.360000   1.986330   -34.414503
 0.365000   1.814733   -34.211619
 0.370000   1.644213   -34.096592
 0.375000   1.473767   -34.179895
 0.380000   1.302414   -34.488836
 0.385000   1.128878   -35.020072
 0.390000   0.952214   -35.635541
 0.395000   0.772523   -36.244539
 0.400000   0.589768   -36.981277
 0.405000   0.402710   -38.150720
 0.410000   0.208261   -40.718274
 0.415000   -0.004472   -44.937311
 0.420000   -0.241112   -50.314481
 0.425000   -0.507617   -56.798294
 0.430000   -0.809095   -64.210068
 0.435000   -1.149718   -72.436823
 0.440000   -1.533463   -81.478043
 0.445000   -1.964498   -89.794073
 0.450000   -2.431404   -96.250329
 0.455000   -2.927002   -101.042361
 0.460000   -3.441828   -103.794248
 0.465000   -3.964944   -104.090181
 0.470000   -4.482729   -101.162964
 0.475000   -4.976574   -95.344618
 0.480000   -5.436176   -87.803507
 0.485000   -5.854609   -78.984706
 0.490000   -6.226023   -69.376081
 0.495000   -6.548370   -59.300844
 0.500000   -6.819031   -49.493257
 0.505000   -7.043302   -41.392425
 0.510000   -7.232955   -35.357290
 0.515000   -7.396875   -31.168593
 0.520000   -7.544641   -28.697698
 0.525000   -7.683852   -27.803095
 0.530000   -7.822672   -28.094442
 0.535000   -7.964797   -28.583722
 0.540000   -8.108509   -28.765611
 0.545000   -8.252453   -28.671600
 0.550000   -8.395225   -28.239942
 0.555000   -8.534852   -27.347967
 0.560000   -8.668705   -25.724064
 0.565000   -8.792093   -23.405237
 0.570000   -8.902757   -20.569150
 0.575000   -8.997784   -17.274728
 0.580000   -9.075505   -13.778037
 0.585000   -9.135565   -10.233870
 0.590000   -9.177843   -6.774121
 0.595000   -9.203306   -3.598546
 0.600000   -9.213829   -0.880914
 0.605000   -9.212115   1.403455
 0.610000   -9.199794   3.343730
 0.615000   -9.178678   4.900892
 0.620000   -9.150785   6.102164
 0.625000   -9.117656   7.137086
 0.630000   -9.079414   8.124930
 0.635000   -9.036407   9.023883
 0.640000   -8.989176   9.879982
 0.645000   -8.937607   10.743998
 0.650000   -8.881736   11.581763
 0.655000   -8.821789   12.350307
 0.660000   -8.758233   13.161619
 0.665000   -8.690173   14.175214
 0.670000   -8.616480   15.565644
 0.675000   -8.534517   17.680290
 0.680000   -8.439678   20.508352
 0.685000   -8.329433   23.868177
 0.690000   -8.200996   27.703811
 0.695000   -8.052395   31.880709
 0.700000   -7.882189   36.350398
 0.705000   -7.688891   40.611464
 0.710000   -7.476074   43.793730
 0.715000   -7.250954   45.594615
 0.720000   -7.020128   45.956939
 0.725000   -6.791384   44.751044
 0.730000   -6.572617   41.902288
 0.735000   -6.372361   37.652598
 0.740000   -6.196092   32.701507
 0.745000   -6.045346   27.614135
 0.750000   -5.919950   22.780400
 0.755000   -5.817542   18.525837
 0.760000   -5.734692   14.996215
 0.765000   -5.667580   12.326930
 0.770000   -5.611422   10.322634
 0.775000   -5.564354   8.490733
 0.780000   -5.526515   6.451904
 0.785000   -5.499835   3.886493
 0.790000   -5.487650   0.533243
 0.795000   -5.494502   -3.643925
 0.800000   -5.524089   -8.391403
 0.805000   -5.578416   -13.309232
 0.810000   -5.657182   -17.950466
 0.815000   -5.757921   -21.883670
 0.820000   -5.876018   -24.603698
 0.825000   -6.003958   -25.966831
 0.830000   -6.135687   -26.195451
 0.835000   -6.265913   -25.495220
 0.840000   -6.390639   -24.121539
 0.845000   -6.507128   -22.257901
 0.850000   -6.613218   -20.114806
 0.855000   -6.708276   -18.173667
 0.860000   -6.794955   -16.599557
 0.865000   -6.874272   -15.208733
 0.870000   -6.947042   -13.942321
 0.875000   -7.013695   -12.726474
 0.880000   -7.074307   -11.336983
 0.885000   -7.127065   -9.617438
 0.890000   -7.170481   -7.657534
 0.895000   -7.203640   -5.573900
 0.900000   -7.226220   -3.330526
 0.905000   -7.236945   -0.897711
 0.910000   -7.235197   1.668516
 0.915000   -7.220260   4.442062
 0.920000   -7.190777   7.597380
 0.925000   -7.144286   11.408221
 0.930000   -7.076694   16.960255
 0.935000   -6.974684   25.155526
 0.940000   -6.825139   35.785152
 0.945000   -6.616832   49.592017
 0.950000   -6.329219   68.667523
 0.955000   -5.930157   92.892455
 0.960000   -5.400294   121.023609
 0.965000   -4.719921   154.807698
 0.970000   -3.852217   192.019036
 0.975000   -2.799731   229.937325
 0.980000   -1.552844   267.788008
 0.985000   -0.121850   300.792434
 0.990000   1.455080   322.915781
 0.995000   3.107307   324.811017
 1.000000   4.703190   313.542160
201 psinorm omgvb(kRad/s) domgvb/dpsiN
 0.000000   58.918854   119.159923
 0.005000   59.404770   75.206559
 0.010000   59.670919   51.056370
 0.015000   59.915334   48.271151
 0.020000   60.153631   47.191218
 0.025000   60.387246   45.791918
 0.030000   60.611550   43.407040
 0.035000   60.821316   40.634209
 0.040000   61.017892   37.738977
 0.045000   61.198706   34.569828
 0.050000   61.363590   31.527491
 0.055000   61.513981   28.791981
 0.060000   61.651510   26.248143
 0.065000   61.776462   23.780185
 0.070000   61.889312   21.404245
 0.075000   61.990505   18.918846
 0.080000   62.078500   16.178977
 0.085000   62.152295   13.255451
 0.090000   62.211055   10.186984
 0.095000   62.254164   7.203367
 0.100000   62.283089   4.426828
 0.105000   62.298433   1.869603
 0.110000   62.301785   -0.416107
 0.115000   62.294272   -2.485979
 0.120000   62.276925   -4.264543
 0.125000   62.251626   -5.872959
 0.130000   62.218195   -7.454527
 0.135000   62.177081   -9.148632
 0.140000   62.126709   -10.995454
 0.145000   62.067126   -13.010440
 0.150000   61.996605   -15.344210
 0.155000   61.913684   -17.987647
 0.160000   61.816728   -20.865725
 0.165000   61.705027   -23.866997
 0.170000   61.578058   -27.020881
 0.175000   61.434818   -30.214314
 0.180000   61.275915   -33.419934
 0.185000   61.100619   -36.511842
 0.190000   60.910797   -39.434708
 0.195000   60.706272   -42.194913
 0.200000   60.488847   -44.649379
 0.205000   60.259778   -46.930191
 0.210000   60.019546   -48.861638
 0.215000   59.771162   -50.551585
 0.220000   59.514030   -52.146647
 0.225000   59.249695   -53.469609
 0.230000   58.979334   -54.805802
 0.235000   58.701637   -56.132852
 0.240000   58.418005   -57.404689
 0.245000   58.127590   -58.729462
 0.250000   57.830710   -59.857348
 0.255000   57.529017   -60.831925
 0.260000   57.222391   -61.807082
 0.265000   56.910946   -62.753235
 0.270000   56.594859   -63.778699
 0.275000   56.273159   -64.861864
 0.280000   55.946240   -66.013348
 0.285000   55.613025   -67.379838
 0.290000   55.272442   -68.881157
 0.295000   54.924214   -70.519546
 0.300000   54.567246   -72.271034
 0.305000   54.201504   -73.902886
 0.310000   53.828218   -75.472307
 0.315000   53.446780   -77.034949
 0.320000   53.057868   -78.391608
 0.325000   52.662864   -79.567277
 0.330000   52.262195   -80.545581
 0.335000   51.857409   -81.126909
 0.340000   51.450926   -81.374915
 0.345000   51.043659   -81.352669
 0.350000   50.637400   -80.889974
 0.355000   50.234760   -80.235874
 0.360000   49.835041   -79.677556
 0.365000   49.437984   -79.136983
 0.370000   49.043671   -78.692430
 0.375000   48.651060   -78.440616
 0.380000   48.259265   -78.392641
 0.385000   47.867133   -78.538532
 0.390000   47.473879   -78.736766
 0.395000   47.079766   -78.905960
 0.400000   46.684820   -79.208269
 0.405000   46.287683   -80.050403
 0.410000   45.884316   -82.572193
 0.415000   45.461961   -87.074590
 0.420000   45.013570   -93.009585
 0.425000   44.531865   -100.297003
 0.430000   44.010600   -108.719545
 0.435000   43.444670   -118.253723
 0.440000   42.828063   -128.831612
 0.445000   42.156354   -138.600305
 0.450000   41.442060   -146.356794
 0.455000   40.692786   -152.335812
 0.460000   39.918702   -156.107486
 0.465000   39.131711   -157.284316
 0.470000   38.345858   -155.011919
 0.475000   37.581592   -149.383076
 0.480000   36.852028   -141.571459
 0.485000   36.165877   -132.134603
 0.490000   35.530682   -121.595061
 0.495000   34.949927   -110.354158
 0.500000   34.427140   -99.274585
 0.505000   33.957181   -89.886101
 0.510000   33.528279   -82.573674
 0.515000   33.131444   -77.131401
 0.520000   32.756965   -73.436276
 0.525000   32.397081   -71.362672
 0.530000   32.043338   -70.545966
 0.535000   31.691622   -69.969346
 0.540000   31.343645   -69.117681
 0.545000   31.000445   -68.061427
 0.550000   30.663030   -66.753791
 0.555000   30.332907   -65.092629
 0.560000   30.012104   -62.837872
 0.565000   29.704528   -60.013798
 0.570000   29.411966   -56.801241
 0.575000   29.136516   -53.301064
 0.580000   28.878956   -49.781604
 0.585000   28.638700   -46.404773
 0.590000   28.414908   -43.293332
 0.595000   28.205766   -40.644842
 0.600000   28.008459   -38.648646
 0.605000   27.819280   -37.284944
 0.610000   27.635610   -36.459109
 0.615000   27.454689   -36.201160
 0.620000   27.273598   -36.431245
 0.625000   27.090376   -36.982624
 0.630000   26.903772   -37.773256
 0.635000   26.712644   -38.811148
 0.640000   26.515661   -40.061288
 0.645000   26.312031   -41.509556
 0.650000   26.100565   -43.304086
 0.655000   25.878990   -45.627159
 0.660000   25.644294   -48.391581
 0.665000   25.395074   -51.407371
 0.670000   25.130220   -54.453758
 0.675000   24.850537   -57.065439
 0.680000   24.559565   -59.134203
 0.685000   24.259195   -60.538669
 0.690000   23.954179   -61.130560
 0.695000   23.647889   -61.096079
 0.700000   23.343218   -60.434470
 0.705000   23.043544   -59.557637
 0.710000   22.747642   -59.217998
 0.715000   22.451364   -59.597197
 0.720000   22.151670   -60.736192
 0.725000   21.844002   -62.784237
 0.730000   21.523827   -65.804528
 0.735000   21.185957   -69.573515
 0.740000   20.828092   -73.387607
 0.745000   20.452081   -76.980147
 0.750000   20.058291   -80.440494
 0.755000   19.647676   -83.521019
 0.760000   19.223080   -85.926632
 0.765000   18.788410   -87.357230
 0.770000   18.349508   -87.859998
 0.775000   17.909810   -87.740755
 0.780000   17.472101   -87.133751
 0.785000   17.038472   -86.356845
 0.790000   16.608532   -85.827960
 0.795000   16.180193   -85.691297
 0.800000   15.751619   -85.869168
 0.805000   15.321501   -86.139682
 0.810000   14.890222   -85.953401
 0.815000   14.461967   -84.823579
 0.820000   14.041987   -82.392093
 0.825000   13.638046   -78.629415
 0.830000   13.255692   -73.964337
 0.835000   12.898403   -68.944616
 0.840000   12.566246   -64.107722
 0.845000   12.257325   -59.926140
 0.850000   11.966985   -56.999895
 0.855000   11.687327   -56.185865
 0.860000   11.405126   -58.104739
 0.865000   11.106279   -63.216770
 0.870000   10.772958   -71.779089
 0.875000   10.388488   -83.922694
 0.880000   9.933732   -99.737477
 0.885000   9.391113   -118.973101
 0.890000   8.744001   -141.278103
 0.895000   7.978332   -166.333008
 0.900000   7.080670   -192.217753
 0.905000   6.056155   -216.589430
 0.910000   4.914776   -237.861359
 0.915000   3.677541   -253.734916
 0.920000   2.377427   -261.850711
 0.925000   1.059034   -259.954271
 0.930000   -0.222116   -245.210630
 0.935000   -1.393072   -216.775869
 0.940000   -2.389874   -176.895064
 0.945000   -3.162023   -127.519215
 0.950000   -3.665067   -69.768024
 0.955000   -3.859703   -6.795022
 0.960000   -3.733017   57.002517
 0.965000   -3.289678   121.038275
 0.970000   -2.522634   182.222649
 0.975000   -1.467451   237.450090
 0.980000   -0.148133   286.099669
 0.985000   1.393545   323.945642
 0.990000   3.091323   346.035982
 0.995000   4.853905   344.355129
 1.000000   6.534875   328.032603
201 psinorm omgpp(kRad/s) domgpp/dpsiN
 0.000000   -0.035668   -17.791431
 0.005000   -0.144125   -25.591340
 0.010000   -0.291582   -29.815097
 0.015000   -0.442276   -30.430013
 0.020000   -0.595882   -30.971585
 0.025000   -0.751992   -31.426707
 0.030000   -0.910149   -31.798334
 0.035000   -1.069975   -32.082904
 0.040000   -1.230978   -32.270287
 0.045000   -1.392678   -32.362997
 0.050000   -1.554608   -32.348333
 0.055000   -1.716162   -32.223217
 0.060000   -1.876840   -32.046835
 0.065000   -2.036630   -31.788166
 0.070000   -2.194722   -31.400337
 0.075000   -2.350633   -30.921360
 0.080000   -2.503935   -30.341315
 0.085000   -2.654046   -29.647850
 0.090000   -2.800414   -29.003977
 0.095000   -2.944086   -28.361051
 0.100000   -3.084024   -27.587571
 0.105000   -3.219962   -26.772645
 0.110000   -3.351751   -25.938908
 0.115000   -3.479351   -25.195737
 0.120000   -3.603708   -24.719701
 0.125000   -3.726548   -24.325386
 0.130000   -3.846962   -23.780199
 0.135000   -3.964350   -23.089822
 0.140000   -4.077860   -22.210525
 0.145000   -4.186455   -21.188734
 0.150000   -4.289748   -19.908013
 0.155000   -4.385535   -18.467265
 0.160000   -4.474420   -17.044738
 0.165000   -4.555983   -15.543142
 0.170000   -4.629852   -13.972348
 0.175000   -4.695706   -12.185297
 0.180000   -4.751705   -10.420577
 0.185000   -4.799912   -8.858157
 0.190000   -4.840286   -7.393084
 0.195000   -4.873843   -6.156308
 0.200000   -4.901849   -5.184469
 0.205000   -4.925687   -4.559698
 0.210000   -4.947446   -4.208478
 0.215000   -4.967772   -3.819434
 0.220000   -4.985641   -3.336980
 0.225000   -5.001142   -2.857452
 0.230000   -5.014215   -2.353144
 0.235000   -5.024674   -2.212878
 0.240000   -5.036344   -1.663701
 0.245000   -5.041311   -0.216054
 0.250000   -5.038504   1.269210
 0.255000   -5.028618   2.747494
 0.260000   -5.011029   4.336612
 0.265000   -4.985252   5.893634
 0.270000   -4.952093   7.776997
 0.275000   -4.907482   9.964754
 0.280000   -4.852446   11.932229
 0.285000   -4.788160   13.798828
 0.290000   -4.714457   15.700838
 0.295000   -4.631152   17.937406
 0.300000   -4.535083   20.017374
 0.305000   -4.430978   20.724943
 0.310000   -4.327834   20.517715
 0.315000   -4.225801   20.176466
 0.320000   -4.126069   19.651788
 0.325000   -4.029283   18.944413
 0.330000   -3.936625   17.942068
 0.335000   -3.849862   17.099764
 0.340000   -3.765627   16.616272
 0.345000   -3.683700   16.207196
 0.350000   -3.603555   15.907379
 0.355000   -3.524626   15.495973
 0.360000   -3.448596   14.930175
 0.365000   -3.375324   15.349643
 0.370000   -3.295099   16.528388
 0.375000   -3.210040   17.656210
 0.380000   -3.118537   19.028542
 0.385000   -3.019755   20.512088
 0.390000   -2.913416   22.263383
 0.395000   -2.797121   23.716552
 0.400000   -2.676251   24.349040
 0.405000   -2.553630   24.497110
 0.410000   -2.431280   24.275985
 0.415000   -2.310871   23.838523
 0.420000   -2.192894   23.720773
 0.425000   -2.073663   22.778395
 0.430000   -1.965111   21.158534
 0.435000   -1.862078   20.005457
 0.440000   -1.765056   18.763082
 0.445000   -1.674447   17.455024
 0.450000   -1.590506   16.450048
 0.455000   -1.509946   14.821052
 0.460000   -1.442295   12.760809
 0.465000   -1.382338   11.210260
 0.470000   -1.330193   9.656962
 0.475000   -1.285769   8.143504
 0.480000   -1.248758   6.736642
 0.485000   -1.218402   5.756184
 0.490000   -1.191196   5.130904
 0.495000   -1.167093   4.454769
 0.500000   -1.146648   3.694158
 0.505000   -1.130151   2.890444
 0.510000   -1.117744   2.063674
 0.515000   -1.109515   1.271252
 0.520000   -1.105031   0.523155
 0.525000   -1.104283   -0.223107
 0.530000   -1.107262   -0.963261
 0.535000   -1.113916   -1.692356
 0.540000   -1.124186   -2.423317
 0.545000   -1.138149   -3.129498
 0.550000   -1.155481   -3.797293
 0.555000   -1.176122   -4.453402
 0.560000   -1.200015   -5.089841
 0.565000   -1.227020   -5.694467
 0.570000   -1.256959   -6.263213
 0.575000   -1.289652   -6.773177
 0.580000   -1.324691   -7.229752
 0.585000   -1.361950   -7.663279
 0.590000   -1.401324   -8.066698
 0.595000   -1.442617   -8.431176
 0.600000   -1.485636   -8.778370
 0.605000   -1.530401   -9.144544
 0.610000   -1.577081   -9.502422
 0.615000   -1.625425   -9.836407
 0.620000   -1.675445   -10.162635
 0.625000   -1.727051   -10.467153
 0.630000   -1.780117   -10.794791
 0.635000   -1.834999   -11.151259
 0.640000   -1.891629   -11.418662
 0.645000   -1.949186   -11.699059
 0.650000   -2.008620   -12.081402
 0.655000   -2.070000   -12.502629
 0.660000   -2.133646   -13.241551
 0.665000   -2.202415   -14.829045
 0.670000   -2.281937   -16.166377
 0.675000   -2.364079   -16.882208
 0.680000   -2.450759   -17.713504
 0.685000   -2.541214   -18.370692
 0.690000   -2.634466   -19.019213
 0.695000   -2.731406   -19.973173
 0.700000   -2.834197   -19.289671
 0.705000   -2.924303   -17.442883
 0.710000   -3.008626   -16.031904
 0.715000   -3.084622   -14.090298
 0.720000   -3.149529   -11.619637
 0.725000   -3.200818   -8.515959
 0.730000   -3.234689   -4.339013
 0.735000   -3.244208   0.028769
 0.740000   -3.234401   3.849211
 0.745000   -3.205716   7.510250
 0.750000   -3.159299   10.868181
 0.755000   -3.097035   14.925155
 0.760000   -3.010047   17.285078
 0.765000   -2.924184   17.587099
 0.770000   -2.834176   18.144699
 0.775000   -2.742737   18.174532
 0.780000   -2.652431   17.724340
 0.785000   -2.565493   17.314311
 0.790000   -2.479288   15.543175
 0.795000   -2.410062   12.815812
 0.800000   -2.351129   11.007435
 0.805000   -2.299987   9.634230
 0.810000   -2.254787   8.627459
 0.815000   -2.213713   7.679371
 0.820000   -2.177993   6.990747
 0.825000   -2.143805   6.634558
 0.830000   -2.111648   5.984718
 0.835000   -2.083958   4.910003
 0.840000   -2.062548   3.482944
 0.845000   -2.049129   1.294594
 0.850000   -2.049602   -1.009498
 0.855000   -2.059224   -2.746006
 0.860000   -2.077062   -4.584808
 0.865000   -2.105072   -6.611631
 0.870000   -2.143178   -8.648734
 0.875000   -2.191559   -11.560434
 0.880000   -2.258783   -15.208626
 0.885000   -2.343645   -18.859318
 0.890000   -2.447376   -23.506220
 0.895000   -2.578707   -29.581089
 0.900000   -2.743187   -37.006587
 0.905000   -2.948773   -48.715847
 0.910000   -3.230345   -64.873563
 0.915000   -3.597509   -80.191049
 0.920000   -4.032256   -98.246933
 0.925000   -4.579978   -123.916065
 0.930000   -5.271416   -156.106138
 0.935000   -6.141040   -199.728618
 0.940000   -7.268702   -255.821041
 0.945000   -8.699250   -303.855439
 0.950000   -10.307257   -340.601476
 0.955000   -12.105265   -366.979863
 0.960000   -13.977056   -362.372067
 0.965000   -15.728985   -319.510678
 0.970000   -17.172162   -231.554664
 0.975000   -18.044532   -71.844858
 0.980000   -17.890611   114.950538
 0.985000   -16.895027   257.585668
 0.990000   -15.314754   334.299802
 0.995000   -13.552029   329.735920
 1.000000   -12.017395   284.117560
201 psinorm omgeb(kRad/s) domgeb/dpsiN
 0.000000   58.883185   101.368492
 0.005000   59.260645   49.615219
 0.010000   59.379338   21.241274
 0.015000   59.473057   17.841137
 0.020000   59.557749   16.219633
 0.025000   59.635254   14.365211
 0.030000   59.701401   11.608706
 0.035000   59.751341   8.551305
 0.040000   59.786914   5.468691
 0.045000   59.806028   2.206830
 0.050000   59.808983   -0.820842
 0.055000   59.797819   -3.431237
 0.060000   59.774670   -5.798692
 0.065000   59.739832   -8.007981
 0.070000   59.694590   -9.996092
 0.075000   59.639872   -12.002514
 0.080000   59.574565   -14.162338
 0.085000   59.498248   -16.392399
 0.090000   59.410641   -18.816993
 0.095000   59.310078   -21.157684
 0.100000   59.199064   -23.160744
 0.105000   59.078471   -24.903042
 0.110000   58.950034   -26.355015
 0.115000   58.814921   -27.681715
 0.120000   58.673217   -28.984244
 0.125000   58.525078   -30.198345
 0.130000   58.371233   -31.234727
 0.135000   58.212731   -32.238454
 0.140000   58.048849   -33.205978
 0.145000   57.880671   -34.199174
 0.150000   57.706857   -35.252223
 0.155000   57.528149   -36.454912
 0.160000   57.342308   -37.910463
 0.165000   57.149044   -39.410139
 0.170000   56.948207   -40.993229
 0.175000   56.739112   -42.399611
 0.180000   56.524210   -43.840511
 0.185000   56.300707   -45.369999
 0.190000   56.070510   -46.827792
 0.195000   55.832429   -48.351221
 0.200000   55.586998   -49.833847
 0.205000   55.334090   -51.489890
 0.210000   55.072099   -53.070116
 0.215000   54.803389   -54.371020
 0.220000   54.528389   -55.483627
 0.225000   54.248553   -56.327061
 0.230000   53.965119   -57.158945
 0.235000   53.676964   -58.345730
 0.240000   53.381661   -59.068391
 0.245000   53.086280   -58.945516
 0.250000   52.792206   -58.588138
 0.255000   52.500398   -58.084431
 0.260000   52.211362   -57.470470
 0.265000   51.925694   -56.859601
 0.270000   51.642766   -56.001702
 0.275000   51.365677   -54.897110
 0.280000   51.093795   -54.081119
 0.285000   50.824865   -53.581010
 0.290000   50.557985   -53.180319
 0.295000   50.293062   -52.582140
 0.300000   50.032163   -52.253660
 0.305000   49.770526   -53.177943
 0.310000   49.500384   -54.954592
 0.315000   49.220980   -56.858482
 0.320000   48.931799   -58.739820
 0.325000   48.633581   -60.622864
 0.330000   48.325570   -62.603513
 0.335000   48.007546   -64.027145
 0.340000   47.685299   -64.758643
 0.345000   47.359960   -65.145473
 0.350000   47.033844   -64.982595
 0.355000   46.710134   -64.739901
 0.360000   46.386445   -64.747381
 0.365000   46.062660   -63.787340
 0.370000   45.748572   -62.164042
 0.375000   45.441020   -60.784407
 0.380000   45.140728   -59.364099
 0.385000   44.847379   -58.026444
 0.390000   44.560463   -56.473384
 0.395000   44.282645   -55.189408
 0.400000   44.008569   -54.859229
 0.405000   43.734053   -55.553292
 0.410000   43.453036   -58.296208
 0.415000   43.151091   -63.236067
 0.420000   42.820675   -69.288812
 0.425000   42.458202   -77.518608
 0.430000   42.045489   -87.561011
 0.435000   41.582592   -98.248266
 0.440000   41.063007   -110.068531
 0.445000   40.481907   -121.145281
 0.450000   39.851554   -129.906746
 0.455000   39.182840   -137.514760
 0.460000   38.476406   -143.346676
 0.465000   37.749373   -146.074056
 0.470000   37.015666   -145.354957
 0.475000   36.295823   -141.239572
 0.480000   35.603270   -134.834817
 0.485000   34.947475   -126.378419
 0.490000   34.339486   -116.464157
 0.495000   33.782833   -105.899390
 0.500000   33.280492   -95.580427
 0.505000   32.827029   -86.995657
 0.510000   32.410535   -80.510000
 0.515000   32.021929   -75.860149
 0.520000   31.651934   -72.913121
 0.525000   31.292798   -71.585779
 0.530000   30.936076   -71.509227
 0.535000   30.577706   -71.661703
 0.540000   30.219459   -71.540998
 0.545000   29.862296   -71.190925
 0.550000   29.507550   -70.551084
 0.555000   29.156785   -69.546032
 0.560000   28.812090   -67.927712
 0.565000   28.477508   -65.708265
 0.570000   28.155007   -63.064454
 0.575000   27.846863   -60.074240
 0.580000   27.554264   -57.011356
 0.585000   27.276750   -54.068052
 0.590000   27.013584   -51.360030
 0.595000   26.763149   -49.076018
 0.600000   26.522824   -47.427016
 0.605000   26.288879   -46.429487
 0.610000   26.058529   -45.961531
 0.615000   25.829264   -46.037567
 0.620000   25.598153   -46.593881
 0.625000   25.363325   -47.449776
 0.630000   25.123655   -48.568047
 0.635000   24.877645   -49.962407
 0.640000   24.624031   -51.479950
 0.645000   24.362845   -53.208615
 0.650000   24.091945   -55.385487
 0.655000   23.808990   -58.129788
 0.660000   23.510647   -61.633132
 0.665000   23.192659   -66.236416
 0.670000   22.848283   -70.620135
 0.675000   22.486458   -73.947647
 0.680000   22.108807   -76.847707
 0.685000   21.717981   -78.909361
 0.690000   21.319713   -80.149773
 0.695000   20.916483   -81.069253
 0.700000   20.509021   -79.724142
 0.705000   20.119241   -77.000520
 0.710000   19.739015   -75.249902
 0.715000   19.366742   -73.687495
 0.720000   19.002140   -72.355828
 0.725000   18.643184   -71.300196
 0.730000   18.289138   -70.143541
 0.735000   17.941749   -69.544746
 0.740000   17.593691   -69.538396
 0.745000   17.246365   -69.469897
 0.750000   16.898992   -69.572312
 0.755000   16.550642   -68.595864
 0.760000   16.213033   -68.641554
 0.765000   15.864226   -69.770131
 0.770000   15.515332   -69.715299
 0.775000   15.167073   -69.566223
 0.780000   14.819670   -69.409411
 0.785000   14.472979   -69.042535
 0.790000   14.129245   -70.284785
 0.795000   13.770131   -72.875486
 0.800000   13.400490   -74.861734
 0.805000   13.021514   -76.505452
 0.810000   12.635435   -77.325943
 0.815000   12.248254   -77.144208
 0.820000   11.863993   -75.401346
 0.825000   11.494241   -71.994857
 0.830000   11.144044   -67.979619
 0.835000   10.814445   -64.034613
 0.840000   10.503698   -60.624778
 0.845000   10.208197   -58.631546
 0.850000   9.917383   -58.009393
 0.855000   9.628103   -58.931871
 0.860000   9.328064   -62.689547
 0.865000   9.001208   -69.828401
 0.870000   8.629780   -80.427823
 0.875000   8.196929   -95.483128
 0.880000   7.674949   -114.946103
 0.885000   7.047468   -137.832419
 0.890000   6.296625   -164.784322
 0.895000   5.399625   -195.914096
 0.900000   4.337484   -229.224340
 0.905000   3.107382   -265.305278
 0.910000   1.684431   -302.734922
 0.915000   0.080032   -333.925965
 0.920000   -1.654829   -360.097644
 0.925000   -3.520944   -383.870336
 0.930000   -5.493532   -401.316768
 0.935000   -7.534112   -416.504487
 0.940000   -9.658577   -432.716105
 0.945000   -11.861273   -431.374655
 0.950000   -13.972323   -410.369500
 0.955000   -15.964968   -373.774885
 0.960000   -17.710072   -305.369550
 0.965000   -19.018663   -198.472403
 0.970000   -19.694796   -49.332015
 0.975000   -19.511983   165.605233
 0.980000   -18.038744   401.050208
 0.985000   -15.501481   581.531310
 0.990000   -12.223431   680.335784
 0.995000   -8.698123   674.091048
 1.000000   -5.482520   612.150163
201 psinorm er(kV/m) der/dpsiN
 0.000000   1.417351   860.889717
 0.005000   5.053903   593.730926
 0.010000   7.354661   405.261791
 0.015000   9.106521   325.131975
 0.020000   10.605980   281.164536
 0.025000   11.918166   250.296438
 0.030000   13.108945   228.814166
 0.035000   14.206308   211.878384
 0.040000   15.227729   197.992748
 0.045000   16.186235   186.206185
 0.050000   17.089791   175.066606
 0.055000   17.936902   165.055759
 0.060000   18.740348   157.065444
 0.065000   19.507556   150.977680
 0.070000   20.250125   144.096563
 0.075000   20.948522   135.964862
 0.080000   21.609774   131.619688
 0.085000   22.264718   126.131273
 0.090000   22.871086   119.621248
 0.095000   23.460931   116.135067
 0.100000   24.032437   109.272630
 0.105000   24.553657   106.071209
 0.110000   25.093149   101.417469
 0.115000   25.567832   97.456342
 0.120000   26.067712   93.840434
 0.125000   26.506236   89.963666
 0.130000   26.967349   86.402426
 0.135000   27.370261   83.206002
 0.140000   27.799409   79.521706
 0.145000   28.165478   76.945306
 0.150000   28.568862   72.954409
 0.155000   28.895022   70.319466
 0.160000   29.272057   67.063459
 0.165000   29.565656   62.953060
 0.170000   29.901587   61.928394
 0.175000   30.184940   56.552592
 0.180000   30.467113   55.949622
 0.185000   30.744436   50.392178
 0.190000   30.971035   49.488020
 0.195000   31.239317   44.960393
 0.200000   31.420639   41.083224
 0.205000   31.650149   42.112959
 0.210000   31.841769   35.246993
 0.215000   32.002619   35.529277
 0.220000   32.197061   30.486572
 0.225000   32.307485   27.149146
 0.230000   32.468553   29.581650
 0.235000   32.603301   22.444002
 0.240000   32.692993   22.189215
 0.245000   32.825193   21.025524
 0.250000   32.903248   16.789088
 0.255000   32.993084   20.091458
 0.260000   33.104163   14.732085
 0.265000   33.140405   12.822664
 0.270000   33.232389   17.403940
 0.275000   33.314444   11.503849
 0.280000   33.347428   11.293022
 0.285000   33.427375   13.675932
 0.290000   33.484187   8.361201
 0.295000   33.510987   9.018851
 0.300000   33.574376   9.776555
 0.305000   33.608752   4.469692
 0.310000   33.619073   4.011111
 0.315000   33.648863   2.383567
 0.320000   33.642908   -2.983334
 0.325000   33.619030   -3.427103
 0.330000   33.608637   -5.439115
 0.335000   33.564639   -10.173163
 0.340000   33.506906   -10.001776
 0.345000   33.464621   -10.706683
 0.350000   33.399839   -14.191933
 0.355000   33.322702   -13.697207
 0.360000   33.262867   -13.630088
 0.365000   33.186401   -16.438563
 0.370000   33.098481   -15.359103
 0.375000   33.032810   -13.663982
 0.380000   32.961841   -16.038129
 0.385000   32.872428   -15.620199
 0.390000   32.805639   -13.150777
 0.395000   32.740921   -15.472631
 0.400000   32.650913   -16.267068
 0.405000   32.578250   -15.224098
 0.410000   32.498672   -19.827070
 0.415000   32.379979   -25.012067
 0.420000   32.248551   -28.674563
 0.425000   32.093234   -36.224197
 0.430000   31.886309   -45.703831
 0.435000   31.636195   -53.987847
 0.440000   31.346431   -63.379811
 0.445000   31.002397   -73.915579
 0.450000   30.607275   -81.535198
 0.455000   30.187045   -87.290264
 0.460000   29.734372   -93.823214
 0.465000   29.248813   -97.231031
 0.470000   28.762062   -96.589667
 0.475000   28.282916   -94.661518
 0.480000   27.815447   -91.131894
 0.485000   27.371598   -84.969636
 0.490000   26.965751   -77.563678
 0.495000   26.595961   -70.651784
 0.500000   26.259233   -63.221734
 0.505000   25.963743   -56.329154
 0.510000   25.695941   -52.230960
 0.515000   25.441434   -49.381738
 0.520000   25.202124   -47.009222
 0.525000   24.971342   -46.327541
 0.530000   24.738848   -47.253164
 0.535000   24.498810   -47.757424
 0.540000   24.261274   -47.520361
 0.545000   24.023606   -48.182821
 0.550000   23.779446   -48.274437
 0.555000   23.540862   -47.276910
 0.560000   23.306677   -46.377394
 0.565000   23.077088   -45.406237
 0.570000   22.852615   -43.472292
 0.575000   22.642365   -40.853233
 0.580000   22.444082   -39.214282
 0.585000   22.250222   -37.257758
 0.590000   22.071505   -34.716153
 0.595000   21.903061   -33.175727
 0.600000   21.739747   -32.535119
 0.605000   21.577710   -31.780169
 0.610000   21.421946   -31.102130
 0.615000   21.266688   -31.920370
 0.620000   21.102742   -32.762366
 0.625000   20.939065   -33.076190
 0.630000   20.771980   -34.195930
 0.635000   20.597105   -36.096367
 0.640000   20.411016   -37.394679
 0.645000   20.223159   -38.419282
 0.650000   20.026824   -40.908364
 0.655000   19.814075   -43.660798
 0.660000   19.590216   -46.226250
 0.665000   19.351812   -50.024365
 0.670000   19.089972   -54.634707
 0.675000   18.805465   -57.561383
 0.680000   18.514358   -59.385823
 0.685000   18.211607   -61.702966
 0.690000   17.897328   -63.463975
 0.695000   17.576967   -63.997874
 0.700000   17.257350   -62.490380
 0.705000   16.952064   -61.249687
 0.710000   16.644853   -60.134223
 0.715000   16.350721   -58.086986
 0.720000   16.063983   -57.161441
 0.725000   15.779107   -57.304925
 0.730000   15.490934   -56.271277
 0.735000   15.216394   -55.029156
 0.740000   14.940642   -55.757311
 0.745000   14.658821   -56.356306
 0.750000   14.377079   -56.009144
 0.755000   14.098730   -54.832871
 0.760000   13.828750   -55.901342
 0.765000   13.539716   -57.156742
 0.770000   13.257183   -56.401989
 0.775000   12.975696   -56.454925
 0.780000   12.692634   -57.182091
 0.785000   12.403875   -56.874962
 0.790000   12.123884   -57.393189
 0.795000   11.829943   -60.122754
 0.800000   11.522657   -62.392631
 0.805000   11.206017   -63.615485
 0.810000   10.886502   -64.069953
 0.815000   10.565318   -64.584880
 0.820000   10.240653   -63.416869
 0.825000   9.931149   -60.109036
 0.830000   9.639563   -56.611104
 0.835000   9.365038   -53.950063
 0.840000   9.100062   -51.130884
 0.845000   8.853729   -48.906568
 0.850000   8.610996   -48.621173
 0.855000   8.367517   -49.988459
 0.860000   8.111112   -53.234141
 0.865000   7.835176   -59.115561
 0.870000   7.519956   -68.756764
 0.875000   7.147608   -82.355050
 0.880000   6.696406   -99.220019
 0.885000   6.155408   -119.048552
 0.890000   5.505920   -143.263548
 0.895000   4.722773   -170.939674
 0.900000   3.796523   -199.912908
 0.905000   2.723644   -231.595747
 0.910000   1.480566   -265.405322
 0.915000   0.069590   -293.099074
 0.920000   -1.450425   -315.615472
 0.925000   -3.086564   -337.049315
 0.930000   -4.820918   -354.075289
 0.935000   -6.627317   -368.281929
 0.940000   -8.503737   -382.334418
 0.945000   -10.450661   -387.191587
 0.950000   -12.375653   -381.634728
 0.955000   -14.267009   -347.274728
 0.960000   -15.848401   -277.614347
 0.965000   -17.043152   -195.479809
 0.970000   -17.803199   -74.666014
 0.975000   -17.789812   134.522092
 0.980000   -16.457978   363.556627
 0.985000   -14.154246   530.333834
 0.990000   -11.154639   621.649928
 0.995000   -7.937747   613.994013
 1.000000   -5.014699   555.225025
201 psinorm ommvb() dommvb/dpsiN
 0.000000   -1.613851   18717.842027
 0.005000   82.290407   14843.861115
 0.010000   146.824760   11655.224191
 0.015000   198.842649   9464.454919
 0.020000   241.469309   8217.320696
 0.025000   281.015856   7403.264892
 0.030000   315.501958   6501.049762
 0.035000   346.026353   5528.604092
 0.040000   370.787999   4652.358305
 0.045000   392.549936   4085.309174
 0.050000   411.641091   3470.376019
 0.055000   427.253696   3013.127844
 0.060000   441.772369   2652.914312
 0.065000   453.782840   2259.869634
 0.070000   464.371066   1938.849419
 0.075000   473.171334   1579.135170
 0.080000   480.162417   1315.320362
 0.085000   486.324537   1118.310224
 0.090000   491.345520   853.723462
 0.095000   494.861772   557.459784
 0.100000   496.920117   386.377376
 0.105000   498.725546   262.290240
 0.110000   499.543020   60.192580
 0.115000   499.327472   -131.013085
 0.120000   498.232889   -302.014850
 0.125000   496.307323   -556.445094
 0.130000   492.668438   -710.144853
 0.135000   489.205875   -756.664464
 0.140000   485.101793   -888.311318
 0.145000   480.322761   -997.532700
 0.150000   475.126466   -1091.848460
 0.155000   469.404277   -1185.757296
 0.160000   463.268893   -1267.552097
 0.165000   456.728756   -1341.971180
 0.170000   449.849182   -1401.780188
 0.175000   442.710954   -1445.861286
 0.180000   435.390569   -1473.010507
 0.185000   427.980849   -1635.195208
 0.190000   419.038617   -1690.754645
 0.195000   411.073302   -1590.856410
 0.200000   403.130053   -1586.803151
 0.205000   395.205271   -1579.474836
 0.210000   387.335304   -1564.841838
 0.215000   379.556852   -1548.208246
 0.220000   371.853222   -1532.877599
 0.225000   364.228077   -1522.086435
 0.230000   356.632357   -1592.683832
 0.235000   348.301238   -1622.950102
 0.240000   340.402856   -1452.102956
 0.245000   333.780209   -1299.787771
 0.250000   327.404979   -1251.262994
 0.255000   321.267579   -1202.456467
 0.260000   315.380414   -1179.073535
 0.265000   309.476843   -1306.833675
 0.270000   302.312077   -1189.254380
 0.275000   297.584300   -923.941942
 0.280000   293.072658   -886.798647
 0.285000   288.716313   -854.300980
 0.290000   284.529648   -933.556559
 0.295000   279.380747   -933.864936
 0.300000   275.190999   -744.554040
 0.305000   271.935207   -632.867737
 0.310000   268.862321   -596.191997
 0.315000   265.973287   -662.419605
 0.320000   262.238125   -653.442939
 0.325000   259.438858   -484.890811
 0.330000   257.389217   -397.015824
 0.335000   255.468699   -378.343247
 0.340000   253.605785   -470.515990
 0.345000   250.763540   -420.823758
 0.350000   249.397547   -261.953379
 0.355000   248.144006   -240.697492
 0.360000   246.990572   -283.162793
 0.365000   245.312378   -292.865218
 0.370000   244.061920   -196.968723
 0.375000   243.342691   -137.044518
 0.380000   242.691475   -152.490799
 0.385000   241.817783   -206.761379
 0.390000   240.623861   -162.177134
 0.395000   240.196011   -78.487616
 0.400000   239.838985   -76.455019
 0.405000   239.431461   -135.685940
 0.410000   238.482125   -119.727084
 0.415000   238.234190   -53.241970
 0.420000   237.949706   -66.903422
 0.425000   237.565156   -156.240282
 0.430000   236.387303   -160.261259
 0.435000   235.962543   -90.746206
 0.440000   235.479841   -106.133780
 0.445000   234.901206   -201.373470
 0.450000   233.466106   -213.164559
 0.455000   232.769560   -138.860246
 0.460000   232.077504   -139.309153
 0.465000   231.376469   -208.509130
 0.470000   229.992412   -190.924613
 0.475000   229.467222   -100.474040
 0.480000   228.987672   -95.326673
 0.485000   228.513956   -150.265547
 0.490000   227.485017   -125.303862
 0.495000   227.260917   -39.251190
 0.500000   227.092505   -35.354580
 0.505000   226.907371   -89.745863
 0.510000   226.195046   -71.302427
 0.515000   226.194347   5.663337
 0.520000   226.251679   10.503578
 0.525000   226.299383   -19.353626
 0.530000   226.058143   -11.102164
 0.535000   226.188361   28.761900
 0.540000   226.345762   30.157780
 0.545000   226.489939   -14.678904
 0.550000   226.198973   0.400988
 0.555000   226.493949   64.124726
 0.560000   226.840220   72.678633
 0.565000   227.220735   39.823982
 0.570000   227.238460   63.019368
 0.575000   227.850929   130.984823
 0.580000   228.548308   148.309531
 0.585000   229.334024   130.178084
 0.590000   229.850089   150.232985
 0.595000   230.836354   209.217867
 0.600000   231.942268   231.236639
 0.605000   233.148720   237.098883
 0.610000   234.313257   258.275788
 0.615000   235.731478   300.661856
 0.620000   237.319875   329.020169
 0.625000   239.021680   349.804316
 0.630000   240.817918   379.987631
 0.635000   242.821556   414.584807
 0.640000   244.963766   440.945974
 0.645000   247.231016   469.119073
 0.650000   249.654957   505.571024
 0.655000   252.286726   533.482969
 0.660000   254.989787   553.151567
 0.665000   257.818242   578.449258
 0.670000   260.774279   618.487367
 0.675000   264.003116   658.433427
 0.680000   267.358614   682.173691
 0.685000   270.824852   717.387879
 0.690000   274.532493   770.092085
 0.695000   278.525773   851.085998
 0.700000   283.043353   906.961505
 0.705000   287.595388   932.738265
 0.710000   292.370735   982.823155
 0.715000   297.423620   1044.916361
 0.720000   302.819899   1143.050307
 0.725000   308.854123   1202.655120
 0.730000   314.846450   1227.248458
 0.735000   321.126608   1287.875514
 0.740000   327.725205   1353.612966
 0.745000   334.662737   1448.565179
 0.750000   342.210857   1505.473023
 0.755000   349.717467   1525.771871
 0.760000   357.468576   1582.807267
 0.765000   365.545540   1652.282873
 0.770000   373.991404   1735.692247
 0.775000   382.902463   1826.460553
 0.780000   392.256010   1894.460672
 0.785000   401.847069   1959.943214
 0.790000   411.855442   2044.617885
 0.795000   422.293248   2133.141875
 0.800000   433.186861   2224.734117
 0.805000   444.540589   2305.287467
 0.810000   456.239735   2388.673486
 0.815000   468.427324   2489.783872
 0.820000   481.137574   2597.176992
 0.825000   494.399094   2708.980635
 0.830000   508.227381   2823.203358
 0.835000   522.631128   2927.220775
 0.840000   537.499588   2958.655201
 0.845000   552.217680   3043.899016
 0.850000   567.938578   3196.611096
 0.855000   584.183791   3303.677388
 0.860000   600.975352   3437.926045
 0.865000   618.563051   3635.953568
 0.870000   637.334888   3902.643743
 0.875000   657.589489   4212.769061
 0.880000   679.462579   4561.655233
 0.885000   703.206041   4855.038604
 0.890000   728.012965   5407.398109
 0.895000   757.280022   6272.991419
 0.900000   790.742879   7256.423011
 0.905000   829.844252   8587.553783
 0.910000   876.618417   10406.527840
 0.915000   933.909530   12901.521389
 0.920000   1005.633631   16317.123284
 0.925000   1097.080763   20916.551207
 0.930000   1214.799143   26689.026464
 0.935000   1363.971028   32906.212633
 0.940000   1543.861269   37161.366287
 0.945000   1735.584691   34845.872441
 0.950000   1892.319993   25484.702012
 0.955000   1990.431711   26417.765164
 0.960000   2156.497645   59077.743210
 0.965000   2581.209143   100535.988448
 0.970000   3161.857529   101502.046525
 0.975000   3596.229608   59712.951016
 0.980000   3758.987040   15536.315798
 0.985000   3751.592766   -6166.985488
 0.990000   3697.317185   -8871.515782
 0.995000   3662.877608   178808.141510
 1.000000   5485.398600   550200.255030
201 psinorm ommpp() dommpp/dpsiN
 0.000000   60.497037   -18616.473535
 0.005000   -23.029762   -14794.245897
 0.010000   -87.445422   -11633.982917
 0.015000   -139.369591   -9446.613781
 0.020000   -181.911560   -8201.101063
 0.025000   -221.380602   -7388.899681
 0.030000   -255.800557   -6489.441056
 0.035000   -286.275012   -5520.052787
 0.040000   -311.001085   -4646.889615
 0.045000   -332.743908   -4083.102343
 0.050000   -351.832108   -3471.196861
 0.055000   -367.455877   -3016.559081
 0.060000   -381.997699   -2658.713004
 0.065000   -394.043007   -2267.877615
 0.070000   -404.676475   -1948.845511
 0.075000   -413.531462   -1591.137684
 0.080000   -420.587852   -1329.482700
 0.085000   -426.826289   -1134.702624
 0.090000   -431.934878   -872.540455
 0.095000   -435.551694   -578.617468
 0.100000   -437.721053   -409.538120
 0.105000   -439.647075   -287.193283
 0.110000   -440.592986   -86.547594
 0.115000   -440.512551   103.331370
 0.120000   -439.559672   273.030606
 0.125000   -437.782245   526.246749
 0.130000   -434.297205   678.910126
 0.135000   -430.993144   724.426011
 0.140000   -427.052945   855.105340
 0.145000   -422.442090   963.333526
 0.150000   -417.419609   1056.596237
 0.155000   -411.876128   1149.302384
 0.160000   -405.926585   1229.641634
 0.165000   -399.579711   1302.561041
 0.170000   -392.900975   1360.786959
 0.175000   -385.971842   1403.461675
 0.180000   -378.866358   1429.169996
 0.185000   -371.680142   1589.825209
 0.190000   -362.968106   1643.926853
 0.195000   -355.240873   1542.505190
 0.200000   -347.543054   1536.969304
 0.205000   -339.871180   1527.984946
 0.210000   -332.263205   1511.771722
 0.215000   -324.753463   1493.837227
 0.220000   -317.324833   1477.393971
 0.225000   -309.979523   1465.759374
 0.230000   -302.667239   1535.524887
 0.235000   -294.624275   1564.604372
 0.240000   -287.021195   1393.034565
 0.245000   -280.693929   1240.842255
 0.250000   -274.612773   1192.674856
 0.255000   -268.767180   1144.372036
 0.260000   -263.169052   1121.603064
 0.265000   -257.551150   1249.974073
 0.270000   -250.669311   1133.252679
 0.275000   -246.218623   869.044832
 0.280000   -241.978863   832.717528
 0.285000   -237.891448   800.719970
 0.290000   -233.971663   880.376239
 0.295000   -229.087685   881.282796
 0.300000   -225.158835   692.300380
 0.305000   -222.164681   579.689794
 0.310000   -219.361938   541.237405
 0.315000   -216.752307   605.561123
 0.320000   -213.306326   594.703119
 0.325000   -210.805276   424.267946
 0.330000   -209.063647   334.412311
 0.335000   -207.461153   314.316101
 0.340000   -205.920486   405.757346
 0.345000   -203.403580   355.678284
 0.350000   -202.363703   196.970784
 0.355000   -201.433872   175.957591
 0.360000   -200.604127   218.415412
 0.365000   -199.249718   229.077878
 0.370000   -198.313348   134.804681
 0.375000   -197.901671   76.260111
 0.380000   -197.550747   93.126700
 0.385000   -196.970404   148.734936
 0.390000   -196.063398   105.703750
 0.395000   -195.913366   23.298208
 0.400000   -195.830416   21.595789
 0.405000   -195.697408   80.132647
 0.410000   -195.029089   61.430877
 0.415000   -195.083100   -9.994097
 0.420000   -195.129030   -2.385389
 0.425000   -195.106954   78.721674
 0.430000   -194.341814   72.700248
 0.435000   -194.379951   -7.502060
 0.440000   -194.416834   -3.934750
 0.445000   -194.419299   80.228190
 0.450000   -193.614552   83.257813
 0.455000   -193.586721   1.345486
 0.460000   -193.601097   -4.037524
 0.465000   -193.627096   62.435074
 0.470000   -192.976747   45.569656
 0.475000   -193.171399   -40.765532
 0.480000   -193.384402   -39.508145
 0.485000   -193.566481   23.887127
 0.490000   -193.145531   8.839706
 0.495000   -193.478084   -66.648200
 0.500000   -193.812013   -60.225847
 0.505000   -194.080342   2.750205
 0.510000   -193.784511   -9.207573
 0.515000   -194.172418   -81.523486
 0.520000   -194.599745   -83.416698
 0.525000   -195.006585   -52.232153
 0.530000   -195.122067   -60.407063
 0.535000   -195.610655   -100.423602
 0.540000   -196.126303   -101.698778
 0.545000   -196.627643   -56.512021
 0.550000   -196.691423   -70.952072
 0.555000   -197.337164   -133.670757
 0.560000   -198.028131   -140.606346
 0.565000   -198.743227   -105.532247
 0.570000   -199.083453   -126.083822
 0.575000   -200.004066   -191.059064
 0.580000   -200.994044   -205.320886
 0.585000   -202.057274   -184.246136
 0.590000   -202.836505   -201.593014
 0.595000   -204.073205   -258.293885
 0.600000   -205.419444   -278.663655
 0.605000   -206.859841   -283.528370
 0.610000   -208.254728   -304.237319
 0.615000   -209.902214   -346.699424
 0.620000   -211.721722   -375.614050
 0.625000   -213.658355   -397.254092
 0.630000   -215.694263   -428.555677
 0.635000   -217.943912   -464.547214
 0.640000   -220.339735   -492.425924
 0.645000   -222.868171   -522.327688
 0.650000   -225.563012   -560.956512
 0.655000   -228.477736   -591.612757
 0.660000   -231.479140   -614.784699
 0.665000   -234.625583   -644.685674
 0.670000   -237.925996   -689.107501
 0.675000   -241.516658   -732.381075
 0.680000   -245.249807   -759.021398
 0.685000   -249.106872   -796.297240
 0.690000   -253.212779   -850.241858
 0.695000   -257.609291   -932.155251
 0.700000   -262.534332   -986.685647
 0.705000   -267.476147   -1009.738785
 0.710000   -272.631720   -1058.073057
 0.715000   -278.056878   -1118.603856
 0.720000   -283.817758   -1215.406135
 0.725000   -290.210939   -1273.955316
 0.730000   -296.557312   -1297.391999
 0.735000   -303.184859   -1357.420260
 0.740000   -310.131514   -1423.151363
 0.745000   -317.416373   -1518.035076
 0.750000   -325.311865   -1575.045335
 0.755000   -333.166826   -1594.367735
 0.760000   -341.255542   -1651.448821
 0.765000   -349.681314   -1722.053004
 0.770000   -358.476072   -1805.407546
 0.775000   -367.735390   -1896.026776
 0.780000   -377.436340   -1963.870082
 0.785000   -387.374090   -2028.985748
 0.790000   -397.726198   -2114.902670
 0.795000   -408.523117   -2206.017361
 0.800000   -419.786371   -2299.595850
 0.805000   -431.519076   -2381.792919
 0.810000   -443.604300   -2465.999429
 0.815000   -456.179070   -2566.928080
 0.820000   -469.273581   -2672.578338
 0.825000   -482.904853   -2780.975492
 0.830000   -497.083336   -2891.182977
 0.835000   -511.816683   -2991.255387
 0.840000   -526.995890   -3019.279979
 0.845000   -542.009483   -3102.530562
 0.850000   -558.021196   -3254.620489
 0.855000   -574.555688   -3362.609259
 0.860000   -591.647288   -3500.615592
 0.865000   -609.561844   -3705.781968
 0.870000   -628.705108   -3983.071566
 0.875000   -649.392559   -4308.252189
 0.880000   -671.787630   -4676.601336
 0.885000   -696.158573   -4992.871023
 0.890000   -721.716340   -5572.182431
 0.895000   -751.880397   -6468.905516
 0.900000   -786.405395   -7485.647351
 0.905000   -826.736870   -8852.859061
 0.910000   -874.933986   -10709.262762
 0.915000   -933.829498   -13235.447353
 0.920000   -1007.288459   -16677.220928
 0.925000   -1100.601707   -21300.421543
 0.930000   -1220.292675   -27090.343232
 0.935000   -1371.505140   -33322.717119
 0.940000   -1553.519846   -37594.082392
 0.945000   -1747.445964   -35277.247095
 0.950000   -1906.292317   -25895.071511
 0.955000   -2006.396679   -26791.540049
 0.960000   -2174.207717   -59383.112760
 0.965000   -2600.227806   -100734.460851
 0.970000   -3181.552326   -101551.378540
 0.975000   -3615.741592   -59547.345783
 0.980000   -3777.025784   -15135.265591
 0.985000   -3767.094248   6748.516798
 0.990000   -3709.540616   9551.851565
 0.995000   -3671.575732   -178134.050462
 1.000000   -5490.881120   -549588.104867
201 psinorm omevb() domevb/dpsiN
 0.000000   39.456772   104.913641
 0.005000   39.854034   53.990916
 0.010000   39.996681   26.109906
 0.015000   40.115133   22.864662
 0.020000   40.225328   21.397186
 0.025000   40.329104   19.695915
 0.030000   40.422287   17.091669
 0.035000   40.500021   14.185618
 0.040000   40.564143   11.253433
 0.045000   40.612555   8.141066
 0.050000   40.645554   5.261938
 0.055000   40.665175   2.799125
 0.060000   40.673545   0.578275
 0.065000   40.670958   -1.485398
 0.070000   40.658691   -3.328897
 0.075000   40.637669   -5.191722
 0.080000   40.606774   -7.208978
 0.085000   40.565579   -9.297511
 0.090000   40.513799   -11.581630
 0.095000   40.449763   -13.782912
 0.100000   40.375970   -15.647638
 0.105000   40.293286   -17.252693
 0.110000   40.203443   -18.568521
 0.115000   40.107601   -19.760189
 0.120000   40.005841   -20.928808
 0.125000   39.898313   -22.010131
 0.130000   39.785740   -22.914879
 0.135000   39.669164   -23.788127
 0.140000   39.547858   -24.626336
 0.145000   39.422901   -25.491391
 0.150000   39.292944   -26.417483
 0.155000   39.158726   -27.494409
 0.160000   39.018000   -28.825400
 0.165000   38.870472   -30.201727
 0.170000   38.715983   -31.662690
 0.175000   38.553845   -32.948173
 0.180000   38.386501   -34.269413
 0.185000   38.211151   -35.680487
 0.190000   38.029696   -37.021120
 0.195000   37.840940   -38.428650
 0.200000   37.645410   -39.796647
 0.205000   37.442973   -41.339337
 0.210000   37.232017   -42.807495
 0.215000   37.014898   -43.997621
 0.220000   36.792040   -45.000748
 0.225000   36.564891   -45.736005
 0.230000   36.334680   -46.461023
 0.235000   36.100281   -47.542257
 0.240000   35.859258   -48.160689
 0.245000   35.618674   -47.934912
 0.250000   35.379909   -47.475966
 0.255000   35.143914   -46.872027
 0.260000   34.911188   -46.159178
 0.265000   34.682322   -45.450768
 0.270000   34.456681   -44.496678
 0.275000   34.237355   -43.297252
 0.280000   34.023708   -42.387788
 0.285000   33.813478   -41.795569
 0.290000   33.605752   -41.304135
 0.295000   33.400436   -40.616583
 0.300000   33.199587   -40.200104
 0.305000   32.998435   -41.037765
 0.310000   32.789209   -42.729171
 0.315000   32.571143   -44.549200
 0.320000   32.343717   -46.348060
 0.325000   32.107663   -48.150013
 0.330000   31.862217   -50.050958
 0.335000   31.607153   -51.396276
 0.340000   31.348254   -52.050851
 0.345000   31.086645   -52.362149
 0.350000   30.824633   -52.125132
 0.355000   30.565393   -51.809693
 0.360000   30.306536   -51.745823
 0.365000   30.047935   -50.715825
 0.370000   29.799377   -49.023966
 0.375000   29.557696   -47.577164
 0.380000   29.323606   -46.091084
 0.385000   29.096785   -44.689050
 0.390000   28.876715   -43.073005
 0.395000   28.666055   -41.727436
 0.400000   28.459441   -41.337056
 0.405000   28.252684   -41.972307
 0.410000   28.039718   -44.657799
 0.415000   27.806106   -49.541623
 0.420000   27.544302   -55.539715
 0.425000   27.250709   -63.716244
 0.430000   26.907139   -73.706759
 0.435000   26.513641   -84.343504
 0.440000   26.063704   -96.114635
 0.445000   25.552495   -107.143624
 0.450000   24.992268   -115.858699
 0.455000   24.393908   -123.421688
 0.460000   23.758051   -129.209944
 0.465000   23.101809   -131.895023
 0.470000   22.439101   -131.134979
 0.475000   21.790459   -126.980002
 0.480000   21.169301   -120.537004
 0.485000   20.585089   -112.043705
 0.490000   20.048864   -102.093883
 0.495000   19.564150   -91.494891
 0.500000   19.133915   -81.143033
 0.505000   18.752720   -72.526694
 0.510000   18.408648   -66.010788
 0.515000   18.092612   -61.332004
 0.520000   17.795328   -58.357352
 0.525000   17.509038   -57.003691
 0.530000   17.225291   -56.902119
 0.535000   16.940017   -57.030868
 0.540000   16.654982   -56.887723
 0.545000   16.371140   -56.516491
 0.550000   16.089817   -55.856765
 0.555000   15.812572   -54.833096
 0.560000   15.541486   -53.197422
 0.565000   15.280598   -50.961875
 0.570000   15.031868   -48.303213
 0.575000   14.797566   -45.299390
 0.580000   14.578874   -42.224129
 0.585000   14.375324   -39.269676
 0.590000   14.186177   -36.551725
 0.595000   14.009807   -34.258996
 0.600000   13.843587   -32.602482
 0.605000   13.683782   -31.598637
 0.610000   13.527601   -31.125555
 0.615000   13.372527   -31.197645
 0.620000   13.215624   -31.751186
 0.625000   13.055015   -32.605474
 0.630000   12.889569   -33.723292
 0.635000   12.717782   -35.118349
 0.640000   12.538386   -36.637727
 0.645000   12.351405   -38.369358
 0.650000   12.154692   -40.550317
 0.655000   11.945902   -43.299817
 0.660000   11.721694   -46.809462
 0.665000   11.477807   -51.420141
 0.670000   11.207493   -55.812336
 0.675000   10.919684   -59.149398
 0.680000   10.615999   -62.060066
 0.685000   10.299083   -64.133379
 0.690000   9.974665   -65.386484
 0.695000   9.645218   -66.319679
 0.700000   9.311468   -64.989287
 0.705000   8.995325   -62.281372
 0.710000   8.688654   -60.547425
 0.715000   8.389851   -59.002628
 0.720000   8.098628   -57.689480
 0.725000   7.812956   -56.653236
 0.730000   7.532096   -55.516793
 0.735000   7.257788   -54.938972
 0.740000   6.982706   -54.954282
 0.745000   6.708245   -54.908032
 0.750000   6.433626   -55.033159
 0.755000   6.157914   -54.079722
 0.760000   5.892829   -54.148514
 0.765000   5.616429   -55.300012
 0.770000   5.339828   -55.267569
 0.775000   5.063753   -55.139903
 0.780000   4.788429   -55.002946
 0.785000   4.513724   -54.653642
 0.790000   4.241893   -55.910264
 0.795000   3.954621   -58.510993
 0.800000   3.656783   -60.501529
 0.805000   3.349606   -62.142112
 0.810000   3.035362   -62.950083
 0.815000   2.720105   -62.744250
 0.820000   2.407919   -60.963413
 0.825000   2.110471   -57.502961
 0.830000   1.832890   -53.416374
 0.835000   1.576307   -49.382902
 0.840000   1.339061   -45.871023
 0.845000   1.117597   -43.771642
 0.850000   0.901344   -43.058964
 0.855000   0.687007   -43.943405
 0.860000   0.461910   -47.780401
 0.865000   0.209203   -55.225746
 0.870000   -0.090347   -66.539759
 0.875000   -0.456195   -83.009863
 0.880000   -0.920446   -105.051817
 0.885000   -1.506713   -132.408004
 0.890000   -2.244526   -166.844145
 0.895000   -3.175154   -210.186661
 0.900000   -4.346392   -263.016600
 0.905000   -5.805320   -329.742431
 0.910000   -7.643817   -414.506167
 0.915000   -9.950382   -517.739763
 0.920000   -12.821214   -652.345539
 0.925000   -16.473837   -839.177622
 0.930000   -21.212991   -1107.751515
 0.935000   -27.551352   -1536.571672
 0.940000   -36.578707   -2303.219611
 0.945000   -50.583548   -3686.066023
 0.950000   -73.439368   -5597.596384
 0.955000   -106.559512   -6255.006122
 0.960000   -135.989429   -3462.682008
 0.965000   -141.186332   966.725145
 0.970000   -126.322177   3574.095962
 0.975000   -105.445373   4281.587381
 0.980000   -83.506303   4271.882637
 0.985000   -62.726546   3860.414445
 0.990000   -44.902159   3184.304529
 0.995000   -30.883501   2430.238265
 1.000000   -20.599776   1683.251637
201 psinorm omepp() domepp/dpsiN
 0.000000   19.426413   -3.545149
 0.005000   19.406611   -4.375698
 0.010000   19.382656   -4.868632
 0.015000   19.357925   -5.023525
 0.020000   19.332421   -5.177554
 0.025000   19.306149   -5.330704
 0.030000   19.279114   -5.482962
 0.035000   19.251320   -5.634313
 0.040000   19.222771   -5.784742
 0.045000   19.193472   -5.934236
 0.050000   19.163429   -6.082781
 0.055000   19.132645   -6.230362
 0.060000   19.101125   -6.376967
 0.065000   19.068875   -6.522582
 0.070000   19.035899   -6.667195
 0.075000   19.002203   -6.810792
 0.080000   18.967791   -6.953360
 0.085000   18.932669   -7.094888
 0.090000   18.896842   -7.235363
 0.095000   18.860316   -7.374773
 0.100000   18.823095   -7.513105
 0.105000   18.785185   -7.650349
 0.110000   18.746591   -7.786493
 0.115000   18.707320   -7.921526
 0.120000   18.667376   -8.055437
 0.125000   18.626765   -8.188214
 0.130000   18.585494   -8.319847
 0.135000   18.543567   -8.450327
 0.140000   18.500990   -8.579642
 0.145000   18.457770   -8.707782
 0.150000   18.413913   -8.834739
 0.155000   18.369423   -8.960503
 0.160000   18.324308   -9.085063
 0.165000   18.278572   -9.208412
 0.170000   18.232223   -9.330539
 0.175000   18.185267   -9.451438
 0.180000   18.137709   -9.571098
 0.185000   18.089556   -9.689512
 0.190000   18.040814   -9.806673
 0.195000   17.991489   -9.922571
 0.200000   17.941588   -10.037200
 0.205000   17.891117   -10.150552
 0.210000   17.840083   -10.262621
 0.215000   17.788491   -10.373399
 0.220000   17.736349   -10.482879
 0.225000   17.683662   -10.591056
 0.230000   17.630438   -10.697922
 0.235000   17.576683   -10.803473
 0.240000   17.522403   -10.907702
 0.245000   17.467606   -11.010603
 0.250000   17.412297   -11.112172
 0.255000   17.356484   -11.212404
 0.260000   17.300173   -11.311292
 0.265000   17.243371   -11.408834
 0.270000   17.186085   -11.505023
 0.275000   17.128321   -11.599857
 0.280000   17.070087   -11.693331
 0.285000   17.011388   -11.785441
 0.290000   16.952232   -11.876184
 0.295000   16.892626   -11.965557
 0.300000   16.832577   -12.053556
 0.305000   16.772090   -12.140178
 0.310000   16.711175   -12.225421
 0.315000   16.649836   -12.309282
 0.320000   16.588082   -12.391760
 0.325000   16.525919   -12.472851
 0.330000   16.463353   -12.552555
 0.335000   16.400393   -12.630869
 0.340000   16.337045   -12.707792
 0.345000   16.273315   -12.783324
 0.350000   16.209211   -12.857463
 0.355000   16.144741   -12.930208
 0.360000   16.079909   -13.001558
 0.365000   16.014725   -13.071514
 0.370000   15.949194   -13.140076
 0.375000   15.883324   -13.207243
 0.380000   15.817122   -13.273015
 0.385000   15.750594   -13.337393
 0.390000   15.683748   -13.400379
 0.395000   15.616590   -13.461972
 0.400000   15.549128   -13.522173
 0.405000   15.481369   -13.580985
 0.410000   15.413318   -13.638408
 0.415000   15.344984   -13.694445
 0.420000   15.276374   -13.749096
 0.425000   15.207494   -13.802365
 0.430000   15.138350   -13.854252
 0.435000   15.068951   -13.904762
 0.440000   14.999303   -13.953895
 0.445000   14.929412   -14.001656
 0.450000   14.859286   -14.048047
 0.455000   14.788932   -14.093071
 0.460000   14.718355   -14.136732
 0.465000   14.647564   -14.179033
 0.470000   14.576565   -14.219977
 0.475000   14.505364   -14.259570
 0.480000   14.433969   -14.297814
 0.485000   14.362386   -14.334714
 0.490000   14.290622   -14.370274
 0.495000   14.218684   -14.404499
 0.500000   14.146577   -14.437394
 0.505000   14.074310   -14.468963
 0.510000   14.001888   -14.499212
 0.515000   13.929318   -14.528145
 0.520000   13.856606   -14.555769
 0.525000   13.783760   -14.582088
 0.530000   13.710785   -14.607108
 0.535000   13.637689   -14.630835
 0.540000   13.564477   -14.653275
 0.545000   13.491156   -14.674434
 0.550000   13.417733   -14.694319
 0.555000   13.344213   -14.712935
 0.560000   13.270603   -14.730290
 0.565000   13.196910   -14.746390
 0.570000   13.123139   -14.761241
 0.575000   13.049298   -14.774851
 0.580000   12.975391   -14.787227
 0.585000   12.901425   -14.798376
 0.590000   12.827407   -14.808305
 0.595000   12.753342   -14.817022
 0.600000   12.679237   -14.824534
 0.605000   12.605097   -14.830850
 0.610000   12.530928   -14.835977
 0.615000   12.456737   -14.839922
 0.620000   12.382529   -14.842695
 0.625000   12.308310   -14.844303
 0.630000   12.234086   -14.844754
 0.635000   12.159863   -14.844058
 0.640000   12.085645   -14.842223
 0.645000   12.011440   -14.839257
 0.650000   11.937253   -14.835170
 0.655000   11.863089   -14.829971
 0.660000   11.788953   -14.823669
 0.665000   11.714852   -14.816275
 0.670000   11.640790   -14.807798
 0.675000   11.566774   -14.798250
 0.680000   11.492808   -14.787640
 0.685000   11.418898   -14.775982
 0.690000   11.345048   -14.763289
 0.695000   11.271265   -14.749574
 0.700000   11.197552   -14.734854
 0.705000   11.123916   -14.719148
 0.710000   11.050361   -14.702477
 0.715000   10.976891   -14.684867
 0.720000   10.903512   -14.666348
 0.725000   10.830228   -14.646960
 0.730000   10.757043   -14.626748
 0.735000   10.683960   -14.605774
 0.740000   10.610985   -14.584114
 0.745000   10.538119   -14.561865
 0.750000   10.465366   -14.539153
 0.755000   10.392728   -14.516142
 0.760000   10.320205   -14.493040
 0.765000   10.247797   -14.470119
 0.770000   10.175504   -14.447730
 0.775000   10.103320   -14.426320
 0.780000   10.031240   -14.406465
 0.785000   9.959255   -14.388892
 0.790000   9.887352   -14.374521
 0.795000   9.815510   -14.364492
 0.800000   9.743707   -14.360205
 0.805000   9.671908   -14.363340
 0.810000   9.600073   -14.375860
 0.815000   9.528150   -14.399958
 0.820000   9.456074   -14.437933
 0.825000   9.383770   -14.491896
 0.830000   9.311155   -14.563245
 0.835000   9.238138   -14.651711
 0.840000   9.164638   -14.753755
 0.845000   9.090600   -14.859903
 0.850000   9.016039   -14.950429
 0.855000   8.941096   -14.988466
 0.860000   8.866154   -14.909145
 0.865000   8.792004   -14.602655
 0.870000   8.720127   -13.888063
 0.875000   8.653124   -12.473266
 0.880000   8.595395   -9.894286
 0.885000   8.554181   -5.424415
 0.890000   8.541150   2.059823
 0.895000   8.574779   14.272565
 0.900000   8.683876   33.792260
 0.905000   8.912702   64.437154
 0.910000   9.328248   111.771245
 0.915000   10.030414   183.813798
 0.920000   11.166386   292.247895
 0.925000   12.952893   455.307286
 0.930000   15.719459   706.434747
 0.935000   20.017241   1120.067186
 0.940000   26.920130   1870.503507
 0.945000   38.722276   3254.691368
 0.950000   59.467044   5187.226884
 0.955000   90.594545   5881.231238
 0.960000   118.279356   3157.312458
 0.965000   122.167669   -1165.197548
 0.970000   106.627381   -3623.427977
 0.975000   85.933389   -4115.982149
 0.980000   65.467559   -3870.832429
 0.985000   47.225065   -3278.883135
 0.990000   32.678728   -2503.968745
 0.995000   22.185378   -1756.147217
 1.000000   15.117256   -1071.101474
201 psinorm kpol(km/s/T) dkpol/dpsiN
 0.000000   0.001101   120.615520
 0.005000   0.498634   78.397300
 0.010000   0.785074   55.645373
 0.015000   1.055087   53.910590
 0.020000   1.324180   53.864154
 0.025000   1.593729   53.478981
 0.030000   1.858970   52.052093
 0.035000   2.114250   50.192184
 0.040000   2.360892   48.200196
 0.045000   2.596252   45.929849
 0.050000   2.820191   43.803812
 0.055000   3.034290   42.019529
 0.060000   3.240386   40.466700
 0.065000   3.438957   39.017926
 0.070000   3.630565   37.647221
 0.075000   3.815429   36.133341
 0.080000   3.991898   34.343231
 0.085000   4.158861   32.339536
 0.090000   4.315294   30.158240
 0.095000   4.460444   28.077833
 0.100000   4.596072   26.236252
 0.105000   4.722806   24.642252
 0.110000   4.842495   23.378732
 0.115000   4.956594   22.396571
 0.120000   5.066460   21.796520
 0.125000   5.174559   21.460608
 0.130000   5.281066   21.254215
 0.135000   5.387101   21.031726
 0.140000   5.491384   20.709983
 0.145000   5.594201   20.235539
 0.150000   5.693739   19.425417
 0.155000   5.788455   18.282855
 0.160000   5.876568   16.885604
 0.165000   5.957311   15.341822
 0.170000   6.029986   13.586691
 0.175000   6.093178   11.731976
 0.180000   6.147306   9.799051
 0.185000   6.191168   7.932376
 0.190000   6.226629   6.164672
 0.195000   6.252815   4.421414
 0.200000   6.270844   2.871213
 0.205000   6.281527   1.363100
 0.210000   6.284475   0.079226
 0.215000   6.282320   -1.118322
 0.220000   6.273291   -2.439149
 0.225000   6.257928   -3.713566
 0.230000   6.236156   -5.132141
 0.235000   6.206607   -6.568947
 0.240000   6.170466   -8.043958
 0.245000   6.126167   -9.693934
 0.250000   6.073527   -11.249523
 0.255000   6.013672   -12.847622
 0.260000   5.945051   -14.511739
 0.265000   5.868554   -16.080572
 0.270000   5.784245   -17.763275
 0.275000   5.690922   -19.496388
 0.280000   5.589281   -21.261535
 0.285000   5.478306   -23.215921
 0.290000   5.357122   -25.196459
 0.295000   5.226342   -27.263897
 0.300000   5.084483   -29.519183
 0.305000   4.931150   -31.707190
 0.310000   4.767411   -33.918098
 0.315000   4.591969   -36.258459
 0.320000   4.404826   -38.438044
 0.325000   4.207588   -40.434987
 0.330000   4.000477   -42.239301
 0.335000   3.785195   -43.583240
 0.340000   3.564644   -44.536440
 0.345000   3.339831   -45.195613
 0.350000   3.112688   -45.286061
 0.355000   2.886970   -45.085629
 0.360000   2.661832   -44.998778
 0.365000   2.436983   -44.923876
 0.370000   2.212593   -44.964512
 0.375000   1.987338   -45.269526
 0.380000   1.759898   -45.880427
 0.385000   1.528533   -46.794394
 0.390000   1.291954   -47.825256
 0.395000   1.050281   -48.851682
 0.400000   0.803437   -50.056945
 0.405000   0.549711   -51.858545
 0.410000   0.284851   -55.584071
 0.415000   -0.006129   -61.594651
 0.420000   -0.331095   -69.230617
 0.425000   -0.698436   -78.433602
 0.430000   -1.115431   -88.968080
 0.435000   -1.588116   -100.688093
 0.440000   -2.122312   -113.602657
 0.445000   -2.724143   -125.579253
 0.450000   -3.378105   -135.034749
 0.455000   -4.074490   -142.222856
 0.460000   -4.800333   -146.599817
 0.465000   -5.540489   -147.559626
 0.470000   -6.275929   -144.003838
 0.475000   -6.980527   -136.368532
 0.480000   -7.639615   -126.258758
 0.485000   -8.243115   -114.286823
 0.490000   -8.782483   -101.135004
 0.495000   -9.254465   -87.243492
 0.500000   -9.654918   -73.648872
 0.505000   -9.990953   -62.405077
 0.510000   -10.278969   -54.036413
 0.515000   -10.531317   -48.245943
 0.520000   -10.761428   -44.876557
 0.525000   -10.980083   -43.747122
 0.530000   -11.198899   -44.304015
 0.535000   -11.423123   -45.145531
 0.540000   -11.650355   -45.553676
 0.545000   -11.878660   -45.564934
 0.550000   -12.106004   -45.084337
 0.555000   -12.329503   -43.935631
 0.560000   -12.545360   -41.724238
 0.565000   -12.746746   -38.487647
 0.570000   -12.930237   -34.478395
 0.575000   -13.091530   -29.786067
 0.580000   -13.228097   -24.772893
 0.585000   -13.339259   -19.657739
 0.590000   -13.424675   -14.641490
 0.595000   -13.485673   -10.020304
 0.600000   -13.524878   -6.041764
 0.605000   -13.546091   -2.678767
 0.610000   -13.551665   0.189558
 0.615000   -13.544196   2.506824
 0.620000   -13.526597   4.314181
 0.625000   -13.501054   5.883845
 0.630000   -13.467759   7.385443
 0.635000   -13.427199   8.766814
 0.640000   -13.380091   10.094087
 0.645000   -13.326258   11.434508
 0.650000   -13.265746   12.740895
 0.655000   -13.198849   13.955852
 0.660000   -13.126187   15.240580
 0.665000   -13.046444   16.829606
 0.670000   -12.957891   18.996087
 0.675000   -12.856483   22.269287
 0.680000   -12.735198   26.632788
 0.685000   -12.590155   31.818558
 0.690000   -12.417013   37.756773
 0.695000   -12.212587   44.242909
 0.700000   -11.974583   51.201015
 0.705000   -11.700577   57.875372
 0.710000   -11.395830   62.940203
 0.715000   -11.071175   65.917769
 0.720000   -10.736652   66.702152
 0.725000   -10.404153   65.087754
 0.730000   -10.085774   60.943295
 0.735000   -9.794721   54.619095
 0.740000   -9.539584   47.180187
 0.745000   -9.322919   39.497093
 0.750000   -9.144613   32.168383
 0.755000   -9.001235   25.695503
 0.760000   -8.887658   20.314631
 0.765000   -8.798089   16.247355
 0.770000   -8.725184   13.192987
 0.775000   -8.666159   10.388467
 0.780000   -8.621299   7.248744
 0.785000   -8.593671   3.271929
 0.790000   -8.588580   -1.960717
 0.795000   -8.613278   -8.513902
 0.800000   -8.673719   -15.991259
 0.805000   -8.773191   -23.771844
 0.810000   -8.911438   -31.157169
 0.815000   -9.084763   -37.460053
 0.820000   -9.286038   -41.869799
 0.825000   -9.503461   -44.151066
 0.830000   -9.727549   -44.647151
 0.835000   -9.949932   -43.667325
 0.840000   -10.164222   -41.607110
 0.845000   -10.366003   -38.757255
 0.850000   -10.551795   -35.450350
 0.855000   -10.720507   -32.447630
 0.860000   -10.876271   -30.015556
 0.865000   -11.020662   -27.868954
 0.870000   -11.154960   -25.913792
 0.875000   -11.279800   -24.025629
 0.880000   -11.395217   -21.847479
 0.885000   -11.498275   -19.130543
 0.890000   -11.586522   -16.012581
 0.895000   -11.658401   -12.674176
 0.900000   -11.713264   -9.061181
 0.905000   -11.749013   -5.128261
 0.910000   -11.764546   -0.957679
 0.915000   -11.758589   3.574010
 0.920000   -11.728806   8.747787
 0.925000   -11.671112   15.012461
 0.930000   -11.578682   24.160125
 0.935000   -11.429510   37.688413
 0.940000   -11.201798   55.279160
 0.945000   -10.876719   78.181383
 0.950000   -10.419984   109.878440
 0.955000   -9.777934   150.217226
 0.960000   -8.917812   197.187780
 0.965000   -7.806057   253.723426
 0.970000   -6.380577   316.183207
 0.975000   -4.644224   380.087339
 0.980000   -2.579704   444.149687
 0.985000   -0.202728   500.417158
 0.990000   2.424468   538.781943
 0.995000   5.185092   543.526205
 1.000000   7.859730   526.328969
201 psinorm omghb() domghb/dpsiN
 0.000000   -0.000230   0.023622
 0.005000   -0.000273   -0.040593
 0.010000   -0.000636   -0.056262
 0.015000   -0.000835   -0.035258
 0.020000   -0.000989   -0.025112
 0.025000   -0.001086   -0.012722
 0.030000   -0.001116   0.010498
 0.035000   -0.000981   0.039711
 0.040000   -0.000719   0.068917
 0.045000   -0.000292   0.088236
 0.050000   0.000163   0.093381
 0.055000   0.000642   0.097979
 0.060000   0.001143   0.099512
 0.065000   0.001637   0.106397
 0.070000   0.002207   0.132049
 0.075000   0.002957   0.151871
 0.080000   0.003726   0.163861
 0.085000   0.004596   0.182270
 0.090000   0.005549   0.196508
 0.095000   0.006561   0.200986
 0.100000   0.007558   0.205442
 0.105000   0.008615   0.205975
 0.110000   0.009618   0.190780
 0.115000   0.010523   0.184668
 0.120000   0.011465   0.190981
 0.125000   0.012433   0.205972
 0.130000   0.013525   0.197035
 0.135000   0.014403   0.181929
 0.140000   0.015344   0.193230
 0.145000   0.016335   0.217577
 0.150000   0.017520   0.234978
 0.155000   0.018685   0.259694
 0.160000   0.020117   0.276284
 0.165000   0.021448   0.291270
 0.170000   0.023029   0.310814
 0.175000   0.024556   0.310640
 0.180000   0.026136   0.317097
 0.185000   0.027727   0.302470
 0.190000   0.029160   0.324569
 0.195000   0.030973   0.375493
 0.200000   0.032915   0.385221
 0.205000   0.034825   0.356727
 0.210000   0.036483   0.326730
 0.215000   0.038092   0.345963
 0.220000   0.039942   0.371938
 0.225000   0.041812   0.317203
 0.230000   0.043114   0.271648
 0.235000   0.044528   0.247901
 0.240000   0.045593   0.217711
 0.245000   0.046705   0.201644
 0.250000   0.047610   0.185348
 0.255000   0.048559   0.058672
 0.260000   0.048196   -0.033770
 0.265000   0.048221   0.009328
 0.270000   0.048290   0.019124
 0.275000   0.048412   0.023678
 0.280000   0.048527   0.016736
 0.285000   0.048580   0.025887
 0.290000   0.048785   0.052173
 0.295000   0.049101   0.119642
 0.300000   0.049982   0.218428
 0.305000   0.051286   0.326493
 0.310000   0.053247   0.426750
 0.315000   0.055553   0.588399
 0.320000   0.059131   0.618682
 0.325000   0.061740   0.507357
 0.330000   0.064204   0.448944
 0.335000   0.066230   0.346733
 0.340000   0.067672   0.378897
 0.345000   0.070018   0.254349
 0.350000   0.070215   0.034845
 0.355000   0.070367   0.024403
 0.360000   0.070459   -0.014956
 0.365000   0.070217   -0.064722
 0.370000   0.069812   -0.026280
 0.375000   0.069955   -0.215714
 0.380000   0.067655   -0.358645
 0.385000   0.066368   -0.194567
 0.390000   0.065709   -0.111737
 0.395000   0.065251   -0.043913
 0.400000   0.065270   0.045002
 0.405000   0.065701   0.427826
 0.410000   0.069548   1.031871
 0.415000   0.076020   1.482393
 0.420000   0.084372   2.057688
 0.425000   0.096596   2.585452
 0.430000   0.110227   2.671577
 0.435000   0.123312   2.792021
 0.440000   0.138147   2.996055
 0.445000   0.153273   2.861458
 0.450000   0.166761   2.622326
 0.455000   0.179496   2.040348
 0.460000   0.187165   1.153309
 0.465000   0.191029   0.453301
 0.470000   0.191698   -0.246697
 0.475000   0.188562   -1.015476
 0.480000   0.181543   -1.945601
 0.485000   0.169106   -2.541402
 0.490000   0.156129   -2.596966
 0.495000   0.143136   -2.495791
 0.500000   0.131171   -2.286753
 0.505000   0.120269   -2.015337
 0.510000   0.111018   -1.596288
 0.515000   0.104306   -0.936812
 0.520000   0.101650   -0.366475
 0.525000   0.100641   -0.091613
 0.530000   0.100734   0.060722
 0.535000   0.101248   0.096676
 0.540000   0.101700   0.107139
 0.545000   0.102320   0.026652
 0.550000   0.101967   -0.166988
 0.555000   0.100650   -0.341491
 0.560000   0.098552   -0.488995
 0.565000   0.095760   -0.607820
 0.570000   0.092474   -0.737145
 0.575000   0.088389   -0.838700
 0.580000   0.084087   -0.822621
 0.585000   0.080162   -0.760312
 0.590000   0.076484   -0.678871
 0.595000   0.073374   -0.540022
 0.600000   0.071084   -0.355792
 0.605000   0.069816   -0.176657
 0.610000   0.069317   -0.013356
 0.615000   0.069682   0.186252
 0.620000   0.071179   0.299465
 0.625000   0.072677   0.342349
 0.630000   0.074603   0.407060
 0.635000   0.076747   0.470557
 0.640000   0.079309   0.555567
 0.645000   0.082303   0.749645
 0.650000   0.086805   0.875533
 0.655000   0.091058   0.976392
 0.660000   0.096569   1.209449
 0.665000   0.103153   1.387434
 0.670000   0.110443   1.400496
 0.675000   0.117158   1.450268
 0.680000   0.124946   1.032969
 0.685000   0.127488   0.260302
 0.690000   0.127549   0.029798
 0.695000   0.127786   -0.063288
 0.700000   0.126916   -0.276042
 0.705000   0.125025   -0.237710
 0.710000   0.124539   -0.471187
 0.715000   0.120313   -0.775714
 0.720000   0.116782   -0.449045
 0.725000   0.115823   -0.163791
 0.730000   0.115144   -0.078429
 0.735000   0.115039   -0.114219
 0.740000   0.114002   -0.170383
 0.745000   0.113335   0.127277
 0.750000   0.115274   0.242626
 0.755000   0.115761   0.137028
 0.760000   0.116645   0.139373
 0.765000   0.117155   -0.118289
 0.770000   0.115462   -0.208841
 0.775000   0.115066   0.188508
 0.780000   0.117347   0.316626
 0.785000   0.118233   0.305016
 0.790000   0.120397   0.514676
 0.795000   0.123379   0.695511
 0.800000   0.127352   0.840069
 0.805000   0.131780   0.594911
 0.810000   0.133301   0.081339
 0.815000   0.132593   -0.309439
 0.820000   0.130207   -0.734544
 0.825000   0.125248   -1.156236
 0.830000   0.118645   -1.308703
 0.835000   0.112161   -1.305449
 0.840000   0.105590   -1.068798
 0.845000   0.101473   -0.525256
 0.850000   0.100338   0.128834
 0.855000   0.102761   0.996746
 0.860000   0.110305   2.319000
 0.865000   0.125951   3.148209
 0.870000   0.141787   4.143678
 0.875000   0.167388   5.981409
 0.880000   0.201601   7.649666
 0.885000   0.243885   9.210453
 0.890000   0.293706   11.524299
 0.895000   0.359128   11.966047
 0.900000   0.413366   11.764904
 0.905000   0.476777   12.671935
 0.910000   0.540086   12.254912
 0.915000   0.599326   11.040437
 0.920000   0.650490   12.331425
 0.925000   0.722640   9.129671
 0.930000   0.741787   3.807126
 0.935000   0.760711   3.573343
 0.940000   0.777520   2.057267
 0.945000   0.781284   -1.333603
 0.950000   0.764184   -1.313897
 0.955000   0.768145   -15.852234
 0.960000   0.605662   -39.058408
 0.965000   0.377561   -54.245003
 0.970000   0.063212   -71.020408
 0.975000   -0.332643   -83.294171
 0.980000   -0.769730   -79.646768
 0.985000   -1.129111   -61.365443
 0.990000   -1.383385   -24.247696
 0.995000   -1.371588   24.050353
 1.000000   -1.142881   67.432346
201 psinorm nz1(10^20/m^3) dnz1/dpsiN
 0.000000   0.014895   0.000000
 0.005000   0.014895   0.000015
 0.010000   0.014895   0.000029
 0.015000   0.014896   0.000044
 0.020000   0.014896   0.000057
 0.025000   0.014896   0.000070
 0.030000   0.014897   0.000082
 0.035000   0.014897   0.000092
 0.040000   0.014897   0.000101
 0.045000   0.014898   0.000107
 0.050000   0.014899   0.000112
 0.055000   0.014899   0.000114
 0.060000   0.014900   0.000114
 0.065000   0.014900   0.000111
 0.070000   0.014901   0.000105
 0.075000   0.014901   0.000096
 0.080000   0.014902   0.000083
 0.085000   0.014902   0.000068
 0.090000   0.014902   0.000049
 0.095000   0.014903   0.000027
 0.100000   0.014903   0.000001
 0.105000   0.014903   -0.000028
 0.110000   0.014902   -0.000061
 0.115000   0.014902   -0.000096
 0.120000   0.014901   -0.000134
 0.125000   0.014901   -0.000175
 0.130000   0.014900   -0.000219
 0.135000   0.014898   -0.000265
 0.140000   0.014897   -0.000313
 0.145000   0.014895   -0.000363
 0.150000   0.014893   -0.000414
 0.155000   0.014891   -0.000467
 0.160000   0.014889   -0.000520
 0.165000   0.014886   -0.000574
 0.170000   0.014883   -0.000629
 0.175000   0.014880   -0.000684
 0.180000   0.014876   -0.000738
 0.185000   0.014872   -0.000792
 0.190000   0.014868   -0.000844
 0.195000   0.014864   -0.000895
 0.200000   0.014859   -0.000944
 0.205000   0.014854   -0.000990
 0.210000   0.014849   -0.001033
 0.215000   0.014844   -0.001074
 0.220000   0.014839   -0.001111
 0.225000   0.014833   -0.001146
 0.230000   0.014827   -0.001178
 0.235000   0.014821   -0.001205
 0.240000   0.014815   -0.001228
 0.245000   0.014809   -0.001245
 0.250000   0.014803   -0.001258
 0.255000   0.014796   -0.001264
 0.260000   0.014790   -0.001263
 0.265000   0.014784   -0.001255
 0.270000   0.014778   -0.001239
 0.275000   0.014771   -0.001214
 0.280000   0.014765   -0.001180
 0.285000   0.014760   -0.001137
 0.290000   0.014754   -0.001084
 0.295000   0.014749   -0.001021
 0.300000   0.014744   -0.000949
 0.305000   0.014739   -0.000868
 0.310000   0.014735   -0.000778
 0.315000   0.014731   -0.000679
 0.320000   0.014728   -0.000573
 0.325000   0.014726   -0.000460
 0.330000   0.014724   -0.000340
 0.335000   0.014722   -0.000214
 0.340000   0.014722   -0.000081
 0.345000   0.014722   0.000059
 0.350000   0.014722   0.000207
 0.355000   0.014724   0.000364
 0.360000   0.014726   0.000528
 0.365000   0.014729   0.000700
 0.370000   0.014733   0.000879
 0.375000   0.014738   0.001063
 0.380000   0.014743   0.001250
 0.385000   0.014750   0.001439
 0.390000   0.014758   0.001628
 0.395000   0.014766   0.001813
 0.400000   0.014776   0.001995
 0.405000   0.014786   0.002168
 0.410000   0.014798   0.002331
 0.415000   0.014810   0.002484
 0.420000   0.014823   0.002624
 0.425000   0.014836   0.002752
 0.430000   0.014850   0.002867
 0.435000   0.014865   0.002968
 0.440000   0.014880   0.003056
 0.445000   0.014895   0.003135
 0.450000   0.014911   0.003206
 0.455000   0.014927   0.003268
 0.460000   0.014944   0.003320
 0.465000   0.014960   0.003362
 0.470000   0.014977   0.003393
 0.475000   0.014994   0.003407
 0.480000   0.015011   0.003404
 0.485000   0.015028   0.003382
 0.490000   0.015045   0.003341
 0.495000   0.015062   0.003280
 0.500000   0.015078   0.003197
 0.505000   0.015094   0.003094
 0.510000   0.015109   0.002969
 0.515000   0.015123   0.002824
 0.520000   0.015137   0.002658
 0.525000   0.015150   0.002472
 0.530000   0.015162   0.002265
 0.535000   0.015173   0.002037
 0.540000   0.015182   0.001787
 0.545000   0.015191   0.001514
 0.550000   0.015197   0.001218
 0.555000   0.015203   0.000898
 0.560000   0.015206   0.000556
 0.565000   0.015208   0.000191
 0.570000   0.015208   -0.000197
 0.575000   0.015206   -0.000606
 0.580000   0.015202   -0.001034
 0.585000   0.015196   -0.001479
 0.590000   0.015187   -0.001938
 0.595000   0.015177   -0.002409
 0.600000   0.015163   -0.002890
 0.605000   0.015148   -0.003383
 0.610000   0.015130   -0.003888
 0.615000   0.015109   -0.004407
 0.620000   0.015085   -0.004946
 0.625000   0.015059   -0.005504
 0.630000   0.015030   -0.006078
 0.635000   0.014999   -0.006668
 0.640000   0.014964   -0.007273
 0.645000   0.014926   -0.007890
 0.650000   0.014885   -0.008520
 0.655000   0.014841   -0.009155
 0.660000   0.014793   -0.009801
 0.665000   0.014743   -0.010486
 0.670000   0.014688   -0.011235
 0.675000   0.014630   -0.012067
 0.680000   0.014568   -0.013032
 0.685000   0.014500   -0.014110
 0.690000   0.014427   -0.015224
 0.695000   0.014348   -0.016362
 0.700000   0.014263   -0.017512
 0.705000   0.014173   -0.018651
 0.710000   0.014077   -0.019787
 0.715000   0.013975   -0.020852
 0.720000   0.013868   -0.021738
 0.725000   0.013757   -0.022430
 0.730000   0.013644   -0.022922
 0.735000   0.013528   -0.023190
 0.740000   0.013412   -0.023202
 0.745000   0.013296   -0.022923
 0.750000   0.013183   -0.022380
 0.755000   0.013072   -0.021630
 0.760000   0.012966   -0.020712
 0.765000   0.012865   -0.019677
 0.770000   0.012770   -0.018550
 0.775000   0.012680   -0.017386
 0.780000   0.012596   -0.016311
 0.785000   0.012517   -0.015353
 0.790000   0.012442   -0.014486
 0.795000   0.012372   -0.013717
 0.800000   0.012305   -0.013046
 0.805000   0.012241   -0.012458
 0.810000   0.012180   -0.011912
 0.815000   0.012122   -0.011367
 0.820000   0.012067   -0.010817
 0.825000   0.012014   -0.010270
 0.830000   0.011964   -0.009731
 0.835000   0.011917   -0.009204
 0.840000   0.011872   -0.008700
 0.845000   0.011830   -0.008229
 0.850000   0.011790   -0.007797
 0.855000   0.011752   -0.007415
 0.860000   0.011716   -0.007099
 0.865000   0.011681   -0.006867
 0.870000   0.011647   -0.006720
 0.875000   0.011614   -0.006653
 0.880000   0.011580   -0.006682
 0.885000   0.011547   -0.006834
 0.890000   0.011512   -0.007142
 0.895000   0.011475   -0.007718
 0.900000   0.011435   -0.008598
 0.905000   0.011389   -0.009839
 0.910000   0.011336   -0.011632
 0.915000   0.011273   -0.014186
 0.920000   0.011195   -0.017800
 0.925000   0.011095   -0.023283
 0.930000   0.010962   -0.031141
 0.935000   0.010784   -0.041731
 0.940000   0.010544   -0.055884
 0.945000   0.010225   -0.074068
 0.950000   0.009804   -0.096104
 0.955000   0.009264   -0.121772
 0.960000   0.008586   -0.147413
 0.965000   0.007790   -0.167371
 0.970000   0.006912   -0.177958
 0.975000   0.006010   -0.176655
 0.980000   0.005146   -0.163715
 0.985000   0.004373   -0.142818
 0.990000   0.003718   -0.118745
 0.995000   0.003185   -0.096486
 1.000000   0.002753   -0.076580
201 psinorm vtor1(km/s) dvtor1/dpsiN
 0.000000   102.960656   520.940446
 0.005000   104.981239   287.292550
 0.010000   105.833582   149.938184
 0.015000   106.480620   118.170832
 0.020000   107.015290   99.568642
 0.025000   107.476307   87.333115
 0.030000   107.888621   78.524721
 0.035000   108.261554   70.901041
 0.040000   108.597631   64.359632
 0.045000   108.905150   58.940787
 0.050000   109.187039   53.932693
 0.055000   109.444477   49.118547
 0.060000   109.678225   44.690310
 0.065000   109.891380   40.672319
 0.070000   110.084948   36.738904
 0.075000   110.258769   32.913476
 0.080000   110.414083   29.321281
 0.085000   110.551982   25.853676
 0.090000   110.672620   22.353261
 0.095000   110.775515   18.922910
 0.100000   110.861849   15.658773
 0.105000   110.932103   12.357379
 0.110000   110.985422   9.039848
 0.115000   111.022501   5.789379
 0.120000   111.043316   2.522570
 0.125000   111.047727   -0.861789
 0.130000   111.034698   -4.392493
 0.135000   111.003802   -8.015460
 0.140000   110.954544   -11.745564
 0.145000   110.886346   -15.586994
 0.150000   110.798674   -19.485415
 0.155000   110.691492   -23.401523
 0.160000   110.564659   -27.394231
 0.165000   110.417550   -31.410330
 0.170000   110.250555   -35.354674
 0.175000   110.064003   -39.248850
 0.180000   109.858067   -43.092077
 0.185000   109.633082   -46.812822
 0.190000   109.389939   -50.342473
 0.195000   109.129657   -53.628389
 0.200000   108.853655   -56.645376
 0.205000   108.563204   -59.368120
 0.210000   108.259973   -61.763237
 0.215000   107.945571   -63.849813
 0.220000   107.621475   -65.547826
 0.225000   107.290093   -66.763613
 0.230000   106.953839   -67.793505
 0.235000   106.612158   -68.791696
 0.240000   106.265922   -69.610894
 0.245000   105.916049   -70.249923
 0.250000   105.563423   -70.684741
 0.255000   105.209202   -70.750538
 0.260000   104.855918   -70.685132
 0.265000   104.502350   -70.726386
 0.270000   104.148654   -70.760253
 0.275000   103.794748   -70.828222
 0.280000   103.440372   -70.981700
 0.285000   103.084931   -71.291850
 0.290000   102.727453   -71.854687
 0.295000   102.366384   -72.557598
 0.300000   102.001877   -73.199658
 0.305000   101.634387   -73.729876
 0.310000   101.264578   -74.108184
 0.315000   100.893306   -74.276188
 0.320000   100.521816   -74.308011
 0.325000   100.150225   -74.263285
 0.330000   99.779184   -74.101442
 0.335000   99.409211   -73.847344
 0.340000   99.040710   -73.531144
 0.345000   98.673900   -73.111125
 0.350000   98.309599   -72.643854
 0.355000   97.947461   -72.220563
 0.360000   97.587393   -71.812475
 0.365000   97.229336   -71.416072
 0.370000   96.873232   -71.022977
 0.375000   96.519107   -70.612532
 0.380000   96.167107   -70.156227
 0.385000   95.817544   -69.634657
 0.390000   95.470761   -69.039781
 0.395000   95.127146   -68.391158
 0.400000   94.786849   -67.750960
 0.405000   94.449637   -67.324629
 0.410000   94.113603   -67.472597
 0.415000   93.774911   -68.297241
 0.420000   93.430630   -69.688975
 0.425000   93.078021   -71.587681
 0.430000   92.714754   -73.916397
 0.435000   92.338857   -76.867056
 0.440000   91.946083   -80.295847
 0.445000   91.535899   -83.554924
 0.450000   91.110534   -86.507552
 0.455000   90.670823   -89.230055
 0.460000   90.218233   -91.604081
 0.465000   89.754782   -93.696513
 0.470000   89.281268   -95.323842
 0.475000   88.801544   -95.974339
 0.480000   88.321525   -95.664208
 0.485000   87.844902   -94.629345
 0.490000   87.375231   -92.928716
 0.495000   86.915615   -90.726710
 0.500000   86.467964   -88.300201
 0.505000   86.032613   -85.828485
 0.510000   85.609679   -83.366291
 0.515000   85.198950   -80.949302
 0.520000   84.800186   -78.583586
 0.525000   84.413114   -76.304180
 0.530000   84.037144   -74.167275
 0.535000   83.671441   -72.110625
 0.540000   83.316038   -70.116268
 0.545000   82.970278   -68.265165
 0.550000   82.633387   -66.587149
 0.555000   82.304407   -65.133701
 0.560000   81.982050   -63.967822
 0.565000   81.664729   -63.059052
 0.570000   81.351459   -62.424779
 0.575000   81.040481   -62.149895
 0.580000   80.729960   -62.259788
 0.585000   80.417883   -62.775634
 0.590000   80.102204   -63.676912
 0.595000   79.781114   -64.961004
 0.600000   79.452594   -66.662061
 0.605000   79.114493   -68.790967
 0.610000   78.764684   -71.341757
 0.615000   78.401076   -74.292555
 0.620000   78.021758   -77.530559
 0.625000   77.625770   -81.112012
 0.630000   77.210638   -85.112655
 0.635000   76.774644   -89.461743
 0.640000   76.316021   -94.186703
 0.645000   75.832777   -99.365310
 0.650000   75.322368   -105.246539
 0.655000   74.780311   -112.130668
 0.660000   74.201061   -120.076548
 0.665000   73.579546   -129.022704
 0.670000   72.910834   -138.868414
 0.675000   72.190862   -149.365547
 0.680000   71.417179   -160.257814
 0.685000   70.588283   -170.887667
 0.690000   69.708302   -180.813363
 0.695000   68.780150   -190.143217
 0.700000   67.806870   -198.769629
 0.705000   66.792454   -206.494090
 0.710000   65.741929   -213.056583
 0.715000   64.661888   -218.192875
 0.720000   63.560000   -221.859803
 0.725000   62.443290   -224.095627
 0.730000   61.319044   -224.871847
 0.735000   60.194571   -224.222647
 0.740000   59.076817   -222.135339
 0.745000   57.973218   -219.256792
 0.750000   56.884249   -216.637338
 0.755000   55.806844   -214.446845
 0.760000   54.739781   -212.357195
 0.765000   53.683273   -210.010257
 0.770000   52.639678   -207.077875
 0.775000   51.612494   -203.147874
 0.780000   50.608200   -197.676847
 0.785000   49.635725   -190.657063
 0.790000   48.701629   -182.429066
 0.795000   47.811435   -173.225854
 0.800000   46.969371   -163.434817
 0.805000   46.177086   -153.447223
 0.810000   45.434898   -143.035286
 0.815000   44.746734   -132.075664
 0.820000   44.114142   -120.892542
 0.825000   43.537808   -109.739259
 0.830000   43.016749   -99.072723
 0.835000   42.547081   -89.655436
 0.840000   42.120195   -82.118628
 0.845000   41.725895   -77.110657
 0.850000   41.349088   -75.507191
 0.855000   40.970823   -78.155526
 0.860000   40.567533   -86.085996
 0.865000   40.109963   -100.751469
 0.870000   39.560018   -122.878866
 0.875000   38.881174   -152.950366
 0.880000   38.030515   -191.692287
 0.885000   36.964251   -238.921413
 0.890000   35.641300   -293.675286
 0.895000   34.027498   -355.000083
 0.900000   32.091300   -418.686181
 0.905000   29.840637   -479.546900
 0.910000   27.295831   -533.880723
 0.915000   24.501829   -576.661858
 0.920000   21.529212   -602.935339
 0.925000   18.472476   -608.187536
 0.930000   15.447337   -588.410082
 0.935000   12.588375   -543.659177
 0.940000   10.010745   -478.456479
 0.945000   7.803810   -398.825671
 0.950000   6.022488   -311.983478
 0.955000   4.683976   -224.774767
 0.960000   3.774740   -144.343822
 0.965000   3.240537   -76.000963
 0.970000   3.014731   -21.743856
 0.975000   3.023099   17.509326
 0.980000   3.189824   42.061982
 0.985000   3.443719   53.127233
 0.990000   3.721096   53.128610
 0.995000   3.975005   45.064027
 1.000000   4.171737   33.628760
201 psinorm vpol1(km/s) dvpol1/dpsiN
 0.000000   0.000016   4.501100
 0.005000   0.025129   5.544188
 0.010000   0.055458   6.584601
 0.015000   0.090975   7.592265
 0.020000   0.131380   8.517104
 0.025000   0.176146   9.309950
 0.030000   0.224480   9.901295
 0.035000   0.275159   10.314810
 0.040000   0.327628   10.610800
 0.045000   0.381267   10.801262
 0.050000   0.435640   10.926714
 0.055000   0.490534   11.025598
 0.060000   0.545896   11.117775
 0.065000   0.601712   11.198505
 0.070000   0.657881   11.235275
 0.075000   0.714065   11.203223
 0.080000   0.769914   11.100200
 0.085000   0.825067   10.908871
 0.090000   0.879002   10.636507
 0.095000   0.931432   10.349265
 0.100000   0.982495   10.084027
 0.105000   1.032272   9.842358
 0.110000   1.080919   9.640402
 0.115000   1.128676   9.496158
 0.120000   1.175880   9.422961
 0.125000   1.222906   9.401715
 0.130000   1.269897   9.401343
 0.135000   1.316919   9.400238
 0.140000   1.363900   9.370877
 0.145000   1.410628   9.290164
 0.150000   1.456801   9.120816
 0.155000   1.501836   8.853281
 0.160000   1.545334   8.510583
 0.165000   1.586942   8.102377
 0.170000   1.626358   7.637653
 0.175000   1.663318   7.112204
 0.180000   1.697480   6.552682
 0.185000   1.728845   5.994998
 0.190000   1.757430   5.443655
 0.195000   1.783282   4.903464
 0.200000   1.806465   4.381775
 0.205000   1.827099   3.887637
 0.210000   1.845341   3.425955
 0.215000   1.861359   2.976605
 0.220000   1.875107   2.513638
 0.225000   1.886495   2.028244
 0.230000   1.895389   1.514719
 0.235000   1.901642   0.971021
 0.240000   1.905100   0.399332
 0.245000   1.905636   -0.196057
 0.250000   1.903139   -0.810385
 0.255000   1.897532   -1.436111
 0.260000   1.888778   -2.066577
 0.265000   1.876866   -2.705045
 0.270000   1.861728   -3.363177
 0.275000   1.843234   -4.050021
 0.280000   1.821227   -4.770877
 0.285000   1.795526   -5.527026
 0.290000   1.765957   -6.324829
 0.295000   1.732277   -7.165961
 0.300000   1.694297   -8.036279
 0.305000   1.651915   -8.927686
 0.310000   1.605021   -9.836316
 0.315000   1.553551   -10.753918
 0.320000   1.497481   -11.662860
 0.325000   1.436923   -12.515045
 0.330000   1.372331   -13.266321
 0.335000   1.304260   -13.896991
 0.340000   1.233361   -14.393958
 0.345000   1.160320   -14.755591
 0.350000   1.085805   -14.943268
 0.355000   1.010887   -15.025952
 0.360000   0.935546   -15.118762
 0.365000   0.859700   -15.229431
 0.370000   0.783251   -15.378943
 0.375000   0.705910   -15.601428
 0.380000   0.627237   -15.939709
 0.385000   0.546513   -16.388171
 0.390000   0.463355   -16.867590
 0.395000   0.377837   -17.347363
 0.400000   0.289882   -17.894507
 0.405000   0.198892   -18.653235
 0.410000   0.103349   -20.112207
 0.415000   -0.002230   -22.410449
 0.420000   -0.120755   -25.313867
 0.425000   -0.255369   -28.809216
 0.430000   -0.408847   -32.805518
 0.435000   -0.583424   -37.258032
 0.440000   -0.781428   -42.184485
 0.445000   -1.005269   -46.775623
 0.450000   -1.249184   -50.446826
 0.455000   -1.509737   -53.307056
 0.460000   -1.782254   -55.125977
 0.465000   -2.060997   -55.650659
 0.470000   -2.338761   -54.498315
 0.475000   -2.605980   -51.831104
 0.480000   -2.857072   -48.168823
 0.485000   -3.087668   -43.783423
 0.490000   -3.294906   -38.978320
 0.495000   -3.477451   -33.829883
 0.500000   -3.633205   -28.744482
 0.505000   -3.764896   -24.560327
 0.510000   -3.878808   -21.447681
 0.515000   -3.979373   -19.247803
 0.520000   -4.071286   -17.969019
 0.525000   -4.159063   -17.580444
 0.530000   -4.247091   -17.779175
 0.535000   -4.336855   -18.072388
 0.540000   -4.427815   -18.250146
 0.545000   -4.519356   -18.268677
 0.550000   -4.610501   -18.058374
 0.555000   -4.699940   -17.610742
 0.560000   -4.786609   -16.795557
 0.565000   -4.867896   -15.537842
 0.570000   -4.941987   -13.970801
 0.575000   -5.007604   -12.185938
 0.580000   -5.063847   -10.265625
 0.585000   -5.110260   -8.266455
 0.590000   -5.146511   -6.317529
 0.595000   -5.173435   -4.550732
 0.600000   -5.192019   -2.991211
 0.605000   -5.203347   -1.656104
 0.610000   -5.208580   -0.544531
 0.615000   -5.208792   0.357129
 0.620000   -5.205008   1.092334
 0.625000   -5.197869   1.727881
 0.630000   -5.187729   2.309521
 0.635000   -5.174774   2.866553
 0.640000   -5.159064   3.413428
 0.645000   -5.140640   3.944873
 0.650000   -5.119615   4.455957
 0.655000   -5.096080   4.955127
 0.660000   -5.070064   5.479395
 0.665000   -5.041286   6.098828
 0.670000   -5.009076   6.951807
 0.675000   -4.971768   8.243945
 0.680000   -4.926636   9.949365
 0.685000   -4.872274   11.964404
 0.690000   -4.806992   14.286230
 0.695000   -4.729412   16.824268
 0.700000   -4.638750   19.533838
 0.705000   -4.534074   22.136475
 0.710000   -4.417385   24.126270
 0.715000   -4.292811   25.305127
 0.720000   -4.164333   25.624756
 0.725000   -4.036563   25.018896
 0.730000   -3.914145   23.433789
 0.735000   -3.802226   20.995410
 0.740000   -3.704190   18.118262
 0.745000   -3.621043   15.150391
 0.750000   -3.552687   12.318262
 0.755000   -3.497860   9.809766
 0.760000   -3.454589   7.724707
 0.765000   -3.420613   6.154004
 0.770000   -3.393049   4.974414
 0.775000   -3.370869   3.885938
 0.780000   -3.354189   2.670020
 0.785000   -3.344169   1.130762
 0.790000   -3.342882   -0.902148
 0.795000   -3.353190   -3.453809
 0.800000   -3.377420   -6.359961
 0.805000   -3.416790   -9.384277
 0.810000   -3.471263   -12.263086
 0.815000   -3.539421   -14.722070
 0.820000   -3.618483   -16.434375
 0.825000   -3.703765   -17.318555
 0.830000   -3.791669   -17.516992
 0.835000   -3.878935   -17.134570
 0.840000   -3.963015   -16.320605
 0.845000   -4.042141   -15.203320
 0.850000   -4.115048   -13.916895
 0.855000   -4.181310   -12.736133
 0.860000   -4.242409   -11.769238
 0.865000   -4.299002   -10.925488
 0.870000   -4.351664   -10.164062
 0.875000   -4.400643   -9.405859
 0.880000   -4.445723   -8.529980
 0.885000   -4.485942   -7.466113
 0.890000   -4.520384   -6.247070
 0.895000   -4.548413   -4.910840
 0.900000   -4.569492   -3.469922
 0.905000   -4.583112   -1.935352
 0.910000   -4.588846   -0.310449
 0.915000   -4.586217   1.450098
 0.920000   -4.574345   3.462793
 0.925000   -4.551589   5.905469
 0.930000   -4.515290   9.023438
 0.935000   -4.461354   13.429102
 0.940000   -4.380999   19.923047
 0.945000   -4.262124   28.996289
 0.950000   -4.091036   41.075195
 0.955000   -3.851372   56.516797
 0.960000   -3.525868   75.350098
 0.965000   -3.097871   98.431152
 0.970000   -2.541557   124.499805
 0.975000   -1.852873   151.119336
 0.980000   -1.030363   177.181055
 0.985000   -0.081063   200.089453
 0.990000   0.970531   215.325195
 0.995000   2.072189   216.414062
 1.000000   3.134672   208.578906
3 N Z A of ION SPECIES
 6.000000   6.000000   12.010700
 1.000000   1.000000   2.000000
 1.000000   1.000000   2.000000
