201 psinorm ne(10^20/m^3) dne/dpsiN
 0.000000   0.455038   -0.562645
 0.005000   0.452238   -0.557227
 0.010000   0.449466   -0.551839
 0.015000   0.446720   -0.546507
 0.020000   0.444001   -0.541232
 0.025000   0.441308   -0.536013
 0.030000   0.438641   -0.530849
 0.035000   0.435999   -0.525739
 0.040000   0.433383   -0.520683
 0.045000   0.430792   -0.515680
 0.050000   0.428226   -0.510729
 0.055000   0.425685   -0.505830
 0.060000   0.423168   -0.500982
 0.065000   0.420675   -0.496185
 0.070000   0.418206   -0.491438
 0.075000   0.415761   -0.486740
 0.080000   0.413339   -0.482091
 0.085000   0.410940   -0.477490
 0.090000   0.408564   -0.472936
 0.095000   0.406211   -0.468429
 0.100000   0.403880   -0.463969
 0.105000   0.401571   -0.459555
 0.110000   0.399284   -0.455186
 0.115000   0.397019   -0.450861
 0.120000   0.394775   -0.446581
 0.125000   0.392553   -0.442345
 0.130000   0.390352   -0.438151
 0.135000   0.388172   -0.434001
 0.140000   0.386012   -0.429892
 0.145000   0.383873   -0.425825
 0.150000   0.381754   -0.421800
 0.155000   0.379655   -0.417814
 0.160000   0.377576   -0.413869
 0.165000   0.375516   -0.409964
 0.170000   0.373476   -0.406098
 0.175000   0.371455   -0.402271
 0.180000   0.369453   -0.398482
 0.185000   0.367470   -0.394730
 0.190000   0.365506   -0.391016
 0.195000   0.363560   -0.387339
 0.200000   0.361633   -0.383699
 0.205000   0.359723   -0.380095
 0.210000   0.357832   -0.376526
 0.215000   0.355958   -0.372992
 0.220000   0.354102   -0.369493
 0.225000   0.352263   -0.366029
 0.230000   0.350441   -0.362598
 0.235000   0.348637   -0.359201
 0.240000   0.346849   -0.355838
 0.245000   0.345079   -0.352507
 0.250000   0.343324   -0.349208
 0.255000   0.341587   -0.345942
 0.260000   0.339865   -0.342707
 0.265000   0.338159   -0.339503
 0.270000   0.336470   -0.336330
 0.275000   0.334796   -0.333188
 0.280000   0.333138   -0.330076
 0.285000   0.331495   -0.326994
 0.290000   0.329868   -0.323941
 0.295000   0.328256   -0.320918
 0.300000   0.326659   -0.317923
 0.305000   0.325077   -0.314957
 0.310000   0.323509   -0.312019
 0.315000   0.321957   -0.309108
 0.320000   0.320418   -0.306225
 0.325000   0.318894   -0.303370
 0.330000   0.317385   -0.300541
 0.335000   0.315889   -0.297738
 0.340000   0.314407   -0.294962
 0.345000   0.312939   -0.292212
 0.350000   0.311485   -0.289487
 0.355000   0.310044   -0.286787
 0.360000   0.308617   -0.284113
 0.365000   0.307203   -0.281463
 0.370000   0.305803   -0.278838
 0.375000   0.304415   -0.276237
 0.380000   0.303040   -0.273660
 0.385000   0.301678   -0.271106
 0.390000   0.300329   -0.268576
 0.395000   0.298993   -0.266069
 0.400000   0.297668   -0.263584
 0.405000   0.296357   -0.261122
 0.410000   0.295057   -0.258682
 0.415000   0.293770   -0.256265
 0.420000   0.292495   -0.253869
 0.425000   0.291231   -0.251494
 0.430000   0.289980   -0.249141
 0.435000   0.288740   -0.246809
 0.440000   0.287512   -0.244497
 0.445000   0.286295   -0.242206
 0.450000   0.285089   -0.239936
 0.455000   0.283895   -0.237685
 0.460000   0.282713   -0.235454
 0.465000   0.281541   -0.233243
 0.470000   0.280380   -0.231051
 0.475000   0.279230   -0.228878
 0.480000   0.278091   -0.226724
 0.485000   0.276963   -0.224589
 0.490000   0.275846   -0.222472
 0.495000   0.274738   -0.220374
 0.500000   0.273642   -0.218294
 0.505000   0.272555   -0.216231
 0.510000   0.271479   -0.214186
 0.515000   0.270414   -0.212159
 0.520000   0.269358   -0.210148
 0.525000   0.268312   -0.208155
 0.530000   0.267276   -0.206179
 0.535000   0.266250   -0.204219
 0.540000   0.265234   -0.202276
 0.545000   0.264228   -0.200348
 0.550000   0.263231   -0.198438
 0.555000   0.262243   -0.196542
 0.560000   0.261265   -0.194663
 0.565000   0.260297   -0.192799
 0.570000   0.259337   -0.190950
 0.575000   0.258387   -0.189117
 0.580000   0.257446   -0.187299
 0.585000   0.256514   -0.185495
 0.590000   0.255591   -0.183706
 0.595000   0.254677   -0.181931
 0.600000   0.253772   -0.180171
 0.605000   0.252875   -0.178425
 0.610000   0.251988   -0.176693
 0.615000   0.251108   -0.174974
 0.620000   0.250238   -0.173269
 0.625000   0.249376   -0.171578
 0.630000   0.248522   -0.169900
 0.635000   0.247677   -0.168235
 0.640000   0.246840   -0.166583
 0.645000   0.246011   -0.164944
 0.650000   0.245190   -0.163317
 0.655000   0.244378   -0.161703
 0.660000   0.243573   -0.160101
 0.665000   0.242777   -0.158511
 0.670000   0.241988   -0.156933
 0.675000   0.241207   -0.155366
 0.680000   0.240434   -0.153811
 0.685000   0.239669   -0.152266
 0.690000   0.238912   -0.150733
 0.695000   0.238162   -0.149210
 0.700000   0.237420   -0.147696
 0.705000   0.236685   -0.146192
 0.710000   0.235958   -0.144697
 0.715000   0.235238   -0.143210
 0.720000   0.234526   -0.141729
 0.725000   0.233821   -0.140255
 0.730000   0.233123   -0.138784
 0.735000   0.232433   -0.137317
 0.740000   0.231750   -0.135849
 0.745000   0.231074   -0.134378
 0.750000   0.230406   -0.132901
 0.755000   0.229745   -0.131412
 0.760000   0.229092   -0.129906
 0.765000   0.228446   -0.128375
 0.770000   0.227808   -0.126810
 0.775000   0.227178   -0.125198
 0.780000   0.226556   -0.123524
 0.785000   0.225943   -0.121769
 0.790000   0.225339   -0.119907
 0.795000   0.224744   -0.117909
 0.800000   0.224160   -0.115736
 0.805000   0.223587   -0.113339
 0.810000   0.223026   -0.110657
 0.815000   0.222480   -0.107615
 0.820000   0.221950   -0.104119
 0.825000   0.221439   -0.100054
 0.830000   0.220949   -0.095279
 0.835000   0.220486   -0.089619
 0.840000   0.220053   -0.082869
 0.845000   0.219657   -0.074778
 0.850000   0.219305   -0.065054
 0.855000   0.219007   -0.053362
 0.860000   0.218772   -0.039324
 0.865000   0.218614   -0.022534
 0.870000   0.218547   -0.002588
 0.875000   0.218588   0.020871
 0.880000   0.218755   0.048055
 0.885000   0.219068   0.078889
 0.890000   0.219544   0.112758
 0.895000   0.220196   0.148126
 0.900000   0.221025   0.181956
 0.905000   0.222015   0.208862
 0.910000   0.223114   0.219983
 0.915000   0.224215   0.201645
 0.920000   0.225130   0.134201
 0.925000   0.225557   -0.007998
 0.930000   0.225050   -0.253754
 0.935000   0.223020   -0.626946
 0.940000   0.218781   -1.131971
 0.945000   0.211700   -1.736155
 0.950000   0.201419   -2.360323
 0.955000   0.188097   -2.892303
 0.960000   0.172496   -3.226643
 0.965000   0.155830   -3.310014
 0.970000   0.139396   -3.160615
 0.975000   0.124224   -2.849468
 0.980000   0.110902   -2.462128
 0.985000   0.099603   -2.067942
 0.990000   0.090222   -1.708722
 0.995000   0.082516   -1.402135
 1.000000   0.076201   -1.123773
201 psinorm te(KeV) dte/dpsiN
 0.000000   4.717242   -6.655848
 0.005000   4.684034   -6.627348
 0.010000   4.650968   -6.598819
 0.015000   4.618046   -6.570233
 0.020000   4.585266   -6.541593
 0.025000   4.552630   -6.512901
 0.030000   4.520137   -6.484159
 0.035000   4.487788   -6.455368
 0.040000   4.455583   -6.426532
 0.045000   4.423523   -6.397651
 0.050000   4.391607   -6.368728
 0.055000   4.359835   -6.339765
 0.060000   4.328209   -6.310764
 0.065000   4.296728   -6.281727
 0.070000   4.265392   -6.252656
 0.075000   4.234201   -6.223552
 0.080000   4.203156   -6.194418
 0.085000   4.172257   -6.165256
 0.090000   4.141504   -6.136067
 0.095000   4.110896   -6.106854
 0.100000   4.080435   -6.077619
 0.105000   4.050120   -6.048362
 0.110000   4.019952   -6.019087
 0.115000   3.989929   -5.989795
 0.120000   3.960054   -5.960487
 0.125000   3.930324   -5.931166
 0.130000   3.900742   -5.901834
 0.135000   3.871306   -5.872492
 0.140000   3.842017   -5.843142
 0.145000   3.812875   -5.813786
 0.150000   3.783879   -5.784426
 0.155000   3.755030   -5.755063
 0.160000   3.726328   -5.725699
 0.165000   3.697773   -5.696336
 0.170000   3.669365   -5.666976
 0.175000   3.641104   -5.637620
 0.180000   3.612989   -5.608270
 0.185000   3.585021   -5.578927
 0.190000   3.557200   -5.549594
 0.195000   3.529525   -5.520272
 0.200000   3.501997   -5.490962
 0.205000   3.474615   -5.461667
 0.210000   3.447380   -5.432387
 0.215000   3.420291   -5.403125
 0.220000   3.393349   -5.373882
 0.225000   3.366553   -5.344659
 0.230000   3.339902   -5.315459
 0.235000   3.313398   -5.286282
 0.240000   3.287040   -5.257130
 0.245000   3.260827   -5.228005
 0.250000   3.234760   -5.198909
 0.255000   3.208838   -5.169841
 0.260000   3.183061   -5.140805
 0.265000   3.157430   -5.111802
 0.270000   3.131943   -5.082832
 0.275000   3.106601   -5.053898
 0.280000   3.081404   -5.025001
 0.285000   3.056351   -4.996142
 0.290000   3.031443   -4.967323
 0.295000   3.006678   -4.938545
 0.300000   2.982057   -4.909809
 0.305000   2.957580   -4.881116
 0.310000   2.933246   -4.852469
 0.315000   2.909055   -4.823868
 0.320000   2.885007   -4.795315
 0.325000   2.861102   -4.766810
 0.330000   2.837339   -4.738356
 0.335000   2.813719   -4.709953
 0.340000   2.790240   -4.681603
 0.345000   2.766903   -4.653306
 0.350000   2.743707   -4.625065
 0.355000   2.720652   -4.596880
 0.360000   2.697738   -4.568752
 0.365000   2.674964   -4.540683
 0.370000   2.652331   -4.512674
 0.375000   2.629838   -4.484726
 0.380000   2.607484   -4.456839
 0.385000   2.585269   -4.429016
 0.390000   2.563194   -4.401257
 0.395000   2.541257   -4.373564
 0.400000   2.519458   -4.345936
 0.405000   2.497797   -4.318376
 0.410000   2.476274   -4.290885
 0.415000   2.454888   -4.263463
 0.420000   2.433640   -4.236111
 0.425000   2.412527   -4.208831
 0.430000   2.391551   -4.181624
 0.435000   2.370711   -4.154490
 0.440000   2.350006   -4.127430
 0.445000   2.329437   -4.100446
 0.450000   2.309002   -4.073537
 0.455000   2.288701   -4.046706
 0.460000   2.268535   -4.019953
 0.465000   2.248502   -3.993279
 0.470000   2.228602   -3.966685
 0.475000   2.208835   -3.940171
 0.480000   2.189200   -3.913738
 0.485000   2.169698   -3.887388
 0.490000   2.150327   -3.861121
 0.495000   2.131086   -3.834938
 0.500000   2.111977   -3.808840
 0.505000   2.092998   -3.782827
 0.510000   2.074149   -3.756900
 0.515000   2.055429   -3.731061
 0.520000   2.036838   -3.705308
 0.525000   2.018376   -3.679645
 0.530000   2.000042   -3.654070
 0.535000   1.981835   -3.628585
 0.540000   1.963756   -3.603190
 0.545000   1.945803   -3.577886
 0.550000   1.927977   -3.552674
 0.555000   1.910277   -3.527555
 0.560000   1.892702   -3.502528
 0.565000   1.875251   -3.477594
 0.570000   1.857926   -3.452755
 0.575000   1.840724   -3.428010
 0.580000   1.823646   -3.403360
 0.585000   1.806690   -3.378805
 0.590000   1.789857   -3.354346
 0.595000   1.773147   -3.329983
 0.600000   1.756558   -3.305717
 0.605000   1.740090   -3.281548
 0.610000   1.723742   -3.257476
 0.615000   1.707515   -3.233501
 0.620000   1.691407   -3.209623
 0.625000   1.675419   -3.185842
 0.630000   1.659549   -3.162158
 0.635000   1.643797   -3.138570
 0.640000   1.628163   -3.115079
 0.645000   1.612646   -3.091682
 0.650000   1.597246   -3.068380
 0.655000   1.581962   -3.045170
 0.660000   1.566794   -3.022051
 0.665000   1.551742   -2.999021
 0.670000   1.536804   -2.976075
 0.675000   1.521981   -2.953211
 0.680000   1.507272   -2.930424
 0.685000   1.492677   -2.907708
 0.690000   1.478195   -2.885056
 0.695000   1.463826   -2.862458
 0.700000   1.449571   -2.839903
 0.705000   1.435427   -2.817379
 0.710000   1.421397   -2.794868
 0.715000   1.407479   -2.772349
 0.720000   1.393673   -2.749798
 0.725000   1.379981   -2.727184
 0.730000   1.366401   -2.704469
 0.735000   1.352936   -2.681608
 0.740000   1.339585   -2.658545
 0.745000   1.326351   -2.635213
 0.750000   1.313233   -2.611530
 0.755000   1.300235   -2.587395
 0.760000   1.287359   -2.562687
 0.765000   1.274608   -2.537261
 0.770000   1.261987   -2.510940
 0.775000   1.249499   -2.483511
 0.780000   1.237152   -2.454718
 0.785000   1.224952   -2.424253
 0.790000   1.212909   -2.391750
 0.795000   1.201034   -2.356771
 0.800000   1.189341   -2.318793
 0.805000   1.177846   -2.277201
 0.810000   1.166569   -2.231269
 0.815000   1.155534   -2.180148
 0.820000   1.144768   -2.122852
 0.825000   1.134305   -2.058242
 0.830000   1.124185   -1.985026
 0.835000   1.114455   -1.901750
 0.840000   1.105168   -1.806817
 0.845000   1.096387   -1.698518
 0.850000   1.088183   -1.575098
 0.855000   1.080636   -1.434880
 0.860000   1.073834   -1.276463
 0.865000   1.067871   -1.099041
 0.870000   1.062843   -0.902912
 0.875000   1.058842   -0.690251
 0.880000   1.055941   -0.466275
 0.885000   1.054179   -0.240975
 0.890000   1.053531   -0.031611
 0.895000   1.053863   0.133816
 0.900000   1.054869   0.211974
 0.905000   1.055983   0.138700
 0.910000   1.056256   -0.176420
 0.915000   1.054219   -0.852794
 0.920000   1.047728   -2.033526
 0.925000   1.033883   -3.863412
 0.930000   1.009094   -6.439941
 0.935000   0.969484   -9.733411
 0.940000   0.911760   -13.494461
 0.945000   0.834539   -17.204633
 0.950000   0.739714   -20.149552
 0.955000   0.633044   -21.650807
 0.960000   0.523206   -21.366155
 0.965000   0.419382   -19.460447
 0.970000   0.328601   -16.510953
 0.975000   0.254273   -13.219281
 0.980000   0.196409   -10.139335
 0.985000   0.152879   -7.564998
 0.990000   0.120759   -5.566414
 0.995000   0.097215   -4.084630
 1.000000   0.079912   -2.836587
201 psinorm ni(10^20/m^3) dni/dpsiN
 0.000000   0.262520   -0.606348
 0.005000   0.259810   -0.477834
 0.010000   0.257742   -0.375740
 0.015000   0.256052   -0.307153
 0.020000   0.254670   -0.251197
 0.025000   0.253540   -0.204823
 0.030000   0.252622   -0.166729
 0.035000   0.251873   -0.135964
 0.040000   0.251263   -0.110854
 0.045000   0.250765   -0.090562
 0.050000   0.250357   -0.074053
 0.055000   0.250024   -0.061387
 0.060000   0.249743   -0.052221
 0.065000   0.249502   -0.045664
 0.070000   0.249286   -0.041698
 0.075000   0.249085   -0.039674
 0.080000   0.248890   -0.039464
 0.085000   0.248690   -0.040758
 0.090000   0.248482   -0.042904
 0.095000   0.248261   -0.046001
 0.100000   0.248022   -0.050583
 0.105000   0.247755   -0.055785
 0.110000   0.247464   -0.060969
 0.115000   0.247146   -0.066727
 0.120000   0.246797   -0.072865
 0.125000   0.246417   -0.079260
 0.130000   0.246004   -0.085853
 0.135000   0.245558   -0.092718
 0.140000   0.245077   -0.099671
 0.145000   0.244562   -0.106267
 0.150000   0.244014   -0.112551
 0.155000   0.243436   -0.118643
 0.160000   0.242828   -0.124532
 0.165000   0.242191   -0.130149
 0.170000   0.241527   -0.135461
 0.175000   0.240836   -0.140443
 0.180000   0.240122   -0.145216
 0.185000   0.239384   -0.149803
 0.190000   0.238624   -0.153893
 0.195000   0.237845   -0.157437
 0.200000   0.237050   -0.160573
 0.205000   0.236240   -0.163298
 0.210000   0.235417   -0.165615
 0.215000   0.234583   -0.167524
 0.220000   0.233741   -0.169034
 0.225000   0.232893   -0.170165
 0.230000   0.232040   -0.171112
 0.235000   0.231182   -0.172080
 0.240000   0.230319   -0.172538
 0.245000   0.229457   -0.172326
 0.250000   0.228596   -0.171871
 0.255000   0.227738   -0.171234
 0.260000   0.226883   -0.170437
 0.265000   0.226033   -0.169887
 0.270000   0.225185   -0.169165
 0.275000   0.224342   -0.167770
 0.280000   0.223507   -0.166118
 0.285000   0.222681   -0.164265
 0.290000   0.221864   -0.162432
 0.295000   0.221056   -0.160648
 0.300000   0.220258   -0.158516
 0.305000   0.219471   -0.156099
 0.310000   0.218697   -0.153677
 0.315000   0.217934   -0.151482
 0.320000   0.217182   -0.149503
 0.325000   0.216439   -0.147476
 0.330000   0.215707   -0.145493
 0.335000   0.214984   -0.143724
 0.340000   0.214270   -0.142342
 0.345000   0.213561   -0.141109
 0.350000   0.212859   -0.139787
 0.355000   0.212163   -0.138550
 0.360000   0.211473   -0.137550
 0.365000   0.210788   -0.136673
 0.370000   0.210107   -0.135735
 0.375000   0.209430   -0.134843
 0.380000   0.208758   -0.134122
 0.385000   0.208089   -0.133521
 0.390000   0.207423   -0.132904
 0.395000   0.206760   -0.132333
 0.400000   0.206100   -0.131975
 0.405000   0.205440   -0.131799
 0.410000   0.204782   -0.131724
 0.415000   0.204123   -0.131858
 0.420000   0.203463   -0.132337
 0.425000   0.202800   -0.133063
 0.430000   0.202132   -0.133867
 0.435000   0.201461   -0.134804
 0.440000   0.200784   -0.136001
 0.445000   0.200101   -0.137267
 0.450000   0.199412   -0.138416
 0.455000   0.198717   -0.139551
 0.460000   0.198016   -0.140797
 0.465000   0.197309   -0.141994
 0.470000   0.196596   -0.142987
 0.475000   0.195879   -0.143933
 0.480000   0.195157   -0.144907
 0.485000   0.194430   -0.145770
 0.490000   0.193699   -0.146468
 0.495000   0.192965   -0.147232
 0.500000   0.192227   -0.148036
 0.505000   0.191485   -0.148692
 0.510000   0.190740   -0.149219
 0.515000   0.189993   -0.149848
 0.520000   0.189242   -0.150443
 0.525000   0.188488   -0.150802
 0.530000   0.187734   -0.151070
 0.535000   0.186978   -0.151416
 0.540000   0.186219   -0.151635
 0.545000   0.185461   -0.151570
 0.550000   0.184704   -0.151441
 0.555000   0.183947   -0.151280
 0.560000   0.183191   -0.150894
 0.565000   0.182438   -0.150230
 0.570000   0.181689   -0.149490
 0.575000   0.180943   -0.148645
 0.580000   0.180202   -0.147536
 0.585000   0.179468   -0.146196
 0.590000   0.178740   -0.144791
 0.595000   0.178020   -0.143252
 0.600000   0.177308   -0.141450
 0.605000   0.176605   -0.139460
 0.610000   0.175913   -0.137403
 0.615000   0.175231   -0.135190
 0.620000   0.174561   -0.132714
 0.625000   0.173904   -0.130061
 0.630000   0.173261   -0.127305
 0.635000   0.172631   -0.124375
 0.640000   0.172017   -0.121207
 0.645000   0.171419   -0.117881
 0.650000   0.170838   -0.114438
 0.655000   0.170275   -0.110850
 0.660000   0.169729   -0.107092
 0.665000   0.169204   -0.103198
 0.670000   0.168698   -0.099155
 0.675000   0.168212   -0.094934
 0.680000   0.167748   -0.090495
 0.685000   0.167307   -0.085836
 0.690000   0.166890   -0.080978
 0.695000   0.166497   -0.075915
 0.700000   0.166131   -0.070674
 0.705000   0.165791   -0.065283
 0.710000   0.165478   -0.059651
 0.715000   0.165194   -0.053636
 0.720000   0.164941   -0.047200
 0.725000   0.164722   -0.040322
 0.730000   0.164538   -0.032964
 0.735000   0.164392   -0.025153
 0.740000   0.164287   -0.016731
 0.745000   0.164225   -0.007804
 0.750000   0.164209   0.001113
 0.755000   0.164236   0.009827
 0.760000   0.164307   0.018238
 0.765000   0.164419   0.026100
 0.770000   0.164568   0.033181
 0.775000   0.164750   0.039044
 0.780000   0.164958   0.043236
 0.785000   0.165183   0.045769
 0.790000   0.165416   0.046846
 0.795000   0.165651   0.046634
 0.800000   0.165882   0.045279
 0.805000   0.166104   0.042900
 0.810000   0.166311   0.039921
 0.815000   0.166503   0.036724
 0.820000   0.166679   0.033505
 0.825000   0.166838   0.030585
 0.830000   0.166985   0.028249
 0.835000   0.167121   0.026794
 0.840000   0.167252   0.026831
 0.845000   0.167389   0.028761
 0.850000   0.167540   0.032675
 0.855000   0.167716   0.038833
 0.860000   0.167928   0.047513
 0.865000   0.168191   0.059021
 0.870000   0.168519   0.073861
 0.875000   0.168930   0.092577
 0.880000   0.169444   0.115462
 0.885000   0.170084   0.142476
 0.890000   0.170869   0.172999
 0.895000   0.171814   0.205479
 0.900000   0.172924   0.236754
 0.905000   0.174182   0.261374
 0.910000   0.175538   0.270592
 0.915000   0.176888   0.250872
 0.920000   0.178046   0.182826
 0.925000   0.178716   0.041561
 0.930000   0.178462   -0.199753
 0.935000   0.176718   -0.561298
 0.940000   0.172849   -1.041696
 0.945000   0.166301   -1.600351
 0.950000   0.156845   -2.149135
 0.955000   0.144810   -2.565761
 0.960000   0.131188   -2.747725
 0.965000   0.117333   -2.663332
 0.970000   0.104555   -2.363215
 0.975000   0.093701   -1.956516
 0.980000   0.084989   -1.555211
 0.985000   0.078149   -1.228701
 0.990000   0.072702   -0.995635
 0.995000   0.068192   -0.837081
 1.000000   0.064332   -0.707164
201 psinorm ti(KeV) dti/dpsiN
 0.000000   5.591852   0.001239
 0.005000   5.591027   -0.331442
 0.010000   5.588538   -0.665725
 0.015000   5.584369   -1.003165
 0.020000   5.578506   -1.343725
 0.025000   5.570932   -1.687468
 0.030000   5.561631   -2.034485
 0.035000   5.550587   -2.384818
 0.040000   5.537783   -2.739061
 0.045000   5.523197   -3.096895
 0.050000   5.506814   -3.457423
 0.055000   5.488622   -3.820403
 0.060000   5.468610   -4.185136
 0.065000   5.446771   -4.550605
 0.070000   5.423104   -4.915968
 0.075000   5.397611   -5.278274
 0.080000   5.370321   -5.634209
 0.085000   5.341269   -5.982341
 0.090000   5.310498   -6.320895
 0.095000   5.278060   -6.647978
 0.100000   5.244018   -6.960471
 0.105000   5.208456   -7.256280
 0.110000   5.171455   -7.535378
 0.115000   5.133102   -7.796600
 0.120000   5.093489   -8.038265
 0.125000   5.052719   -8.259110
 0.130000   5.010898   -8.455113
 0.135000   4.968168   -8.625753
 0.140000   4.924641   -8.776608
 0.145000   4.880402   -8.909910
 0.150000   4.835542   -9.026537
 0.155000   4.790137   -9.129240
 0.160000   4.744249   -9.220216
 0.165000   4.697934   -9.303908
 0.170000   4.651210   -9.382549
 0.175000   4.604109   -9.452115
 0.180000   4.556689   -9.509059
 0.185000   4.509018   -9.551779
 0.190000   4.461171   -9.579632
 0.195000   4.413222   -9.592633
 0.200000   4.365245   -9.590772
 0.205000   4.317314   -9.574217
 0.210000   4.269503   -9.542848
 0.215000   4.221886   -9.495966
 0.220000   4.174543   -9.432035
 0.225000   4.127566   -9.348351
 0.230000   4.081060   -9.246967
 0.235000   4.035096   -9.131593
 0.240000   3.989744   -9.004191
 0.245000   3.945054   -8.868854
 0.250000   3.901055   -8.730355
 0.255000   3.857750   -8.595155
 0.260000   3.815104   -8.466792
 0.265000   3.773082   -8.342201
 0.270000   3.731682   -8.218067
 0.275000   3.690902   -8.093318
 0.280000   3.650748   -7.967549
 0.285000   3.611226   -7.843809
 0.290000   3.572310   -7.717676
 0.295000   3.534050   -7.584792
 0.300000   3.496462   -7.448055
 0.305000   3.459569   -7.307162
 0.310000   3.423391   -7.161881
 0.315000   3.387950   -7.014139
 0.320000   3.353249   -6.859827
 0.325000   3.319352   -6.695814
 0.330000   3.286291   -6.525327
 0.335000   3.254099   -6.348917
 0.340000   3.222802   -6.167402
 0.345000   3.192425   -5.979224
 0.350000   3.163010   -5.786485
 0.355000   3.134560   -5.593863
 0.360000   3.107071   -5.402231
 0.365000   3.080537   -5.212517
 0.370000   3.054946   -5.025853
 0.375000   3.030279   -4.839586
 0.380000   3.006550   -4.658947
 0.385000   2.983689   -4.493095
 0.390000   2.961619   -4.342686
 0.395000   2.940263   -4.208162
 0.400000   2.919538   -4.090149
 0.405000   2.899361   -3.990390
 0.410000   2.879634   -3.909942
 0.415000   2.860262   -3.845251
 0.420000   2.841181   -3.792329
 0.425000   2.822338   -3.748800
 0.430000   2.803693   -3.712019
 0.435000   2.785218   -3.681632
 0.440000   2.766877   -3.654695
 0.445000   2.748671   -3.626932
 0.450000   2.730608   -3.599629
 0.455000   2.712675   -3.574670
 0.460000   2.694861   -3.552653
 0.465000   2.677148   -3.535066
 0.470000   2.659510   -3.524917
 0.475000   2.641899   -3.524406
 0.480000   2.624266   -3.533657
 0.485000   2.606563   -3.552376
 0.490000   2.588742   -3.580223
 0.495000   2.570760   -3.617395
 0.500000   2.552568   -3.663608
 0.505000   2.534124   -3.715466
 0.510000   2.515414   -3.770509
 0.515000   2.496419   -3.828421
 0.520000   2.477130   -3.888067
 0.525000   2.457539   -3.948219
 0.530000   2.437647   -4.006783
 0.535000   2.417471   -4.062976
 0.540000   2.397018   -4.116993
 0.545000   2.376301   -4.168327
 0.550000   2.355334   -4.217287
 0.555000   2.334128   -4.265126
 0.560000   2.312683   -4.314484
 0.565000   2.290983   -4.367148
 0.570000   2.269012   -4.420073
 0.575000   2.246782   -4.469563
 0.580000   2.224316   -4.514558
 0.585000   2.201637   -4.554360
 0.590000   2.178772   -4.587843
 0.595000   2.155758   -4.615492
 0.600000   2.132617   -4.637844
 0.605000   2.109380   -4.654001
 0.610000   2.086077   -4.663811
 0.615000   2.062742   -4.667176
 0.620000   2.039406   -4.663720
 0.625000   2.016105   -4.654067
 0.630000   1.992865   -4.638631
 0.635000   1.969718   -4.616588
 0.640000   1.946699   -4.587131
 0.645000   1.923847   -4.548991
 0.650000   1.901209   -4.498904
 0.655000   1.878858   -4.435846
 0.660000   1.856851   -4.362134
 0.665000   1.835237   -4.278934
 0.670000   1.814061   -4.187177
 0.675000   1.793365   -4.088066
 0.680000   1.773181   -3.980208
 0.685000   1.753563   -3.866981
 0.690000   1.734511   -3.754243
 0.695000   1.716020   -3.642597
 0.700000   1.698085   -3.532978
 0.705000   1.680691   -3.426759
 0.710000   1.663817   -3.324992
 0.715000   1.647441   -3.229580
 0.720000   1.631522   -3.141217
 0.725000   1.616029   -3.059170
 0.730000   1.600930   -2.982814
 0.735000   1.586200   -2.910463
 0.740000   1.571825   -2.841386
 0.745000   1.557787   -2.772116
 0.750000   1.544104   -2.697496
 0.755000   1.530812   -2.618070
 0.760000   1.517923   -2.535976
 0.765000   1.505452   -2.451810
 0.770000   1.493405   -2.366913
 0.775000   1.481783   -2.282559
 0.780000   1.470580   -2.199639
 0.785000   1.459786   -2.119963
 0.790000   1.449380   -2.045103
 0.795000   1.439335   -1.975741
 0.800000   1.429623   -1.912656
 0.805000   1.420209   -1.856383
 0.810000   1.411059   -1.807109
 0.815000   1.402138   -1.765586
 0.820000   1.393403   -1.732754
 0.825000   1.384810   -1.709170
 0.830000   1.376311   -1.695264
 0.835000   1.367857   -1.691255
 0.840000   1.359399   -1.697831
 0.845000   1.350879   -1.715421
 0.850000   1.342245   -1.743809
 0.855000   1.333441   -1.783091
 0.860000   1.324414   -1.833761
 0.865000   1.315103   -1.899588
 0.870000   1.305418   -1.985609
 0.875000   1.295247   -2.093604
 0.880000   1.284482   -2.224135
 0.885000   1.273006   -2.378412
 0.890000   1.260698   -2.558753
 0.895000   1.247418   -2.783510
 0.900000   1.232862   -3.057142
 0.905000   1.216847   -3.377858
 0.910000   1.199084   -3.758940
 0.915000   1.179258   -4.205108
 0.920000   1.157033   -4.719177
 0.925000   1.132066   -5.342566
 0.930000   1.103607   -6.046286
 0.935000   1.071603   -6.775497
 0.940000   1.035852   -7.535832
 0.945000   0.996245   -8.301959
 0.950000   0.952833   -9.037769
 0.955000   0.905867   -9.737251
 0.960000   0.855460   -10.311193
 0.965000   0.802755   -10.669862
 0.970000   0.748761   -10.826970
 0.975000   0.694485   -10.780394
 0.980000   0.640958   -10.532393
 0.985000   0.589161   -10.103533
 0.990000   0.539922   -9.506921
 0.995000   0.494092   -8.775531
 1.000000   0.452167   -7.994604
201 psinorm nb(10^20/m^3) dnb/dpsiN
 0.000000   0.119886   0.043702
 0.005000   0.119796   -0.079816
 0.010000   0.119088   -0.176943
 0.015000   0.118027   -0.240614
 0.020000   0.116682   -0.291701
 0.025000   0.115110   -0.333247
 0.030000   0.113350   -0.366550
 0.035000   0.111444   -0.392553
 0.040000   0.109424   -0.412926
 0.045000   0.107315   -0.428500
 0.050000   0.105139   -0.440307
 0.055000   0.102912   -0.448280
 0.060000   0.100656   -0.452758
 0.065000   0.098384   -0.454630
 0.070000   0.096110   -0.453907
 0.075000   0.093845   -0.451236
 0.080000   0.091598   -0.446742
 0.085000   0.089378   -0.440728
 0.090000   0.087190   -0.433847
 0.095000   0.085039   -0.425992
 0.100000   0.082930   -0.416628
 0.105000   0.080873   -0.406616
 0.110000   0.078864   -0.396588
 0.115000   0.076907   -0.385950
 0.120000   0.075005   -0.374893
 0.125000   0.073158   -0.363536
 0.130000   0.071369   -0.351938
 0.135000   0.069639   -0.340024
 0.140000   0.067969   -0.327978
 0.145000   0.066359   -0.316247
 0.150000   0.064807   -0.304787
 0.155000   0.063311   -0.293483
 0.160000   0.061872   -0.282348
 0.165000   0.060488   -0.271454
 0.170000   0.059157   -0.260834
 0.175000   0.057879   -0.250510
 0.180000   0.056652   -0.240363
 0.185000   0.055476   -0.230368
 0.190000   0.054349   -0.220836
 0.195000   0.053267   -0.211813
 0.200000   0.052230   -0.203171
 0.205000   0.051236   -0.194916
 0.210000   0.050281   -0.187045
 0.215000   0.049365   -0.179561
 0.220000   0.048486   -0.172454
 0.225000   0.047641   -0.165706
 0.230000   0.046829   -0.159143
 0.235000   0.046049   -0.152579
 0.240000   0.045303   -0.146553
 0.245000   0.044584   -0.141244
 0.250000   0.043890   -0.136251
 0.255000   0.043221   -0.131550
 0.260000   0.042575   -0.127127
 0.265000   0.041950   -0.122544
 0.270000   0.041349   -0.118203
 0.275000   0.040768   -0.114593
 0.280000   0.040203   -0.111290
 0.285000   0.039655   -0.108211
 0.290000   0.039121   -0.105151
 0.295000   0.038603   -0.102120
 0.300000   0.038100   -0.099523
 0.305000   0.037608   -0.097327
 0.310000   0.037127   -0.095290
 0.315000   0.036655   -0.093221
 0.320000   0.036195   -0.091205
 0.325000   0.035743   -0.089545
 0.330000   0.035299   -0.088129
 0.335000   0.034862   -0.086789
 0.340000   0.034431   -0.085344
 0.345000   0.034009   -0.084035
 0.350000   0.033591   -0.083028
 0.355000   0.033178   -0.082081
 0.360000   0.032770   -0.081055
 0.365000   0.032368   -0.080059
 0.370000   0.031970   -0.079263
 0.375000   0.031575   -0.078545
 0.380000   0.031184   -0.077758
 0.385000   0.030798   -0.076946
 0.390000   0.030415   -0.076266
 0.395000   0.030035   -0.075661
 0.400000   0.029658   -0.074975
 0.405000   0.029285   -0.074250
 0.410000   0.028916   -0.073636
 0.415000   0.028549   -0.073086
 0.420000   0.028185   -0.072441
 0.425000   0.027824   -0.071765
 0.430000   0.027467   -0.071198
 0.435000   0.027112   -0.070674
 0.440000   0.026760   -0.070025
 0.445000   0.026412   -0.069354
 0.450000   0.026067   -0.068802
 0.455000   0.025724   -0.068250
 0.460000   0.025384   -0.067549
 0.465000   0.025049   -0.066847
 0.470000   0.024716   -0.066276
 0.475000   0.024386   -0.065642
 0.480000   0.024059   -0.064883
 0.485000   0.023737   -0.064167
 0.490000   0.023418   -0.063557
 0.495000   0.023101   -0.062833
 0.500000   0.022789   -0.062020
 0.505000   0.022481   -0.061303
 0.510000   0.022176   -0.060656
 0.515000   0.021875   -0.059842
 0.520000   0.021578   -0.058992
 0.525000   0.021285   -0.058300
 0.530000   0.020995   -0.057615
 0.535000   0.020709   -0.056763
 0.540000   0.020427   -0.055938
 0.545000   0.020149   -0.055288
 0.550000   0.019874   -0.054581
 0.555000   0.019603   -0.053775
 0.560000   0.019337   -0.053046
 0.565000   0.019073   -0.052442
 0.570000   0.018812   -0.051759
 0.575000   0.018555   -0.051026
 0.580000   0.018302   -0.050401
 0.585000   0.018051   -0.049855
 0.590000   0.017803   -0.049221
 0.595000   0.017559   -0.048576
 0.600000   0.017318   -0.048057
 0.605000   0.017079   -0.047587
 0.610000   0.016842   -0.047044
 0.615000   0.016608   -0.046521
 0.620000   0.016377   -0.046122
 0.625000   0.016147   -0.045759
 0.630000   0.015919   -0.045357
 0.635000   0.015693   -0.044990
 0.640000   0.015469   -0.044731
 0.645000   0.015246   -0.044506
 0.650000   0.015024   -0.044288
 0.655000   0.014803   -0.044118
 0.660000   0.014583   -0.044022
 0.665000   0.014363   -0.043961
 0.670000   0.014143   -0.043929
 0.675000   0.013924   -0.043937
 0.680000   0.013704   -0.043977
 0.685000   0.013484   -0.044033
 0.690000   0.013264   -0.044111
 0.695000   0.013043   -0.044221
 0.700000   0.012821   -0.044340
 0.705000   0.012599   -0.044454
 0.710000   0.012377   -0.044574
 0.715000   0.012154   -0.044721
 0.720000   0.011930   -0.044881
 0.725000   0.011705   -0.045029
 0.730000   0.011479   -0.045179
 0.735000   0.011253   -0.045340
 0.740000   0.011026   -0.045547
 0.745000   0.010798   -0.045768
 0.750000   0.010568   -0.045968
 0.755000   0.010338   -0.046175
 0.760000   0.010106   -0.046385
 0.765000   0.009874   -0.046623
 0.770000   0.009640   -0.046860
 0.775000   0.009405   -0.047064
 0.780000   0.009170   -0.047252
 0.785000   0.008933   -0.047430
 0.790000   0.008695   -0.047599
 0.795000   0.008457   -0.047758
 0.800000   0.008218   -0.047887
 0.805000   0.007978   -0.047980
 0.810000   0.007738   -0.048052
 0.815000   0.007498   -0.048103
 0.820000   0.007257   -0.048131
 0.825000   0.007016   -0.048127
 0.830000   0.006776   -0.048083
 0.835000   0.006535   -0.048006
 0.840000   0.006296   -0.047893
 0.845000   0.006056   -0.047740
 0.850000   0.005818   -0.047546
 0.855000   0.005581   -0.047312
 0.860000   0.005345   -0.047037
 0.865000   0.005111   -0.046723
 0.870000   0.004878   -0.046437
 0.875000   0.004646   -0.046269
 0.880000   0.004415   -0.046226
 0.885000   0.004184   -0.046294
 0.890000   0.003952   -0.046476
 0.895000   0.003719   -0.046767
 0.900000   0.003485   -0.047163
 0.905000   0.003248   -0.047643
 0.910000   0.003008   -0.048164
 0.915000   0.002766   -0.048628
 0.920000   0.002522   -0.048841
 0.925000   0.002278   -0.048581
 0.930000   0.002036   -0.047713
 0.935000   0.001800   -0.046187
 0.940000   0.001574   -0.044001
 0.945000   0.001360   -0.041204
 0.950000   0.001162   -0.037886
 0.955000   0.000982   -0.034131
 0.960000   0.000821   -0.030020
 0.965000   0.000681   -0.025735
 0.970000   0.000563   -0.021545
 0.975000   0.000466   -0.017663
 0.980000   0.000387   -0.014317
 0.985000   0.000323   -0.011889
 0.990000   0.000268   -0.010717
 0.995000   0.000216   -0.011605
 1.000000   0.000152   -0.013873
201 psinorm pb(KPa) dpb/dpsiN
 0.000000   50.175669   -10.531012
 0.005000   50.005487   -57.541970
 0.010000   49.600249   -95.327144
 0.015000   49.052215   -120.880655
 0.020000   48.391443   -140.907616
 0.025000   47.643139   -156.835925
 0.030000   46.823084   -169.163200
 0.035000   45.951507   -178.622634
 0.040000   45.036857   -185.956078
 0.045000   44.091946   -191.262767
 0.050000   43.124230   -195.056569
 0.055000   42.141381   -197.207904
 0.060000   41.152150   -197.986736
 0.065000   40.161513   -197.729436
 0.070000   39.174856   -196.451756
 0.075000   38.196996   -194.394244
 0.080000   37.230914   -191.633243
 0.085000   36.280663   -188.331645
 0.090000   35.347597   -184.761098
 0.095000   34.433052   -180.843642
 0.100000   33.539161   -176.345567
 0.105000   32.669597   -171.662003
 0.110000   31.822541   -167.034871
 0.115000   30.999248   -162.171358
 0.120000   30.200827   -157.168897
 0.125000   29.427559   -152.085703
 0.130000   28.679970   -146.947309
 0.135000   27.958086   -141.714784
 0.140000   27.262822   -136.439514
 0.145000   26.593691   -131.331439
 0.150000   25.949508   -126.398020
 0.155000   25.329710   -121.563452
 0.160000   24.733873   -116.826943
 0.165000   24.161441   -112.212313
 0.170000   23.611750   -107.730300
 0.175000   23.084138   -103.390430
 0.180000   22.577846   -99.162596
 0.185000   22.092512   -95.017348
 0.190000   21.627673   -91.059190
 0.195000   21.181920   -87.324569
 0.200000   20.754427   -83.758574
 0.205000   20.344334   -80.362348
 0.210000   19.950803   -77.133760
 0.215000   19.572997   -74.071235
 0.220000   19.210091   -71.170328
 0.225000   18.861294   -68.424593
 0.230000   18.525845   -65.763664
 0.235000   18.203657   -63.111754
 0.240000   17.894728   -60.680686
 0.245000   17.596850   -58.536756
 0.250000   17.309360   -56.520033
 0.255000   17.031650   -54.620816
 0.260000   16.763152   -52.832726
 0.265000   16.503322   -50.989926
 0.270000   16.253253   -49.243399
 0.275000   16.010888   -47.783129
 0.280000   15.775421   -46.452186
 0.285000   15.546367   -45.213640
 0.290000   15.323285   -43.989907
 0.295000   15.106468   -42.782101
 0.300000   14.895464   -41.743322
 0.305000   14.689034   -40.860724
 0.310000   14.486857   -40.040992
 0.315000   14.288624   -39.220854
 0.320000   14.094648   -38.431005
 0.325000   13.904314   -37.774256
 0.330000   13.716905   -37.207943
 0.335000   13.532235   -36.670627
 0.340000   13.350199   -36.102495
 0.345000   13.171210   -35.586328
 0.350000   12.994336   -35.174771
 0.355000   12.819462   -34.785373
 0.360000   12.646482   -34.372094
 0.365000   12.475741   -33.969375
 0.370000   12.306788   -33.632451
 0.375000   12.139417   -33.321405
 0.380000   11.973574   -32.986237
 0.385000   11.809554   -32.640919
 0.390000   11.647165   -32.336432
 0.395000   11.486190   -32.055805
 0.400000   11.326607   -31.747412
 0.405000   11.168716   -31.425597
 0.410000   11.012351   -31.140702
 0.415000   10.857309   -30.878013
 0.420000   10.703571   -30.584737
 0.425000   10.551462   -30.281551
 0.430000   10.400756   -30.015612
 0.435000   10.251305   -29.765678
 0.440000   10.103099   -29.475996
 0.445000   9.956545   -29.177282
 0.450000   9.811326   -28.915531
 0.455000   9.667390   -28.653675
 0.460000   9.524789   -28.340267
 0.465000   9.383988   -28.023411
 0.470000   9.244555   -27.748146
 0.475000   9.106506   -27.450531
 0.480000   8.970050   -27.107010
 0.485000   8.835436   -26.775797
 0.490000   8.702292   -26.480433
 0.495000   8.570632   -26.142497
 0.500000   8.440867   -25.770245
 0.505000   8.312929   -25.430660
 0.510000   8.186560   -25.115872
 0.515000   8.061770   -24.736752
 0.520000   7.939193   -24.342146
 0.525000   7.818349   -24.006196
 0.530000   7.699131   -23.673087
 0.535000   7.581618   -23.274956
 0.540000   7.466381   -22.886706
 0.545000   7.352751   -22.567188
 0.550000   7.240709   -22.227528
 0.555000   7.130476   -21.849797
 0.560000   7.022211   -21.503433
 0.565000   6.915441   -21.206704
 0.570000   6.810144   -20.880651
 0.575000   6.706635   -20.535451
 0.580000   6.604790   -20.231862
 0.585000   6.504316   -19.959554
 0.590000   6.405194   -19.653521
 0.595000   6.307781   -19.342990
 0.600000   6.211764   -19.082373
 0.605000   6.116957   -18.843725
 0.610000   6.023327   -18.576640
 0.615000   5.931191   -18.316939
 0.620000   5.840158   -18.109269
 0.625000   5.750098   -17.919586
 0.630000   5.660962   -17.712999
 0.635000   5.572968   -17.521231
 0.640000   5.485750   -17.376224
 0.645000   5.399206   -17.247300
 0.650000   5.313277   -17.125266
 0.655000   5.227953   -17.026529
 0.660000   5.143011   -16.958879
 0.665000   5.058365   -16.905689
 0.670000   4.973954   -16.868131
 0.675000   4.889683   -16.848875
 0.680000   4.805466   -16.839332
 0.685000   4.721290   -16.833368
 0.690000   4.637132   -16.835677
 0.695000   4.552933   -16.849958
 0.700000   4.468632   -16.863354
 0.705000   4.384300   -16.869645
 0.710000   4.299936   -16.875699
 0.715000   4.215543   -16.889387
 0.720000   4.131042   -16.904823
 0.725000   4.046494   -16.911742
 0.730000   3.961925   -16.916796
 0.735000   3.877327   -16.923605
 0.740000   3.792689   -16.943497
 0.745000   3.707892   -16.965914
 0.750000   3.623029   -16.978827
 0.755000   3.538103   -16.991587
 0.760000   3.453114   -17.004060
 0.765000   3.368063   -17.021606
 0.770000   3.282897   -17.035877
 0.775000   3.197704   -17.036945
 0.780000   3.112528   -17.030645
 0.785000   3.027397   -17.018708
 0.790000   2.942341   -17.000474
 0.795000   2.857393   -16.972167
 0.800000   2.772619   -16.931049
 0.805000   2.688082   -16.878187
 0.810000   2.603837   -16.814417
 0.815000   2.519938   -16.740275
 0.820000   2.436435   -16.655881
 0.825000   2.353379   -16.551542
 0.830000   2.270919   -16.427555
 0.835000   2.189104   -16.294256
 0.840000   2.107977   -16.148511
 0.845000   2.027619   -15.986386
 0.850000   1.948113   -15.808592
 0.855000   1.869533   -15.617196
 0.860000   1.791941   -15.412510
 0.865000   1.715408   -15.188614
 0.870000   1.640055   -14.960339
 0.875000   1.565804   -14.765496
 0.880000   1.492400   -14.613807
 0.885000   1.419666   -14.499458
 0.890000   1.347405   -14.430860
 0.895000   1.275358   -14.417563
 0.900000   1.203230   -14.469036
 0.905000   1.130667   -14.594513
 0.910000   1.057284   -14.794955
 0.915000   0.982718   -15.057073
 0.920000   0.906714   -15.337788
 0.925000   0.829340   -15.572804
 0.930000   0.750986   -15.707095
 0.935000   0.672269   -15.691272
 0.940000   0.594073   -15.478661
 0.945000   0.517482   -15.034064
 0.950000   0.443732   -14.331313
 0.955000   0.374169   -13.348033
 0.960000   0.310252   -12.074062
 0.965000   0.253428   -10.562536
 0.970000   0.204627   -8.938669
 0.975000   0.164042   -7.335886
 0.980000   0.131268   -5.862666
 0.985000   0.105415   -4.636703
 0.990000   0.084901   -3.752071
 0.995000   0.067894   -3.495920
 1.000000   0.049941   -3.685216
201 psinorm ptot(KPa) dptot/dpsiN
 0.000000   109.170850   -155.904415
 0.005000   108.302044   -191.617976
 0.010000   107.254670   -220.475770
 0.015000   106.097286   -240.114006
 0.020000   104.853530   -255.374816
 0.025000   103.543538   -267.418295
 0.030000   102.179347   -276.629244
 0.035000   100.777246   -283.657724
 0.040000   99.342770   -289.099501
 0.045000   97.886251   -292.977894
 0.050000   96.412991   -295.710430
 0.055000   94.929146   -297.170431
 0.060000   93.441287   -297.592770
 0.065000   91.953219   -297.228609
 0.070000   90.469001   -296.086079
 0.075000   88.992358   -294.334110
 0.080000   87.525660   -292.021028
 0.085000   86.072148   -289.274432
 0.090000   84.632915   -286.299886
 0.095000   83.209149   -283.017975
 0.100000   81.802736   -279.224003
 0.105000   80.416909   -275.229086
 0.110000   79.050445   -271.219891
 0.115000   77.704710   -266.946946
 0.120000   76.380975   -262.482931
 0.125000   75.079881   -257.869568
 0.130000   73.802280   -253.110066
 0.135000   72.548780   -248.168235
 0.140000   71.320597   -243.103480
 0.145000   70.117745   -238.099823
 0.150000   68.939599   -233.172646
 0.155000   67.786019   -228.267411
 0.160000   66.656925   -223.392049
 0.165000   65.552098   -218.583916
 0.170000   64.471086   -213.860959
 0.175000   63.413489   -209.215415
 0.180000   62.378931   -204.612588
 0.185000   61.367363   -200.019312
 0.190000   60.378738   -195.516314
 0.195000   59.412200   -191.138645
 0.200000   58.467352   -186.843078
 0.205000   57.543769   -182.633059
 0.210000   56.641021   -178.508117
 0.215000   55.758688   -174.465775
 0.220000   54.896364   -170.498165
 0.225000   54.053706   -166.591600
 0.230000   53.230448   -162.698177
 0.235000   52.426724   -158.771135
 0.240000   51.642736   -154.996854
 0.245000   50.876756   -151.448966
 0.250000   50.128247   -148.014529
 0.255000   49.396610   -144.712775
 0.260000   48.681119   -141.552228
 0.265000   47.981088   -138.380129
 0.270000   47.297318   -135.309452
 0.275000   46.627994   -132.496777
 0.280000   45.972350   -129.809628
 0.285000   45.329897   -127.226529
 0.290000   44.700084   -124.666013
 0.295000   44.083237   -122.114212
 0.300000   43.478942   -119.712812
 0.305000   42.886109   -117.451823
 0.310000   42.304424   -115.252760
 0.315000   41.733581   -113.071465
 0.320000   41.173709   -110.922087
 0.325000   40.624361   -108.881249
 0.330000   40.084897   -106.923507
 0.335000   39.555125   -104.998249
 0.340000   39.034914   -103.057288
 0.345000   38.524553   -101.165139
 0.350000   38.023263   -99.370324
 0.355000   37.530849   -97.616582
 0.360000   37.047097   -95.868138
 0.365000   36.572168   -94.156531
 0.370000   36.105532   -92.531674
 0.375000   35.646851   -90.949454
 0.380000   35.196037   -89.384041
 0.385000   34.753011   -87.878503
 0.390000   34.317252   -86.478491
 0.395000   33.888226   -85.170599
 0.400000   33.465546   -83.912235
 0.405000   33.049104   -82.721063
 0.410000   32.638336   -81.645712
 0.415000   32.232646   -80.662710
 0.420000   31.831709   -79.710949
 0.425000   31.435537   -78.797966
 0.430000   31.043729   -77.953720
 0.435000   30.656000   -77.157922
 0.440000   30.272150   -76.350357
 0.445000   29.892496   -75.539120
 0.450000   29.516759   -74.766572
 0.455000   29.144830   -74.006622
 0.460000   28.776692   -73.215150
 0.465000   28.412679   -72.438199
 0.470000   28.052310   -71.723986
 0.475000   27.695439   -71.022503
 0.480000   27.342085   -70.313242
 0.485000   26.992307   -69.646841
 0.490000   26.645617   -69.043054
 0.495000   26.301876   -68.433142
 0.500000   25.961286   -67.822860
 0.505000   25.623648   -67.260079
 0.510000   25.288685   -66.729655
 0.515000   24.956351   -66.150654
 0.520000   24.627178   -65.562600
 0.525000   24.300725   -65.027759
 0.530000   23.976901   -64.489590
 0.535000   23.655829   -63.884335
 0.540000   23.338057   -63.279838
 0.545000   23.023031   -62.727544
 0.550000   22.710782   -62.148333
 0.555000   22.401547   -61.529558
 0.560000   22.095486   -60.941805
 0.565000   21.792129   -60.407072
 0.570000   21.491416   -59.844592
 0.575000   21.193683   -59.252218
 0.580000   20.898893   -58.682155
 0.585000   20.606862   -58.123557
 0.590000   20.317658   -57.514313
 0.595000   20.031719   -56.883058
 0.600000   19.748827   -56.281766
 0.605000   19.468901   -55.682843
 0.610000   19.191999   -55.040024
 0.615000   18.918501   -54.386175
 0.620000   18.648137   -53.761787
 0.625000   18.380883   -53.138027
 0.630000   18.116757   -52.484022
 0.635000   17.856043   -51.827124
 0.640000   17.598486   -51.195273
 0.645000   17.344090   -50.557110
 0.650000   17.092914   -49.895593
 0.655000   16.845134   -49.223704
 0.660000   16.600677   -48.555683
 0.665000   16.359577   -47.879673
 0.670000   16.121881   -47.199527
 0.675000   15.887582   -46.520807
 0.680000   15.656673   -45.830317
 0.685000   15.429279   -45.131721
 0.690000   15.205355   -44.446815
 0.695000   14.984811   -43.780742
 0.700000   14.767548   -43.123835
 0.705000   14.553572   -42.474174
 0.710000   14.342806   -41.839266
 0.715000   14.135180   -41.228834
 0.720000   13.930518   -40.637986
 0.725000   13.728800   -40.053925
 0.730000   13.529979   -39.480477
 0.735000   13.333995   -38.916949
 0.740000   13.140809   -38.369028
 0.745000   12.950305   -37.818619
 0.750000   12.762623   -37.249813
 0.755000   12.577807   -36.676628
 0.760000   12.395857   -36.105832
 0.765000   12.216748   -35.548113
 0.770000   12.040376   -35.002101
 0.775000   11.866727   -34.468364
 0.780000   11.695692   -33.961801
 0.785000   11.527109   -33.486383
 0.790000   11.360828   -33.039060
 0.795000   11.196719   -32.611845
 0.800000   11.034710   -32.198218
 0.805000   10.874736   -31.794908
 0.810000   10.716761   -31.391203
 0.815000   10.560824   -30.978030
 0.820000   10.406980   -30.549346
 0.825000   10.255331   -30.085116
 0.830000   10.106129   -29.574760
 0.835000   9.959583   -29.015941
 0.840000   9.815970   -28.387520
 0.845000   9.675708   -27.669762
 0.850000   9.539272   -26.850631
 0.855000   9.407202   -25.916777
 0.860000   9.280104   -24.854243
 0.865000   9.158659   -23.653241
 0.870000   9.043572   -22.328699
 0.875000   8.935372   -20.916441
 0.880000   8.834407   -19.439246
 0.885000   8.740980   -17.934871
 0.890000   8.655059   -16.505075
 0.895000   8.575929   -15.372126
 0.900000   8.501337   -14.831996
 0.905000   8.427609   -15.323918
 0.910000   8.348098   -17.539672
 0.915000   8.252213   -22.398892
 0.920000   8.124109   -31.039135
 0.925000   7.941821   -44.781426
 0.930000   7.676295   -64.401081
 0.935000   7.297810   -89.493854
 0.940000   6.781357   -117.814238
 0.945000   6.119668   -144.562935
 0.950000   5.335727   -163.368505
 0.955000   4.485983   -168.894656
 0.960000   3.646781   -159.534818
 0.965000   2.890635   -138.544078
 0.970000   2.261340   -112.217923
 0.975000   1.768456   -86.461848
 0.980000   1.396721   -64.815266
 0.985000   1.120303   -48.347642
 0.990000   0.913245   -36.544684
 0.995000   0.754856   -28.554209
 1.000000   0.627703   -22.307059
201 psinorm omeg(kRad/s) domeg/dpsiN
 0.000000   23.506821   0.024198
 0.005000   23.506199   -0.273050
 0.010000   23.504091   -0.609102
 0.015000   23.500108   -1.029366
 0.020000   23.493797   -1.546681
 0.025000   23.484641   -2.173684
 0.030000   23.472060   -2.922815
 0.035000   23.455413   -3.805526
 0.040000   23.434005   -4.834145
 0.045000   23.407072   -6.016237
 0.050000   23.373843   -7.357464
 0.055000   23.333497   -8.866098
 0.060000   23.285182   -10.547856
 0.065000   23.228019   -12.406844
 0.070000   23.161113   -14.440890
 0.075000   23.083610   -16.630384
 0.080000   22.994809   -18.946914
 0.085000   22.894140   -21.366315
 0.090000   22.781146   -23.866297
 0.095000   22.655477   -26.427467
 0.100000   22.516872   -29.003615
 0.105000   22.365441   -31.596604
 0.110000   22.200906   -34.252760
 0.115000   22.022914   -36.966087
 0.120000   21.831245   -39.714238
 0.125000   21.625771   -42.468414
 0.130000   21.406561   -45.129074
 0.135000   21.174481   -47.623798
 0.140000   20.930323   -49.993356
 0.145000   20.674547   -52.247833
 0.150000   20.407844   -54.371039
 0.155000   20.130837   -56.381154
 0.160000   19.844033   -58.270001
 0.165000   19.548137   -60.095416
 0.170000   19.243079   -61.941131
 0.175000   18.928725   -63.725549
 0.180000   18.605823   -65.330838
 0.185000   18.275417   -66.707085
 0.190000   17.938752   -67.795089
 0.195000   17.597466   -68.586469
 0.200000   17.252887   -69.224977
 0.205000   16.905216   -69.767627
 0.210000   16.555211   -70.155985
 0.215000   16.203656   -70.380057
 0.220000   15.851411   -70.389877
 0.225000   15.499758   -70.125574
 0.230000   15.150155   -69.710788
 0.235000   14.802650   -69.235023
 0.240000   14.457805   -68.680222
 0.245000   14.115848   -68.118588
 0.250000   13.776619   -67.638824
 0.255000   13.439459   -67.395892
 0.260000   13.102660   -67.392866
 0.265000   12.765531   -67.450959
 0.270000   12.428150   -67.449343
 0.275000   12.091037   -67.308545
 0.280000   11.755065   -66.975533
 0.285000   11.421282   -66.470364
 0.290000   11.090361   -65.654504
 0.295000   10.764737   -64.428152
 0.300000   10.446080   -62.859139
 0.305000   10.136146   -60.934040
 0.310000   9.836739   -58.647095
 0.315000   9.549675   -55.992061
 0.320000   9.276819   -52.955928
 0.325000   9.020115   -49.570747
 0.330000   8.781111   -45.896530
 0.335000   8.561150   -41.977933
 0.340000   8.361332   -37.866606
 0.345000   8.182484   -33.574496
 0.350000   8.025587   -29.203548
 0.355000   7.890448   -24.868634
 0.360000   7.776901   -20.580254
 0.365000   7.684646   -16.370493
 0.370000   7.613196   -12.277776
 0.375000   7.561868   -8.331435
 0.380000   7.529881   -4.593118
 0.385000   7.515937   -1.094025
 0.390000   7.518941   2.214738
 0.395000   7.538084   5.396216
 0.400000   7.572903   8.525313
 0.405000   7.623337   11.707051
 0.410000   7.689974   15.058827
 0.415000   7.773926   18.646230
 0.420000   7.876436   22.500169
 0.425000   7.998927   26.634285
 0.430000   8.142779   31.020914
 0.435000   8.309137   35.668597
 0.440000   8.499465   40.468846
 0.445000   8.713825   45.179366
 0.450000   8.951258   49.692065
 0.455000   9.210746   53.944473
 0.460000   9.490703   57.833480
 0.465000   9.789080   61.314008
 0.470000   10.103843   64.373750
 0.475000   10.432818   66.956478
 0.480000   10.773408   69.019093
 0.485000   11.123009   70.531865
 0.490000   11.478727   71.439120
 0.495000   11.837400   71.699566
 0.500000   12.195722   71.255322
 0.505000   12.549953   70.024504
 0.510000   12.895967   67.985937
 0.515000   13.229813   65.164230
 0.520000   13.547610   61.584703
 0.525000   13.845660   57.281466
 0.530000   14.120424   52.291037
 0.535000   14.368570   46.744466
 0.540000   14.587869   40.768542
 0.545000   14.776255   34.429187
 0.550000   14.932161   27.823262
 0.555000   15.054488   21.031737
 0.560000   15.142478   14.097240
 0.565000   15.195461   6.964688
 0.570000   15.212125   -0.461415
 0.575000   15.190846   -8.210489
 0.580000   15.130020   -16.267996
 0.585000   15.028166   -24.604176
 0.590000   14.883979   -33.223839
 0.595000   14.695928   -42.028648
 0.600000   14.463692   -50.873291
 0.605000   14.187195   -59.670442
 0.610000   13.866988   -68.285843
 0.615000   13.504337   -76.568492
 0.620000   13.101303   -84.426785
 0.625000   12.660069   -91.591048
 0.630000   12.185392   -97.794655
 0.635000   11.682122   -102.938477
 0.640000   11.156007   -106.825856
 0.645000   10.613864   -109.238655
 0.650000   10.063621   -109.777261
 0.655000   9.516091   -108.284708
 0.660000   8.980774   -105.031645
 0.665000   8.465775   -100.260741
 0.670000   7.978166   -94.222455
 0.675000   7.523550   -87.225122
 0.680000   7.105915   -79.299255
 0.685000   6.730558   -71.008676
 0.690000   6.395828   -63.104495
 0.695000   6.099513   -55.640918
 0.700000   5.839419   -48.678864
 0.705000   5.612724   -42.311774
 0.710000   5.416301   -36.515108
 0.715000   5.247573   -31.380351
 0.720000   5.102498   -26.921599
 0.725000   4.978357   -22.884258
 0.730000   4.873655   -19.068898
 0.735000   4.787668   -15.333766
 0.740000   4.720318   -11.578029
 0.745000   4.671888   -7.744786
 0.750000   4.642870   -3.841812
 0.755000   4.633469   0.063335
 0.760000   4.643503   3.899158
 0.765000   4.672461   7.598732
 0.770000   4.719491   11.094749
 0.775000   4.783409   14.317738
 0.780000   4.862668   17.206396
 0.785000   4.955473   19.718661
 0.790000   5.059855   21.821487
 0.795000   5.173687   23.487534
 0.800000   5.294730   24.691800
 0.805000   5.420605   25.414375
 0.810000   5.548874   25.678001
 0.815000   5.677385   25.512366
 0.820000   5.803997   24.937233
 0.825000   5.926758   23.992979
 0.830000   6.043927   22.722543
 0.835000   6.153983   21.173834
 0.840000   6.255665   19.341025
 0.845000   6.347393   17.165149
 0.850000   6.427317   14.592691
 0.855000   6.493320   11.568655
 0.860000   6.543003   8.032698
 0.865000   6.573647   3.892967
 0.870000   6.581933   -1.073085
 0.875000   6.562916   -7.167210
 0.880000   6.510261   -14.686722
 0.885000   6.416049   -23.936533
 0.890000   6.270896   -35.196834
 0.895000   6.064081   -49.202293
 0.900000   5.778873   -65.936989
 0.905000   5.404711   -85.007390
 0.910000   4.928799   -106.418697
 0.915000   4.340524   -129.477838
 0.920000   3.634021   -152.910349
 0.925000   2.811421   -175.923811
 0.930000   1.874782   -194.654298
 0.935000   0.864878   -204.407974
 0.940000   -0.169297   -202.895593
 0.945000   -1.164078   -187.530022
 0.950000   -2.044598   -156.862727
 0.955000   -2.732706   -111.401353
 0.960000   -3.158611   -53.650877
 0.965000   -3.269214   10.948935
 0.970000   -3.049122   74.716837
 0.975000   -2.522046   129.990361
 0.980000   -1.749218   170.068051
 0.985000   -0.821366   189.984336
 0.990000   0.150625   188.360908
 0.995000   1.062244   167.825414
 1.000000   1.828879   138.828899
201 psinorm omegp(kRad/s) domegp/dpsiN
 0.000000   -0.005165   66.830919
 0.005000   0.265533   41.448184
 0.010000   0.409317   27.944150
 0.015000   0.544974   27.062062
 0.020000   0.679937   26.873193
 0.025000   0.813706   26.383312
 0.030000   0.943771   25.295512
 0.035000   1.066661   23.883201
 0.040000   1.182603   22.404171
 0.045000   1.290703   20.825271
 0.050000   1.390855   19.311863
 0.055000   1.483822   17.961339
 0.060000   1.570469   16.831082
 0.065000   1.652132   16.059204
 0.070000   1.731061   15.679980
 0.075000   1.808932   15.576502
 0.080000   1.886826   15.768713
 0.085000   1.966619   16.305076
 0.090000   2.049876   17.121799
 0.095000   2.137837   18.023305
 0.100000   2.230109   18.847055
 0.105000   2.326308   19.651385
 0.110000   2.426623   20.379579
 0.115000   2.530104   20.932389
 0.120000   2.635947   21.220703
 0.125000   2.742311   21.102017
 0.130000   2.846967   20.546541
 0.135000   2.947776   19.592514
 0.140000   3.042893   18.330904
 0.145000   3.131085   16.682968
 0.150000   3.209722   14.786563
 0.155000   3.278951   12.978647
 0.160000   3.339509   11.272233
 0.165000   3.391673   9.729296
 0.170000   3.436802   8.373744
 0.175000   3.475411   7.265886
 0.180000   3.509461   6.489646
 0.185000   3.540307   5.914022
 0.190000   3.568601   5.376310
 0.195000   3.594070   4.780394
 0.200000   3.616405   4.146257
 0.205000   3.635533   3.411372
 0.210000   3.650518   2.678620
 0.215000   3.662319   1.935894
 0.220000   3.669877   1.134346
 0.225000   3.673662   0.376728
 0.230000   3.673645   -0.431878
 0.235000   3.669344   -1.174795
 0.240000   3.661897   -1.891975
 0.245000   3.650424   -2.641810
 0.250000   3.635479   -3.323098
 0.255000   3.617193   -4.062442
 0.260000   3.594854   -4.804950
 0.265000   3.569143   -5.573175
 0.270000   3.539122   -6.441062
 0.275000   3.504733   -7.274956
 0.280000   3.466373   -8.172805
 0.285000   3.423005   -9.124322
 0.290000   3.375130   -10.027891
 0.295000   3.322726   -10.968299
 0.300000   3.265447   -11.925068
 0.305000   3.203475   -12.855674
 0.310000   3.136890   -13.850590
 0.315000   3.064969   -14.875837
 0.320000   2.988132   -15.947489
 0.325000   2.905494   -17.132965
 0.330000   2.816802   -18.323792
 0.335000   2.722256   -19.547407
 0.340000   2.621328   -20.867404
 0.345000   2.513582   -22.178482
 0.350000   2.399543   -23.503787
 0.355000   2.278544   -24.896113
 0.360000   2.150582   -26.200781
 0.365000   2.016537   -27.407942
 0.370000   1.876502   -28.532047
 0.375000   1.731216   -29.437823
 0.380000   1.582124   -30.063338
 0.385000   1.430583   -30.610162
 0.390000   1.276023   -31.291549
 0.395000   1.117667   -32.180084
 0.400000   0.954222   -33.370881
 0.405000   0.783958   -34.898849
 0.410000   0.605233   -36.964914
 0.415000   0.414309   -39.507499
 0.420000   0.210158   -42.243530
 0.425000   -0.008126   -45.116596
 0.430000   -0.241008   -47.982727
 0.435000   -0.487953   -50.664694
 0.440000   -0.747655   -53.175755
 0.445000   -1.019711   -55.801548
 0.450000   -1.305670   -59.023624
 0.455000   -1.609947   -63.218222
 0.460000   -1.937852   -68.398200
 0.465000   -2.293929   -74.727222
 0.470000   -2.685125   -82.371605
 0.475000   -3.117645   -90.189594
 0.480000   -3.587020   -97.306837
 0.485000   -4.090713   -103.715980
 0.490000   -4.624180   -108.959851
 0.495000   -5.180312   -112.532787
 0.500000   -5.749508   -113.535126
 0.505000   -6.315663   -111.305386
 0.510000   -6.862562   -105.922985
 0.515000   -7.374893   -97.788096
 0.520000   -7.840443   -87.654198
 0.525000   -8.251435   -75.665861
 0.530000   -8.597102   -62.860854
 0.535000   -8.880044   -51.230004
 0.540000   -9.109402   -41.296125
 0.545000   -9.293005   -32.893695
 0.550000   -9.438339   -26.096634
 0.555000   -9.553971   -21.282521
 0.560000   -9.651164   -18.591930
 0.565000   -9.739891   -17.204811
 0.570000   -9.823212   -16.159261
 0.575000   -9.901483   -14.825156
 0.580000   -9.971463   -12.608815
 0.585000   -10.027571   -9.320393
 0.590000   -10.064667   -4.649658
 0.595000   -10.074068   1.689128
 0.600000   -10.047776   9.377039
 0.605000   -9.980297   17.829233
 0.610000   -9.869484   26.561431
 0.615000   -9.714683   34.909809
 0.620000   -9.520386   41.996127
 0.625000   -9.294722   47.289387
 0.630000   -9.047492   50.677147
 0.635000   -8.787950   52.161844
 0.640000   -8.525873   51.619670
 0.645000   -8.271754   49.151768
 0.650000   -8.034356   46.017680
 0.655000   -7.811577   43.072918
 0.660000   -7.603627   40.271991
 0.665000   -7.408857   38.015540
 0.670000   -7.223471   36.539765
 0.675000   -7.043459   35.761379
 0.680000   -6.865857   35.385979
 0.685000   -6.689600   35.076431
 0.690000   -6.515093   34.648360
 0.695000   -6.343116   34.086583
 0.700000   -6.174227   33.447765
 0.705000   -6.008638   32.764272
 0.710000   -5.846584   31.980343
 0.715000   -5.688835   31.128148
 0.720000   -5.535303   30.259014
 0.725000   -5.386245   29.311609
 0.730000   -5.242187   28.267386
 0.735000   -5.103571   27.149031
 0.740000   -4.970697   25.949501
 0.745000   -4.844076   24.613509
 0.750000   -4.724561   23.164747
 0.755000   -4.612428   21.647382
 0.760000   -4.508088   20.035915
 0.765000   -4.412069   18.318757
 0.770000   -4.324900   16.551194
 0.775000   -4.246557   14.769990
 0.780000   -4.177200   12.944807
 0.785000   -4.117109   11.109101
 0.790000   -4.066109   9.330935
 0.795000   -4.023800   7.629794
 0.800000   -3.989811   5.945489
 0.805000   -3.964345   4.196789
 0.810000   -3.947843   2.270282
 0.815000   -3.941642   -0.013752
 0.820000   -3.947981   -2.809707
 0.825000   -3.969739   -6.144659
 0.830000   -4.009427   -10.000083
 0.835000   -4.069740   -14.443915
 0.840000   -4.153867   -19.460372
 0.845000   -4.264344   -25.071811
 0.850000   -4.404585   -31.373984
 0.855000   -4.578084   -37.762054
 0.860000   -4.782205   -43.527677
 0.865000   -5.013360   -48.343559
 0.870000   -5.265641   -51.835131
 0.875000   -5.531712   -53.683369
 0.880000   -5.802475   -53.684625
 0.885000   -6.068558   -51.784228
 0.890000   -6.320317   -48.058902
 0.895000   -6.549147   -42.678588
 0.900000   -6.747103   -35.873153
 0.905000   -6.907879   -27.764570
 0.910000   -7.024748   -18.898126
 0.915000   -7.096860   -9.884785
 0.920000   -7.123596   -0.387286
 0.925000   -7.100733   9.957880
 0.930000   -7.024017   20.396280
 0.935000   -6.896770   31.363707
 0.940000   -6.710380   45.041011
 0.945000   -6.446360   61.421422
 0.950000   -6.096166   80.095330
 0.955000   -5.645406   101.717664
 0.960000   -5.078990   126.102413
 0.965000   -4.384382   154.378094
 0.970000   -3.535209   185.108819
 0.975000   -2.533294   214.310414
 0.980000   -1.392104   239.299136
 0.985000   -0.140303   255.218143
 0.990000   1.160077   255.132187
 0.995000   2.411019   232.822808
 1.000000   3.488305   198.091559
201 psinorm omgvb(kRad/s) domgvb/dpsiN
 0.000000   23.501656   66.855117
 0.005000   23.771732   41.175134
 0.010000   23.913408   27.335048
 0.015000   24.045082   26.032696
 0.020000   24.173734   25.326512
 0.025000   24.298347   24.209628
 0.030000   24.415831   22.372696
 0.035000   24.522074   20.077675
 0.040000   24.616608   17.570026
 0.045000   24.697775   14.809035
 0.050000   24.764698   11.954399
 0.055000   24.817319   9.095241
 0.060000   24.855650   6.283226
 0.065000   24.880151   3.652360
 0.070000   24.892174   1.239089
 0.075000   24.892542   -1.053882
 0.080000   24.881635   -3.178201
 0.085000   24.860760   -5.061238
 0.090000   24.831023   -6.744498
 0.095000   24.793315   -8.404162
 0.100000   24.746981   -10.156560
 0.105000   24.691749   -11.945219
 0.110000   24.627529   -13.873181
 0.115000   24.553017   -16.033698
 0.120000   24.467192   -18.493535
 0.125000   24.368082   -21.366397
 0.130000   24.253528   -24.582534
 0.135000   24.122257   -28.031283
 0.140000   23.973215   -31.662452
 0.145000   23.805632   -35.564865
 0.150000   23.617566   -39.584477
 0.155000   23.409787   -43.402507
 0.160000   23.183541   -46.997768
 0.165000   22.939810   -50.366119
 0.170000   22.679880   -53.567387
 0.175000   22.404136   -56.459664
 0.180000   22.115284   -58.841192
 0.185000   21.815724   -60.793063
 0.190000   21.507353   -62.418779
 0.195000   21.191536   -63.806075
 0.200000   20.869292   -65.078720
 0.205000   20.540749   -66.356254
 0.210000   20.205730   -67.477365
 0.215000   19.865975   -68.444163
 0.220000   19.521288   -69.255530
 0.225000   19.173420   -69.748846
 0.230000   18.823800   -70.142666
 0.235000   18.471993   -70.409818
 0.240000   18.119701   -70.572197
 0.245000   17.766271   -70.760398
 0.250000   17.412097   -70.961922
 0.255000   17.056652   -71.458334
 0.260000   16.697514   -72.197816
 0.265000   16.334674   -73.024134
 0.270000   15.967273   -73.890405
 0.275000   15.595770   -74.583501
 0.280000   15.221438   -75.148338
 0.285000   14.844287   -75.594686
 0.290000   14.465491   -75.682395
 0.295000   14.087463   -75.396451
 0.300000   13.711526   -74.784207
 0.305000   13.339621   -73.789714
 0.310000   12.973629   -72.497685
 0.315000   12.614644   -70.867898
 0.320000   12.264950   -68.903417
 0.325000   11.925610   -66.703712
 0.330000   11.597913   -64.220322
 0.335000   11.283406   -61.525339
 0.340000   10.982660   -58.734010
 0.345000   10.696066   -55.752978
 0.350000   10.425130   -52.707335
 0.355000   10.168993   -49.764747
 0.360000   9.927482   -46.781035
 0.365000   9.701182   -43.778435
 0.370000   9.489698   -40.809823
 0.375000   9.293084   -37.769257
 0.380000   9.112006   -34.656455
 0.385000   8.946520   -31.704186
 0.390000   8.794964   -29.076810
 0.395000   8.655752   -26.783869
 0.400000   8.527125   -24.845569
 0.405000   8.407296   -23.191798
 0.410000   8.295207   -21.906087
 0.415000   8.188235   -20.861269
 0.420000   8.086594   -19.743360
 0.425000   7.990801   -18.482311
 0.430000   7.901771   -16.961813
 0.435000   7.821183   -14.996097
 0.440000   7.751810   -12.706909
 0.445000   7.694114   -10.622182
 0.450000   7.645588   -9.331559
 0.455000   7.600799   -9.273749
 0.460000   7.552851   -10.564720
 0.465000   7.495151   -13.413214
 0.470000   7.418719   -17.997855
 0.475000   7.315173   -23.233116
 0.480000   7.186388   -28.287744
 0.485000   7.032295   -33.184115
 0.490000   6.854546   -37.520731
 0.495000   6.657088   -40.833221
 0.500000   6.446214   -42.279805
 0.505000   6.234290   -41.280882
 0.510000   6.033405   -37.937049
 0.515000   5.854920   -32.623865
 0.520000   5.707167   -26.069495
 0.525000   5.594225   -18.384395
 0.530000   5.523323   -10.569817
 0.535000   5.488526   -4.485538
 0.540000   5.478467   -0.527583
 0.545000   5.483251   1.535492
 0.550000   5.493822   1.726628
 0.555000   5.500517   -0.250784
 0.560000   5.491314   -4.494691
 0.565000   5.455570   -10.240123
 0.570000   5.388913   -16.620676
 0.575000   5.289363   -23.035645
 0.580000   5.158557   -28.876811
 0.585000   5.000595   -33.924569
 0.590000   4.819311   -37.873497
 0.595000   4.621860   -40.339520
 0.600000   4.415916   -41.496252
 0.605000   4.206898   -41.841209
 0.610000   3.997504   -41.724412
 0.615000   3.789654   -41.658683
 0.620000   3.580917   -42.430658
 0.625000   3.365347   -44.301660
 0.630000   3.137900   -47.117508
 0.635000   2.894172   -50.776632
 0.640000   2.630134   -55.206186
 0.645000   2.342110   -60.086887
 0.650000   2.029265   -63.759582
 0.655000   1.704514   -65.211790
 0.660000   1.377147   -64.759654
 0.665000   1.056918   -62.245200
 0.670000   0.754695   -57.682690
 0.675000   0.480091   -51.463743
 0.680000   0.240058   -43.913276
 0.685000   0.040958   -35.932245
 0.690000   -0.119265   -28.456135
 0.695000   -0.243603   -21.554335
 0.700000   -0.334808   -15.231098
 0.705000   -0.395914   -9.547502
 0.710000   -0.430283   -4.534765
 0.715000   -0.441262   -0.252203
 0.720000   -0.432805   3.337415
 0.725000   -0.407888   6.427351
 0.730000   -0.368531   9.198488
 0.735000   -0.315903   11.815265
 0.740000   -0.250379   14.371473
 0.745000   -0.172188   16.868723
 0.750000   -0.081692   19.322935
 0.755000   0.021041   21.710716
 0.760000   0.135416   23.935073
 0.765000   0.260392   25.917489
 0.770000   0.394590   27.645944
 0.775000   0.536851   29.087728
 0.780000   0.685468   30.151203
 0.785000   0.838363   30.827763
 0.790000   0.993745   31.152423
 0.795000   1.149888   31.117328
 0.800000   1.304919   30.637289
 0.805000   1.456260   29.611164
 0.810000   1.601030   27.948284
 0.815000   1.735743   25.498613
 0.820000   1.856016   22.127526
 0.825000   1.957019   17.848320
 0.830000   2.034500   12.722460
 0.835000   2.084243   6.729919
 0.840000   2.101799   -0.119347
 0.845000   2.083050   -7.906662
 0.850000   2.022732   -16.781293
 0.855000   1.915237   -26.193399
 0.860000   1.760798   -35.494979
 0.865000   1.560287   -44.450592
 0.870000   1.316292   -52.908216
 0.875000   1.031205   -60.850580
 0.880000   0.707786   -68.371346
 0.885000   0.347491   -75.720761
 0.890000   -0.049421   -83.255736
 0.895000   -0.485066   -91.880882
 0.900000   -0.968230   -101.810142
 0.905000   -1.503167   -112.771960
 0.910000   -2.095950   -125.316822
 0.915000   -2.756336   -139.362623
 0.920000   -3.489576   -153.297635
 0.925000   -4.289312   -165.965931
 0.930000   -5.149235   -174.258018
 0.935000   -6.031892   -173.044267
 0.940000   -6.879678   -157.854582
 0.945000   -7.610438   -126.108600
 0.950000   -8.140764   -76.767398
 0.955000   -8.378112   -9.683689
 0.960000   -8.237601   72.451536
 0.965000   -7.653597   165.327029
 0.970000   -6.584330   259.825655
 0.975000   -5.055340   344.300775
 0.980000   -3.141323   409.367187
 0.985000   -0.961668   445.202479
 0.990000   1.310702   443.493094
 0.995000   3.473263   400.648221
 1.000000   5.317184   336.920457
201 psinorm omgpp(kRad/s) domgpp/dpsiN
 0.000000   -0.034441   -17.216138
 0.005000   -0.138569   -24.434831
 0.010000   -0.278790   -28.205618
 0.015000   -0.420625   -28.545184
 0.020000   -0.564241   -28.935496
 0.025000   -0.709980   -29.391157
 0.030000   -0.858153   -29.876991
 0.035000   -1.008750   -30.387395
 0.040000   -1.162027   -30.936168
 0.045000   -1.318111   -31.503231
 0.050000   -1.477059   -32.100275
 0.055000   -1.639114   -32.699722
 0.060000   -1.804056   -33.141824
 0.065000   -1.970532   -33.442546
 0.070000   -2.138482   -33.657067
 0.075000   -2.307103   -33.695745
 0.080000   -2.475439   -33.526569
 0.085000   -2.642369   -33.093556
 0.090000   -2.806375   -32.478039
 0.095000   -2.967149   -31.761339
 0.100000   -3.123988   -30.894618
 0.105000   -3.276095   -29.876022
 0.110000   -3.422749   -28.683927
 0.115000   -3.562935   -27.124530
 0.120000   -3.693994   -25.676911
 0.125000   -3.819704   -24.353953
 0.130000   -3.937533   -22.750509
 0.135000   -4.047209   -21.125835
 0.140000   -4.148792   -19.537273
 0.145000   -4.242582   -17.796391
 0.150000   -4.326756   -16.879354
 0.155000   -4.411375   -16.598455
 0.160000   -4.492740   -16.013011
 0.165000   -4.571505   -15.516653
 0.170000   -4.647907   -15.016339
 0.175000   -4.721669   -14.394881
 0.180000   -4.791856   -13.427362
 0.185000   -4.855942   -12.225680
 0.190000   -4.914112   -11.047057
 0.195000   -4.966413   -9.872294
 0.200000   -5.012835   -8.693768
 0.205000   -5.053350   -7.516846
 0.210000   -5.088004   -6.208910
 0.215000   -5.115440   -4.726703
 0.220000   -5.135271   -3.195208
 0.225000   -5.147392   -1.656280
 0.230000   -5.151834   -0.141780
 0.235000   -5.148809   1.522597
 0.240000   -5.136608   2.775526
 0.245000   -5.121054   3.234550
 0.250000   -5.104262   3.478368
 0.255000   -5.086270   3.686092
 0.260000   -5.067401   3.857989
 0.265000   -5.047691   3.853478
 0.270000   -5.028866   3.812160
 0.275000   -5.009569   4.099037
 0.280000   -4.987876   4.523157
 0.285000   -4.964337   4.917308
 0.290000   -4.938703   5.367638
 0.295000   -4.910661   5.610655
 0.300000   -4.882596   6.062904
 0.305000   -4.850032   7.347087
 0.310000   -4.809126   8.853761
 0.315000   -4.761494   10.277657
 0.320000   -4.706349   11.843009
 0.325000   -4.643064   13.572381
 0.330000   -4.570625   15.626740
 0.335000   -4.486797   17.552515
 0.340000   -4.395100   18.946828
 0.345000   -4.297329   20.035123
 0.350000   -4.194749   20.881638
 0.355000   -4.088512   21.681690
 0.360000   -3.977932   22.487617
 0.365000   -3.863636   22.567346
 0.370000   -3.752258   22.232530
 0.375000   -3.641311   22.035667
 0.380000   -3.531902   21.606112
 0.385000   -3.425250   20.936170
 0.390000   -3.322540   19.819660
 0.395000   -3.227053   18.306514
 0.400000   -3.139475   17.071040
 0.405000   -3.056343   16.292999
 0.410000   -2.976545   15.719107
 0.415000   -2.899152   15.261668
 0.420000   -2.823928   14.727981
 0.425000   -2.751872   14.850806
 0.430000   -2.675420   15.377991
 0.435000   -2.598092   15.487498
 0.440000   -2.520545   15.457334
 0.445000   -2.443519   15.280454
 0.450000   -2.367741   15.087812
 0.455000   -2.292640   14.728373
 0.460000   -2.220457   13.954101
 0.465000   -2.153099   12.864930
 0.470000   -2.091808   11.576478
 0.475000   -2.037335   10.183316
 0.480000   -1.989974   8.680862
 0.485000   -1.950526   7.284382
 0.490000   -1.917131   6.118966
 0.495000   -1.889336   5.025379
 0.500000   -1.866877   4.002918
 0.505000   -1.849307   3.083313
 0.510000   -1.836044   2.252283
 0.515000   -1.826784   1.666271
 0.520000   -1.819381   1.236944
 0.525000   -1.814415   0.764389
 0.530000   -1.811737   0.340164
 0.535000   -1.811013   -0.018410
 0.540000   -1.811921   -0.162719
 0.545000   -1.812640   -0.350625
 0.550000   -1.815427   -0.968301
 0.555000   -1.822323   -1.819457
 0.560000   -1.833622   -2.680346
 0.565000   -1.849127   -3.433578
 0.570000   -1.867958   -3.921600
 0.575000   -1.888343   -4.164738
 0.580000   -1.909605   -4.322060
 0.585000   -1.931564   -4.414320
 0.590000   -1.953748   -4.428384
 0.595000   -1.975847   -4.383466
 0.600000   -1.997583   -4.256055
 0.605000   -2.018408   -4.093188
 0.610000   -2.038515   -3.969797
 0.615000   -2.058106   -3.824704
 0.620000   -2.076762   -3.630514
 0.625000   -2.094411   -3.421558
 0.630000   -2.110978   -3.194807
 0.635000   -2.126359   -2.912754
 0.640000   -2.140105   -2.442562
 0.645000   -2.150785   -1.733448
 0.650000   -2.157440   -0.899209
 0.655000   -2.159777   -0.039880
 0.660000   -2.157838   0.850843
 0.665000   -2.151268   1.749356
 0.670000   -2.140345   2.181202
 0.675000   -2.129456   2.257038
 0.680000   -2.117774   2.332861
 0.685000   -2.106128   2.243113
 0.690000   -2.095343   2.006124
 0.695000   -2.086067   1.530569
 0.700000   -2.080038   0.707348
 0.705000   -2.078993   -0.219779
 0.710000   -2.082235   -1.205975
 0.715000   -2.091053   -2.475820
 0.720000   -2.106994   -4.142145
 0.725000   -2.132474   -7.022913
 0.730000   -2.177223   -9.067099
 0.735000   -2.223145   -9.622019
 0.740000   -2.273443   -10.352422
 0.745000   -2.326669   -10.784208
 0.750000   -2.381285   -10.882206
 0.755000   -2.435492   -11.553936
 0.760000   -2.496824   -10.174180
 0.765000   -2.537233   -6.905795
 0.770000   -2.565882   -4.316958
 0.775000   -2.580403   -1.269938
 0.780000   -2.578582   2.159293
 0.785000   -2.558810   6.077305
 0.790000   -2.517809   9.986335
 0.795000   -2.458947   13.013612
 0.800000   -2.387673   15.338834
 0.805000   -2.305558   17.323329
 0.810000   -2.214439   18.912602
 0.815000   -2.116432   20.599423
 0.820000   -2.008445   21.202040
 0.825000   -1.904412   20.278671
 0.830000   -1.805658   19.135571
 0.835000   -1.713056   17.707604
 0.840000   -1.628582   15.939368
 0.845000   -1.553662   14.041903
 0.850000   -1.488163   11.949028
 0.855000   -1.434172   9.992837
 0.860000   -1.388235   8.355899
 0.865000   -1.350613   6.500764
 0.870000   -1.323227   4.216605
 0.875000   -1.308447   1.205496
 0.880000   -1.311172   -2.428303
 0.885000   -1.332730   -5.952104
 0.890000   -1.370693   -9.549675
 0.895000   -1.428227   -13.775255
 0.900000   -1.508446   -18.765970
 0.905000   -1.615887   -25.923998
 0.910000   -1.767686   -35.035067
 0.915000   -1.966237   -43.099471
 0.920000   -2.198681   -52.015399
 0.925000   -2.486391   -64.980463
 0.930000   -2.848485   -82.925236
 0.935000   -3.315644   -110.850832
 0.940000   -3.956993   -152.708199
 0.945000   -4.842726   -201.129769
 0.950000   -5.968291   -255.992594
 0.955000   -7.402652   -315.848488
 0.960000   -9.126776   -363.434776
 0.965000   -11.036999   -383.670830
 0.970000   -12.963484   -356.412692
 0.975000   -14.601126   -251.151354
 0.980000   -15.474998   -89.542487
 0.985000   -15.496551   83.171202
 0.990000   -14.643286   242.797271
 0.995000   -13.068578   357.781034
 1.000000   -11.065476   443.460099
201 psinorm omgeb(kRad/s) domgeb/dpsiN
 0.000000   23.467215   49.638980
 0.005000   23.633163   16.740303
 0.010000   23.634618   -0.870570
 0.015000   23.624457   -2.512488
 0.020000   23.609493   -3.608983
 0.025000   23.588368   -5.181529
 0.030000   23.557678   -7.504294
 0.035000   23.513325   -10.309720
 0.040000   23.454581   -13.366142
 0.045000   23.379663   -16.694196
 0.050000   23.287639   -20.145877
 0.055000   23.178204   -23.604481
 0.060000   23.051594   -26.858598
 0.065000   22.909618   -29.790186
 0.070000   22.753692   -32.417978
 0.075000   22.585439   -34.749627
 0.080000   22.406196   -36.704770
 0.085000   22.218391   -38.154795
 0.090000   22.024648   -39.222537
 0.095000   21.826166   -40.165501
 0.100000   21.622993   -41.051178
 0.105000   21.415654   -41.821241
 0.110000   21.204780   -42.557108
 0.115000   20.990083   -43.158228
 0.120000   20.773198   -44.170447
 0.125000   20.548378   -45.720350
 0.130000   20.315995   -47.333042
 0.135000   20.075048   -49.157119
 0.140000   19.824423   -51.199725
 0.145000   19.563051   -53.361255
 0.150000   19.290811   -56.463831
 0.155000   18.998412   -60.000962
 0.160000   18.690801   -63.010779
 0.165000   18.368305   -65.882772
 0.170000   18.031973   -68.583726
 0.175000   17.682467   -70.854545
 0.180000   17.323428   -72.268554
 0.185000   16.959782   -73.018743
 0.190000   16.593241   -73.465836
 0.195000   16.225123   -73.678369
 0.200000   15.856457   -73.772488
 0.205000   15.487398   -73.873101
 0.210000   15.117726   -73.686275
 0.215000   14.750536   -73.170866
 0.220000   14.386017   -72.450738
 0.225000   14.026028   -71.405126
 0.230000   13.671966   -70.284446
 0.235000   13.323184   -68.887220
 0.240000   12.983094   -67.796670
 0.245000   12.645217   -67.525848
 0.250000   12.307835   -67.483555
 0.255000   11.970382   -67.772242
 0.260000   11.630113   -68.339827
 0.265000   11.286983   -69.170656
 0.270000   10.938406   -70.078245
 0.275000   10.586201   -70.484464
 0.280000   10.233562   -70.625181
 0.285000   9.879949   -70.677378
 0.290000   9.526788   -70.314757
 0.295000   9.176802   -69.785796
 0.300000   8.828930   -68.721303
 0.305000   8.489589   -66.442627
 0.310000   8.164504   -63.643924
 0.315000   7.853149   -60.590241
 0.320000   7.558601   -57.060408
 0.325000   7.282545   -53.131331
 0.330000   7.027288   -48.593582
 0.335000   6.796609   -43.972824
 0.340000   6.587560   -39.787182
 0.345000   6.398738   -35.717855
 0.350000   6.230381   -31.825698
 0.355000   6.080481   -28.083056
 0.360000   5.949551   -24.293418
 0.365000   5.837546   -21.211089
 0.370000   5.737440   -18.577292
 0.375000   5.651773   -15.733591
 0.380000   5.580104   -13.050343
 0.385000   5.521270   -10.768017
 0.390000   5.472424   -9.257151
 0.395000   5.428699   -8.477354
 0.400000   5.387650   -7.774529
 0.405000   5.350953   -6.898799
 0.410000   5.318662   -6.186981
 0.415000   5.289083   -5.599601
 0.420000   5.262666   -5.015379
 0.425000   5.238930   -3.631505
 0.430000   5.226351   -1.583823
 0.435000   5.223091   0.491400
 0.440000   5.231265   2.750425
 0.445000   5.250596   4.658272
 0.450000   5.277848   5.756253
 0.455000   5.308158   5.454624
 0.460000   5.332394   3.389381
 0.465000   5.342052   -0.548284
 0.470000   5.326911   -6.421378
 0.475000   5.277838   -13.049800
 0.480000   5.196413   -19.606882
 0.485000   5.081769   -25.899733
 0.490000   4.937416   -31.401765
 0.495000   4.767752   -35.807842
 0.500000   4.579337   -38.276886
 0.505000   4.384983   -38.197569
 0.510000   4.197362   -35.684766
 0.515000   4.028135   -30.957594
 0.520000   3.887786   -24.832551
 0.525000   3.779810   -17.620006
 0.530000   3.711586   -10.229653
 0.535000   3.677513   -4.503948
 0.540000   3.666546   -0.690302
 0.545000   3.670610   1.184867
 0.550000   3.678395   0.758327
 0.555000   3.678193   -2.070241
 0.560000   3.657692   -7.175036
 0.565000   3.606443   -13.673702
 0.570000   3.520955   -20.542276
 0.575000   3.401020   -27.200383
 0.580000   3.248952   -33.198871
 0.585000   3.069032   -38.338889
 0.590000   2.865563   -42.301881
 0.595000   2.646013   -44.722986
 0.600000   2.418333   -45.752307
 0.605000   2.188490   -45.934397
 0.610000   1.958989   -45.694209
 0.615000   1.731548   -45.483387
 0.620000   1.504155   -46.061172
 0.625000   1.270936   -47.723218
 0.630000   1.026923   -50.312315
 0.635000   0.767813   -53.689387
 0.640000   0.490029   -57.648748
 0.645000   0.191325   -61.820335
 0.650000   -0.128174   -64.658791
 0.655000   -0.455263   -65.251670
 0.660000   -0.780691   -63.908810
 0.665000   -1.094351   -60.495844
 0.670000   -1.385650   -55.501488
 0.675000   -1.649366   -49.206705
 0.680000   -1.877717   -41.580415
 0.685000   -2.065170   -33.689132
 0.690000   -2.214608   -26.450011
 0.695000   -2.329670   -20.023767
 0.700000   -2.414846   -14.523751
 0.705000   -2.474907   -9.767281
 0.710000   -2.512518   -5.740740
 0.715000   -2.532315   -2.728023
 0.720000   -2.539799   -0.804730
 0.725000   -2.540362   -0.595561
 0.730000   -2.545754   0.131389
 0.735000   -2.539048   2.193246
 0.740000   -2.523822   4.019050
 0.745000   -2.498858   6.084516
 0.750000   -2.462977   8.440728
 0.755000   -2.414450   10.156780
 0.760000   -2.361409   13.760892
 0.765000   -2.276841   19.011694
 0.770000   -2.171292   23.328986
 0.775000   -2.043552   27.817790
 0.780000   -1.893114   32.310497
 0.785000   -1.720447   36.905068
 0.790000   -1.524063   41.138757
 0.795000   -1.309059   44.130940
 0.800000   -1.082754   45.976124
 0.805000   -0.849298   46.934493
 0.810000   -0.613409   46.860886
 0.815000   -0.380689   46.098036
 0.820000   -0.152429   43.329566
 0.825000   0.052607   38.126991
 0.830000   0.228841   31.858032
 0.835000   0.371187   24.437523
 0.840000   0.473217   15.820021
 0.845000   0.529387   6.135241
 0.850000   0.534569   -4.832265
 0.855000   0.481065   -16.200562
 0.860000   0.372563   -27.139080
 0.865000   0.209674   -37.949828
 0.870000   -0.006935   -48.691611
 0.875000   -0.277242   -59.645083
 0.880000   -0.603386   -70.799649
 0.885000   -0.985239   -81.672865
 0.890000   -1.420114   -92.805410
 0.895000   -1.913293   -105.656137
 0.900000   -2.476676   -120.576112
 0.905000   -3.119054   -138.695958
 0.910000   -3.863635   -160.351889
 0.915000   -4.722573   -182.462094
 0.920000   -5.688256   -205.313033
 0.925000   -6.775703   -230.946394
 0.930000   -7.997720   -257.183254
 0.935000   -9.347536   -283.895100
 0.940000   -10.836671   -310.562781
 0.945000   -12.453164   -327.238369
 0.950000   -14.109055   -332.759992
 0.955000   -15.780764   -325.532177
 0.960000   -17.364377   -290.983240
 0.965000   -18.690596   -218.343801
 0.970000   -19.547815   -96.587037
 0.975000   -19.656466   93.149421
 0.980000   -18.616321   319.824700
 0.985000   -16.458219   528.373682
 0.990000   -13.332584   686.290366
 0.995000   -9.595316   758.429256
 1.000000   -5.748291   780.380556
201 psinorm er(kV/m) der/dpsiN
 0.000000   0.388527   506.278742
 0.005000   2.417287   305.225319
 0.010000   3.440780   181.181486
 0.015000   4.229102   144.819204
 0.020000   4.888972   124.502193
 0.025000   5.474124   110.930353
 0.030000   5.998276   99.820200
 0.035000   6.472326   90.859978
 0.040000   6.906875   83.284143
 0.045000   7.305167   76.594833
 0.050000   7.672824   70.396706
 0.055000   8.009134   64.557505
 0.060000   8.318399   60.240273
 0.065000   8.611537   55.929818
 0.070000   8.877697   49.737230
 0.075000   9.108909   46.010925
 0.080000   9.337806   44.113484
 0.085000   9.550044   37.969262
 0.090000   9.717499   35.593917
 0.095000   9.905983   34.034868
 0.100000   10.057847   29.490885
 0.105000   10.200892   28.451293
 0.110000   10.342360   24.144104
 0.115000   10.442333   23.282134
 0.120000   10.575182   19.383162
 0.125000   10.636165   17.425280
 0.130000   10.749434   14.450898
 0.135000   10.780674   11.879060
 0.140000   10.868225   8.641099
 0.145000   10.867085   5.891356
 0.150000   10.927139   2.266345
 0.155000   10.889748   -1.932801
 0.160000   10.907811   -4.339536
 0.165000   10.846353   -9.122088
 0.170000   10.816590   -10.714105
 0.175000   10.739212   -15.772129
 0.180000   10.658868   -16.102462
 0.185000   10.578187   -20.647065
 0.190000   10.452398   -20.015133
 0.195000   10.378036   -24.229980
 0.200000   10.210098   -26.204983
 0.205000   10.115986   -24.093098
 0.210000   9.969167   -29.189356
 0.215000   9.824092   -26.426091
 0.220000   9.704906   -31.181055
 0.225000   9.512282   -31.173500
 0.230000   9.393171   -28.660157
 0.235000   9.225680   -32.765473
 0.240000   9.065516   -28.700516
 0.245000   8.938675   -33.884063
 0.250000   8.726676   -35.370040
 0.255000   8.584975   -31.324786
 0.260000   8.413428   -37.989599
 0.265000   8.205079   -37.346865
 0.270000   8.039959   -38.355424
 0.275000   7.821525   -42.692824
 0.280000   7.613031   -39.355719
 0.285000   7.427967   -43.617541
 0.290000   7.176856   -45.465041
 0.295000   6.973317   -40.293629
 0.300000   6.773919   -45.799789
 0.305000   6.515319   -44.750898
 0.310000   6.326410   -38.224564
 0.315000   6.133073   -41.824206
 0.320000   5.908168   -38.798647
 0.325000   5.745087   -32.843498
 0.330000   5.579733   -34.195307
 0.335000   5.403134   -29.688169
 0.340000   5.282852   -24.300481
 0.345000   5.160129   -25.198182
 0.350000   5.030870   -21.017255
 0.355000   4.949956   -16.240169
 0.360000   4.868468   -16.790947
 0.365000   4.782047   -13.319995
 0.370000   4.735268   -9.344643
 0.375000   4.688601   -10.297042
 0.380000   4.632298   -7.394539
 0.385000   4.614655   -3.388786
 0.390000   4.598410   -5.238393
 0.395000   4.562271   -4.285369
 0.400000   4.555556   -1.183341
 0.405000   4.550438   -3.488933
 0.410000   4.520667   -3.003326
 0.415000   4.520405   0.158027
 0.420000   4.522247   -1.763986
 0.425000   4.502765   -1.095962
 0.430000   4.511287   2.771750
 0.435000   4.530482   3.270225
 0.440000   4.543990   4.360791
 0.445000   4.574090   7.386214
 0.450000   4.617852   8.160270
 0.455000   4.655693   6.738320
 0.460000   4.685235   5.621055
 0.465000   4.711903   2.816744
 0.470000   4.713403   -3.778166
 0.475000   4.674122   -9.536234
 0.480000   4.618040   -14.226808
 0.485000   4.531854   -21.229314
 0.490000   4.405747   -26.520278
 0.495000   4.266651   -29.447261
 0.500000   4.111274   -32.413508
 0.505000   3.942516   -33.103821
 0.510000   3.780236   -30.367444
 0.515000   3.638841   -26.004437
 0.520000   3.520192   -21.470024
 0.525000   3.424141   -14.829737
 0.530000   3.371894   -7.360165
 0.535000   3.350539   -3.115573
 0.540000   3.340739   0.153156
 0.545000   3.352071   2.725883
 0.550000   3.367998   1.979342
 0.555000   3.371864   -1.159222
 0.560000   3.356405   -5.450012
 0.565000   3.317364   -11.063962
 0.570000   3.245766   -18.276235
 0.575000   3.134602   -24.451642
 0.580000   3.001249   -29.279412
 0.585000   2.841808   -34.718123
 0.590000   2.654068   -38.819978
 0.595000   2.453608   -40.623228
 0.600000   2.247836   -41.611426
 0.605000   2.037494   -42.541048
 0.610000   1.822425   -42.263769
 0.615000   1.614856   -41.553933
 0.620000   1.406886   -42.826726
 0.625000   1.186589   -44.672938
 0.630000   0.960157   -46.590842
 0.635000   0.720680   -49.943912
 0.640000   0.460717   -54.275441
 0.645000   0.177926   -58.083622
 0.650000   -0.120119   -60.380940
 0.655000   -0.425883   -61.646010
 0.660000   -0.736579   -60.607139
 0.665000   -1.031955   -56.926227
 0.670000   -1.305841   -52.449691
 0.675000   -1.556452   -46.982761
 0.680000   -1.775669   -39.631524
 0.685000   -1.952767   -31.851861
 0.690000   -2.094187   -25.522393
 0.695000   -2.207991   -19.539956
 0.700000   -2.289587   -13.880403
 0.705000   -2.346795   -9.493091
 0.710000   -2.384518   -5.987343
 0.715000   -2.406668   -2.955225
 0.720000   -2.414070   -0.821145
 0.725000   -2.414880   -0.993995
 0.730000   -2.424010   -0.360444
 0.735000   -2.418484   1.992434
 0.740000   -2.404086   3.674501
 0.745000   -2.381739   5.354831
 0.750000   -2.350537   7.741819
 0.755000   -2.304321   9.689813
 0.760000   -2.253639   12.845885
 0.765000   -2.175862   17.794110
 0.770000   -2.075698   22.244034
 0.775000   -1.953422   26.549337
 0.780000   -1.810205   30.614439
 0.785000   -1.647277   35.119434
 0.790000   -1.459010   39.446021
 0.795000   -1.252817   42.147168
 0.800000   -1.037539   43.858657
 0.805000   -0.814231   44.978227
 0.810000   -0.587756   44.971043
 0.815000   -0.364520   44.110898
 0.820000   -0.146647   41.486362
 0.825000   0.050343   36.638803
 0.830000   0.219741   30.574410
 0.835000   0.356088   23.416862
 0.840000   0.453909   15.197139
 0.845000   0.508059   5.931911
 0.850000   0.513228   -4.639769
 0.855000   0.461661   -15.566795
 0.860000   0.357560   -26.041650
 0.865000   0.201245   -36.416436
 0.870000   -0.006604   -46.734556
 0.875000   -0.266101   -57.259662
 0.880000   -0.579201   -67.962336
 0.885000   -0.945724   -78.335676
 0.890000   -1.362557   -88.999275
 0.895000   -1.835717   -101.359645
 0.900000   -2.376154   -115.612828
 0.905000   -2.991845   -132.956782
 0.910000   -3.705722   -153.823657
 0.915000   -4.530082   -175.132585
 0.920000   -5.457048   -197.677012
 0.925000   -6.506852   -223.186007
 0.930000   -7.688908   -248.884503
 0.935000   -8.995697   -276.113703
 0.940000   -10.450045   -306.145828
 0.945000   -12.057155   -323.009073
 0.950000   -13.680135   -326.079080
 0.955000   -15.317946   -325.610892
 0.960000   -16.936244   -295.977962
 0.965000   -18.277726   -220.089177
 0.970000   -19.137136   -98.310907
 0.975000   -19.260835   87.664523
 0.980000   -18.260491   310.457005
 0.985000   -16.156265   515.222269
 0.990000   -13.108268   673.083814
 0.995000   -9.425427   746.946669
 1.000000   -5.638801   767.703369
201 psinorm ommvb() dommvb/dpsiN
 0.000000   26.192447   25841.969827
 0.005000   125.210992   13765.448151
 0.010000   163.846928   7709.810708
 0.015000   202.309099   7024.076942
 0.020000   234.087698   5940.835166
 0.025000   261.717450   4935.946595
 0.030000   283.447164   4092.932605
 0.035000   302.646776   3597.774274
 0.040000   319.424906   3083.332619
 0.045000   333.480103   2689.719385
 0.050000   346.322100   2319.814177
 0.055000   356.678244   1910.087246
 0.060000   365.422973   1573.123593
 0.065000   372.409480   1306.688136
 0.070000   378.489854   1049.256647
 0.075000   382.902047   766.673692
 0.080000   386.156591   622.257650
 0.085000   389.124623   434.919847
 0.090000   390.505789   201.724263
 0.095000   391.141866   96.557894
 0.100000   391.471368   4.301027
 0.105000   391.184876   -122.966462
 0.110000   390.241704   -394.348750
 0.115000   387.241389   -562.672954
 0.120000   384.614974   -566.788649
 0.125000   381.573502   -672.889757
 0.130000   377.886077   -778.491978
 0.135000   373.788582   -883.808667
 0.140000   369.047990   -990.756687
 0.145000   363.881016   -1050.559365
 0.150000   358.542396   -1098.264035
 0.155000   352.898375   -1158.218821
 0.160000   346.960208   -1209.309534
 0.165000   340.805280   -1249.195789
 0.170000   334.468250   -1280.761092
 0.175000   327.997669   -1296.850021
 0.180000   321.499750   -1303.268515
 0.185000   314.964984   -1312.849714
 0.190000   308.371253   -1318.931674
 0.195000   301.775667   -1314.000604
 0.200000   295.231247   -1299.660493
 0.205000   288.779062   -1279.896128
 0.210000   282.432285   -1381.842611
 0.215000   274.960636   -1364.949016
 0.220000   268.782795   -1202.409204
 0.225000   262.936544   -1147.093465
 0.230000   257.311861   -1103.790828
 0.235000   251.898636   -1062.277756
 0.240000   246.689083   -1019.937104
 0.245000   241.699265   -1042.476220
 0.250000   236.264321   -1090.986461
 0.255000   230.789400   -971.674401
 0.260000   226.547577   -824.765652
 0.265000   222.541744   -782.595021
 0.270000   218.721627   -744.157021
 0.275000   215.100173   -781.699947
 0.280000   210.904627   -776.339125
 0.285000   207.336782   -624.035115
 0.290000   204.664276   -513.309027
 0.295000   202.203692   -471.443631
 0.300000   199.949840   -485.435760
 0.305000   197.349334   -489.485806
 0.310000   195.054982   -366.240433
 0.315000   193.686930   -255.522400
 0.320000   192.499758   -220.226495
 0.325000   191.484665   -251.075559
 0.330000   189.989002   -219.795482
 0.335000   189.286710   -104.320358
 0.340000   188.945799   -55.608822
 0.345000   188.730622   -59.550696
 0.350000   188.350292   -70.104946
 0.355000   188.029572   -8.471266
 0.360000   188.265579   54.461080
 0.365000   188.574183   57.048571
 0.370000   188.836065   27.910604
 0.375000   188.853289   57.900415
 0.380000   189.415069   115.429206
 0.385000   190.007581   114.165577
 0.390000   190.556725   71.758340
 0.395000   190.725165   86.624679
 0.400000   191.422971   141.272920
 0.405000   192.137894   134.975635
 0.410000   192.772728   93.427609
 0.415000   193.072170   110.853942
 0.420000   193.881267   162.810376
 0.425000   194.700274   148.240545
 0.430000   195.363673   113.437197
 0.435000   195.834646   137.017023
 0.440000   196.733843   179.442227
 0.445000   197.629068   145.777623
 0.450000   198.191619   106.493083
 0.455000   198.693999   131.282517
 0.460000   199.504444   157.444045
 0.465000   200.268439   89.867271
 0.470000   200.403117   47.738090
 0.475000   200.745820   85.226706
 0.480000   201.255384   94.971167
 0.485000   201.695532   -9.858985
 0.490000   201.156794   -34.999815
 0.495000   201.345534   35.791550
 0.500000   201.514710   5.542745
 0.505000   201.400961   -91.966915
 0.510000   200.595040   -81.734925
 0.515000   200.583612   -4.302502
 0.520000   200.552015   -65.399491
 0.525000   199.929617   -130.898594
 0.530000   199.243029   -74.756717
 0.535000   199.182050   -13.427962
 0.540000   199.108750   -105.600600
 0.545000   198.126044   -135.217435
 0.550000   197.756575   -42.134496
 0.555000   197.704699   -13.400692
 0.560000   197.622569   -131.954549
 0.565000   196.385153   -134.997098
 0.570000   196.272598   -21.797773
 0.575000   196.167176   -41.510980
 0.580000   195.857488   -140.083220
 0.585000   194.766343   -118.148522
 0.590000   194.676003   -18.318658
 0.595000   194.583157   -46.803445
 0.600000   194.207968   -103.592465
 0.605000   193.547232   -52.467315
 0.610000   193.683295   32.634878
 0.615000   193.873581   16.053749
 0.620000   193.843832   -0.411262
 0.625000   193.869468   62.375332
 0.630000   194.467586   129.084211
 0.635000   195.160310   135.902193
 0.640000   195.826608   151.093163
 0.645000   196.671242   222.666989
 0.650000   198.053278   295.064237
 0.655000   199.621884   334.564718
 0.660000   201.398925   392.185655
 0.665000   203.543741   462.330875
 0.670000   206.022234   518.172589
 0.675000   208.725467   564.949586
 0.680000   211.671729   638.835203
 0.685000   215.113819   693.302878
 0.690000   218.604758   716.566286
 0.695000   222.279482   753.960818
 0.700000   226.144366   809.280012
 0.705000   230.372282   859.600244
 0.710000   234.740369   878.121134
 0.715000   239.153493   901.570952
 0.720000   243.756078   940.132205
 0.725000   248.554815   1007.547109
 0.730000   253.831549   1058.566300
 0.735000   259.140478   1086.589054
 0.740000   264.697440   1141.645088
 0.745000   270.556929   1203.689759
 0.750000   276.734338   1300.872321
 0.755000   283.565652   1364.747852
 0.760000   290.381816   1394.630019
 0.765000   297.511953   1461.270802
 0.770000   304.994524   1533.125927
 0.775000   312.843212   1613.994427
 0.780000   321.134468   1684.626092
 0.785000   329.689473   1736.671133
 0.790000   338.501180   1796.705310
 0.795000   347.656526   1868.811130
 0.800000   357.189291   1947.654438
 0.805000   367.133070   2013.391582
 0.810000   377.323207   2069.118841
 0.815000   387.824259   2149.371035
 0.820000   398.816917   2235.297772
 0.825000   410.177236   2314.893787
 0.830000   421.965855   2405.623295
 0.835000   434.233469   2500.855064
 0.840000   446.974406   2553.956067
 0.845000   459.773030   2570.156504
 0.850000   472.675971   2685.812987
 0.855000   486.631160   2851.733152
 0.860000   501.193302   2992.811850
 0.865000   516.559278   3220.989291
 0.870000   533.403195   3611.285071
 0.875000   552.672129   4179.606831
 0.880000   575.199263   4909.610581
 0.885000   601.768235   5825.801913
 0.890000   633.457283   7024.327273
 0.895000   672.011508   8523.756028
 0.900000   718.694843   10545.866138
 0.905000   777.470169   13187.370077
 0.910000   850.568544   16418.209983
 0.915000   941.652269   20175.809960
 0.920000   1052.326643   24131.010822
 0.925000   1182.962377   28273.704749
 0.930000   1335.063691   32575.009994
 0.935000   1508.712477   36789.432270
 0.940000   1702.958013   40618.798429
 0.945000   1914.900461   43546.367388
 0.950000   2138.421687   44559.835740
 0.955000   2360.498819   41607.330472
 0.960000   2554.494992   32854.303975
 0.965000   2689.041858   19065.657560
 0.970000   2745.151568   28.540766
 0.975000   2689.327266   -16862.022160
 0.980000   2576.531346   -25838.995798
 0.985000   2430.937308   -18578.181738
 0.990000   2390.749529   17312.367526
 0.995000   2604.060983   235082.068981
 1.000000   4741.570218   619921.625034
201 psinorm ommpp() dommpp/dpsiN
 0.000000   -2.725232   -25792.330847
 0.005000   -101.577829   -13748.707848
 0.010000   -140.212310   -7710.681277
 0.015000   -178.684641   -7026.589430
 0.020000   -210.478205   -5944.444150
 0.025000   -238.129083   -4941.128124
 0.030000   -259.889486   -4100.436900
 0.035000   -279.133452   -3608.083995
 0.040000   -295.970326   -3096.698761
 0.045000   -310.100439   -2706.413582
 0.050000   -323.034462   -2339.960054
 0.055000   -333.500040   -1933.691727
 0.060000   -342.371379   -1599.982191
 0.065000   -349.499862   -1336.478322
 0.070000   -355.736162   -1081.674625
 0.075000   -360.316608   -801.423319
 0.080000   -363.750395   -658.962420
 0.085000   -366.906232   -473.074641
 0.090000   -368.481142   -240.946800
 0.095000   -369.315700   -136.723395
 0.100000   -369.848376   -45.352205
 0.105000   -369.769222   81.145220
 0.110000   -369.036923   351.791642
 0.115000   -366.251306   519.514726
 0.120000   -363.841776   522.618202
 0.125000   -361.025124   627.169407
 0.130000   -357.570082   731.158936
 0.135000   -353.713535   834.651548
 0.140000   -349.223567   939.556962
 0.145000   -344.317965   997.198110
 0.150000   -339.251585   1041.800204
 0.155000   -333.899963   1098.217859
 0.160000   -328.269407   1146.298756
 0.165000   -322.436975   1183.313017
 0.170000   -316.436277   1212.177366
 0.175000   -310.315202   1225.995475
 0.180000   -304.176322   1230.999960
 0.185000   -298.005202   1239.830972
 0.190000   -291.778012   1245.465838
 0.195000   -285.550544   1240.322236
 0.200000   -279.374790   1225.888005
 0.205000   -273.291664   1206.023027
 0.210000   -267.314560   1308.156335
 0.215000   -260.210100   1291.778149
 0.220000   -254.396778   1129.958466
 0.225000   -248.910516   1075.688338
 0.230000   -243.639895   1033.506382
 0.235000   -238.575452   993.390535
 0.240000   -233.705989   952.140434
 0.245000   -229.054047   974.950372
 0.250000   -223.956486   1023.502906
 0.255000   -218.819018   903.902159
 0.260000   -214.917464   756.425825
 0.265000   -211.254760   713.424365
 0.270000   -207.783220   674.078776
 0.275000   -204.513972   711.215483
 0.280000   -200.671066   705.713944
 0.285000   -197.456833   553.357737
 0.290000   -195.137488   442.994270
 0.295000   -193.026890   401.657834
 0.300000   -191.120910   416.714457
 0.305000   -188.859746   423.043178
 0.310000   -186.890478   302.596508
 0.315000   -185.833781   194.932159
 0.320000   -184.941156   163.166087
 0.325000   -184.202120   197.944229
 0.330000   -182.961714   171.201901
 0.335000   -182.490101   60.347534
 0.340000   -182.358239   15.821639
 0.345000   -182.331884   23.832841
 0.350000   -182.119910   38.279248
 0.355000   -181.949092   -19.611790
 0.360000   -182.316028   -78.754498
 0.365000   -182.736637   -78.259660
 0.370000   -183.098625   -46.487896
 0.375000   -183.201516   -73.634006
 0.380000   -183.834965   -128.479549
 0.385000   -184.486311   -124.933593
 0.390000   -185.084301   -81.015490
 0.395000   -185.296466   -95.102034
 0.400000   -186.035321   -149.047449
 0.405000   -186.786941   -141.874434
 0.410000   -187.454066   -99.614589
 0.415000   -187.783087   -116.453543
 0.420000   -188.618601   -167.825755
 0.425000   -189.461344   -151.872050
 0.430000   -190.137322   -115.021020
 0.435000   -190.611554   -136.525622
 0.440000   -191.502578   -176.691802
 0.445000   -192.378472   -141.119351
 0.450000   -192.913771   -100.736830
 0.455000   -193.385841   -125.827893
 0.460000   -194.172050   -154.054664
 0.465000   -194.926387   -90.415555
 0.470000   -195.076206   -54.159468
 0.475000   -195.467982   -98.276506
 0.480000   -196.058971   -114.578050
 0.485000   -196.613762   -16.040749
 0.490000   -196.219378   3.598049
 0.495000   -196.577782   -71.599391
 0.500000   -196.935372   -43.819631
 0.505000   -197.015978   53.769347
 0.510000   -196.397679   46.050159
 0.515000   -196.555477   -26.655092
 0.520000   -196.664230   40.566941
 0.525000   -196.149807   113.278589
 0.530000   -195.531444   64.527064
 0.535000   -195.504537   8.924014
 0.540000   -195.442204   104.910298
 0.545000   -194.455434   136.402302
 0.550000   -194.078181   42.892823
 0.555000   -194.026505   11.330451
 0.560000   -193.964876   124.779512
 0.565000   -192.778710   121.323396
 0.570000   -192.751642   1.255497
 0.575000   -192.766155   14.310597
 0.580000   -192.608536   106.884349
 0.585000   -191.697312   79.809633
 0.590000   -191.810440   -23.983223
 0.595000   -191.937144   2.080459
 0.600000   -191.789635   57.840158
 0.605000   -191.358742   6.532918
 0.610000   -191.724306   -78.329087
 0.615000   -192.142033   -61.537136
 0.620000   -192.339677   -45.649909
 0.625000   -192.598532   -110.098550
 0.630000   -193.440663   -179.396525
 0.635000   -194.392498   -189.591579
 0.640000   -195.336579   -208.741911
 0.645000   -196.479917   -284.487324
 0.650000   -198.181452   -359.723028
 0.655000   -200.077147   -399.816388
 0.660000   -202.179616   -456.094466
 0.665000   -204.638092   -522.826720
 0.670000   -207.407883   -573.674077
 0.675000   -210.374832   -614.156291
 0.680000   -213.549446   -680.415618
 0.685000   -217.178989   -726.992010
 0.690000   -220.819366   -743.016298
 0.695000   -224.609152   -773.984585
 0.700000   -228.559212   -823.803763
 0.705000   -232.847189   -869.367526
 0.710000   -237.252887   -883.861874
 0.715000   -241.685808   -904.298975
 0.720000   -246.295877   -940.936935
 0.725000   -251.095177   -1008.142670
 0.730000   -256.377304   -1058.434912
 0.735000   -261.679526   -1084.395808
 0.740000   -267.221262   -1137.626038
 0.745000   -273.055787   -1197.605244
 0.750000   -279.197314   -1292.431593
 0.755000   -285.980103   -1354.591072
 0.760000   -292.743225   -1380.869127
 0.765000   -299.788794   -1442.259108
 0.770000   -307.165816   -1509.796941
 0.775000   -314.886763   -1586.176637
 0.780000   -323.027582   -1652.315595
 0.785000   -331.409919   -1699.766066
 0.790000   -340.025243   -1755.566553
 0.795000   -348.965585   -1824.680190
 0.800000   -358.272045   -1901.678314
 0.805000   -367.982368   -1966.457089
 0.810000   -377.936616   -2022.257955
 0.815000   -388.204948   -2103.272998
 0.820000   -398.969346   -2191.968206
 0.825000   -410.124630   -2276.766796
 0.830000   -421.737014   -2373.765264
 0.835000   -433.862282   -2476.417541
 0.840000   -446.501189   -2538.136046
 0.845000   -459.243643   -2564.021263
 0.850000   -472.141402   -2690.645253
 0.855000   -486.150095   -2867.933714
 0.860000   -500.820739   -3019.950930
 0.865000   -516.349605   -3258.939118
 0.870000   -533.410130   -3659.976682
 0.875000   -552.949371   -4239.251915
 0.880000   -575.802649   -4980.410231
 0.885000   -602.753474   -5907.474778
 0.890000   -634.877397   -7117.132683
 0.895000   -673.924801   -8629.412165
 0.900000   -721.171519   -10666.442250
 0.905000   -780.589223   -13326.066035
 0.910000   -854.432179   -16578.561872
 0.915000   -946.374842   -20358.272054
 0.920000   -1058.014900   -24336.323856
 0.925000   -1189.738080   -28504.651143
 0.930000   -1343.061411   -32832.193248
 0.935000   -1518.060013   -37073.327370
 0.940000   -1713.794685   -40929.361210
 0.945000   -1927.353625   -43873.605756
 0.950000   -2152.530742   -44892.595732
 0.955000   -2376.279582   -41932.862649
 0.960000   -2571.859369   -33145.287214
 0.965000   -2707.732454   -19284.001361
 0.970000   -2764.699382   -125.127803
 0.975000   -2708.983732   16955.171581
 0.980000   -2595.147667   26158.820498
 0.985000   -2447.395527   19106.555420
 0.990000   -2404.082112   -16626.077161
 0.995000   -2613.656299   -234323.639725
 1.000000   -4747.318510   -619141.244478
201 psinorm omevb() domevb/dpsiN
 0.000000   -11.267822   82.146402
 0.005000   -10.910232   60.889432
 0.010000   -10.658927   48.985613
 0.015000   -10.420376   47.115946
 0.020000   -10.187768   45.791412
 0.025000   -9.962462   43.990554
 0.030000   -9.747862   41.439217
 0.035000   -9.548070   38.404976
 0.040000   -9.363813   35.119512
 0.045000   -9.196875   31.562201
 0.050000   -9.048191   27.881066
 0.055000   -8.918064   24.192824
 0.060000   -8.806262   20.708901
 0.065000   -8.710975   17.547353
 0.070000   -8.630789   14.689463
 0.075000   -8.564080   12.127591
 0.080000   -8.509513   9.942116
 0.085000   -8.464659   8.261663
 0.090000   -8.426896   6.963411
 0.095000   -8.395025   5.789870
 0.100000   -8.368998   4.673563
 0.105000   -8.348289   3.672831
 0.110000   -8.332269   2.706270
 0.115000   -8.321227   1.874444
 0.120000   -8.313525   0.631522
 0.125000   -8.314911   -1.149070
 0.130000   -8.325015   -2.992421
 0.135000   -8.344836   -5.047115
 0.140000   -8.375487   -7.320282
 0.145000   -8.418038   -9.712305
 0.150000   -8.472610   -13.045292
 0.155000   -8.548491   -16.812739
 0.160000   -8.640737   -20.052764
 0.165000   -8.749019   -23.154846
 0.170000   -8.872286   -26.085757
 0.175000   -9.009877   -28.586387
 0.180000   -9.158149   -30.230049
 0.185000   -9.312177   -31.209722
 0.190000   -9.470247   -31.886118
 0.195000   -9.631038   -32.327759
 0.200000   -9.793524   -32.650780
 0.205000   -9.957546   -32.980078
 0.210000   -10.123325   -33.021708
 0.215000   -10.287763   -32.734514
 0.220000   -10.450670   -32.242349
 0.225000   -10.610187   -31.424436
 0.230000   -10.764914   -30.531180
 0.235000   -10.915498   -29.361092
 0.240000   -11.058525   -28.497384
 0.245000   -11.200472   -28.453094
 0.250000   -11.343056   -28.637016
 0.255000   -11.486842   -29.151588
 0.260000   -11.634572   -29.944718
 0.265000   -11.786290   -31.000741
 0.270000   -11.944580   -32.133164
 0.275000   -12.107621   -32.763846
 0.280000   -12.272218   -33.128645
 0.285000   -12.438908   -33.404533
 0.290000   -12.606263   -33.265201
 0.295000   -12.771560   -32.959119
 0.300000   -12.935855   -32.117084
 0.305000   -13.092731   -30.060437
 0.310000   -13.236459   -27.483323
 0.315000   -13.367564   -24.650780
 0.320000   -13.482967   -21.341630
 0.325000   -13.580980   -17.632768
 0.330000   -13.659294   -13.314758
 0.335000   -13.714128   -8.913256
 0.340000   -13.748427   -4.946375
 0.345000   -13.763591   -1.095306
 0.350000   -13.759380   2.579103
 0.355000   -13.737800   6.104516
 0.360000   -13.698335   9.677452
 0.365000   -13.641026   12.543616
 0.370000   -13.572899   14.961791
 0.375000   -13.491408   17.590422
 0.380000   -13.396995   20.059159
 0.385000   -13.290816   22.127542
 0.390000   -13.175719   23.425040
 0.395000   -13.056566   23.992050
 0.400000   -12.935799   24.482680
 0.405000   -12.811739   25.146811
 0.410000   -12.684330   25.647635
 0.415000   -12.555263   26.024631
 0.420000   -12.424084   26.399088
 0.425000   -12.291272   27.573823
 0.430000   -12.148346   29.412998
 0.435000   -11.997142   31.280352
 0.440000   -11.835542   33.332153
 0.445000   -11.663820   35.033428
 0.450000   -11.485208   35.925496
 0.455000   -11.304565   35.418618
 0.460000   -11.131022   33.148796
 0.465000   -10.973077   29.007228
 0.470000   -10.840950   22.930915
 0.475000   -10.743768   16.099961
 0.480000   -10.679950   9.341042
 0.485000   -10.650358   2.847054
 0.490000   -10.651480   -2.855409
 0.495000   -10.678912   -7.461206
 0.500000   -10.726092   -10.129253
 0.505000   -10.780205   -10.248216
 0.510000   -10.828574   -7.932965
 0.515000   -10.859534   -3.402612
 0.520000   -10.862600   2.526352
 0.525000   -10.834271   9.543564
 0.530000   -10.767164   16.739333
 0.535000   -10.666877   22.271214
 0.540000   -10.544452   25.891798
 0.545000   -10.407959   27.574676
 0.550000   -10.268705   26.956621
 0.555000   -10.138393   23.937325
 0.560000   -10.029332   18.642595
 0.565000   -9.951967   11.954798
 0.570000   -9.909784   4.897905
 0.575000   -9.902988   -1.947694
 0.580000   -9.929261   -8.132834
 0.585000   -9.984316   -13.458649
 0.590000   -10.063848   -17.606562
 0.595000   -10.160382   -20.211691
 0.600000   -10.265964   -21.424112
 0.605000   -10.374623   -21.788344
 0.610000   -10.483848   -21.729304
 0.615000   -10.591916   -21.698587
 0.620000   -10.700834   -22.455377
 0.625000   -10.816470   -24.295259
 0.630000   -10.943786   -27.060937
 0.635000   -11.087079   -30.613231
 0.640000   -11.249919   -34.746329
 0.645000   -11.434543   -39.090011
 0.650000   -11.640819   -42.098727
 0.655000   -11.855530   -42.859798
 0.660000   -12.069417   -41.682772
 0.665000   -12.272358   -38.432926
 0.670000   -12.453746   -33.598541
 0.675000   -12.608343   -27.460044
 0.680000   -12.728346   -19.985697
 0.685000   -12.808200   -12.241203
 0.690000   -12.850759   -5.142725
 0.695000   -12.859627   1.150247
 0.700000   -12.839256   6.525858
 0.705000   -12.794369   11.168633
 0.710000   -12.727570   15.094449
 0.715000   -12.643424   18.022179
 0.720000   -12.547348   19.879621
 0.725000   -12.444628   20.046233
 0.730000   -12.346886   20.759012
 0.735000   -12.237038   22.841310
 0.740000   -12.118472   24.729775
 0.745000   -11.989740   26.909403
 0.750000   -11.849378   29.442598
 0.755000   -11.695314   31.412225
 0.760000   -11.535256   35.363244
 0.765000   -11.341682   41.074589
 0.770000   -11.124510   45.990641
 0.775000   -10.881775   51.246104
 0.780000   -10.612049   56.709114
 0.785000   -10.314684   62.520544
 0.790000   -9.986844   68.268967
 0.795000   -9.631994   73.134857
 0.800000   -9.255495   77.285088
 0.805000   -8.859144   81.065000
 0.810000   -8.444845   84.428843
 0.815000   -8.014855   87.834265
 0.820000   -7.566503   90.096007
 0.825000   -7.113895   90.932660
 0.830000   -6.657176   91.873014
 0.835000   -6.195165   93.002222
 0.840000   -5.727154   94.445134
 0.845000   -5.250714   96.485330
 0.850000   -4.762300   99.017197
 0.855000   -4.260542   102.943541
 0.860000   -3.732865   108.955221
 0.865000   -3.170989   116.337606
 0.870000   -2.569489   124.172667
 0.875000   -1.929263   130.609268
 0.880000   -1.263396   132.980458
 0.885000   -0.599458   127.407571
 0.890000   0.010679   106.499372
 0.895000   0.465536   58.405886
 0.900000   0.594738   -32.356424
 0.905000   0.141971   -187.769659
 0.910000   -1.282958   -434.548230
 0.915000   -4.203511   -798.221648
 0.920000   -9.265175   -1300.360859
 0.925000   -17.207120   -1937.557118
 0.930000   -28.640746   -2645.848110
 0.935000   -43.665601   -3277.937113
 0.940000   -61.420117   -3601.803033
 0.945000   -79.683631   -3362.237072
 0.950000   -95.042488   -2444.092369
 0.955000   -104.124555   -999.135948
 0.960000   -105.033847   579.850536
 0.965000   -98.326049   1848.684381
 0.970000   -86.547004   2563.188260
 0.975000   -72.694167   2772.430683
 0.980000   -58.822697   2654.625413
 0.985000   -46.147913   2381.836463
 0.990000   -35.004332   2073.605253
 0.995000   -25.411860   1762.158302
 1.000000   -17.382749   1449.486106
201 psinorm omepp() domepp/dpsiN
 0.000000   34.735037   -32.507422
 0.005000   34.543395   -44.149129
 0.010000   34.293545   -49.856183
 0.015000   34.044833   -49.628434
 0.020000   33.797261   -49.400396
 0.025000   33.550829   -49.172083
 0.030000   33.305540   -48.943511
 0.035000   33.061394   -48.714697
 0.040000   32.818393   -48.485653
 0.045000   32.576538   -48.256397
 0.050000   32.335829   -48.026943
 0.055000   32.096268   -47.797305
 0.060000   31.857856   -47.567499
 0.065000   31.620593   -47.337539
 0.070000   31.384481   -47.107441
 0.075000   31.149519   -46.877218
 0.080000   30.915709   -46.646886
 0.085000   30.683050   -46.416457
 0.090000   30.451544   -46.185948
 0.095000   30.221191   -45.955371
 0.100000   29.991990   -45.724741
 0.105000   29.763943   -45.494072
 0.110000   29.537050   -45.263378
 0.115000   29.311309   -45.032672
 0.120000   29.086723   -44.801968
 0.125000   28.863290   -44.571280
 0.130000   28.641010   -44.340621
 0.135000   28.419883   -44.110004
 0.140000   28.199910   -43.879443
 0.145000   27.981089   -43.648950
 0.150000   27.763420   -43.418540
 0.155000   27.546904   -43.188223
 0.160000   27.331538   -42.958015
 0.165000   27.117324   -42.727926
 0.170000   26.904259   -42.497970
 0.175000   26.692344   -42.268158
 0.180000   26.481577   -42.038505
 0.185000   26.271959   -41.809021
 0.190000   26.063487   -41.579719
 0.195000   25.856162   -41.350610
 0.200000   25.649981   -41.121708
 0.205000   25.444945   -40.893023
 0.210000   25.241051   -40.664567
 0.215000   25.038299   -40.436352
 0.220000   24.836687   -40.208389
 0.225000   24.636215   -39.980690
 0.230000   24.436880   -39.753266
 0.235000   24.238682   -39.526128
 0.240000   24.041619   -39.299287
 0.245000   23.845689   -39.072754
 0.250000   23.650892   -38.846539
 0.255000   23.457224   -38.620654
 0.260000   23.264685   -38.395109
 0.265000   23.073273   -38.169915
 0.270000   22.882986   -37.945081
 0.275000   22.693822   -37.720618
 0.280000   22.505780   -37.496536
 0.285000   22.318857   -37.272846
 0.290000   22.133051   -37.049556
 0.295000   21.948361   -36.826677
 0.300000   21.764784   -36.604219
 0.305000   21.582319   -36.382190
 0.310000   21.400963   -36.160601
 0.315000   21.220713   -35.939461
 0.320000   21.041568   -35.718778
 0.325000   20.863525   -35.498563
 0.330000   20.686582   -35.278823
 0.335000   20.510737   -35.059569
 0.340000   20.335987   -34.840808
 0.345000   20.162329   -34.622549
 0.350000   19.989761   -34.404801
 0.355000   19.818281   -34.187572
 0.360000   19.647885   -33.970871
 0.365000   19.478572   -33.754705
 0.370000   19.310338   -33.539083
 0.375000   19.143181   -33.324013
 0.380000   18.977098   -33.109502
 0.385000   18.812086   -32.895559
 0.390000   18.648143   -32.682191
 0.395000   18.485264   -32.469405
 0.400000   18.323449   -32.257209
 0.405000   18.162692   -32.045610
 0.410000   18.002993   -31.834615
 0.415000   17.844346   -31.624232
 0.420000   17.686750   -31.414467
 0.425000   17.530202   -31.205328
 0.430000   17.374697   -30.996820
 0.435000   17.220233   -30.788952
 0.440000   17.066807   -30.581728
 0.445000   16.914416   -30.375157
 0.450000   16.763056   -30.169243
 0.455000   16.612724   -29.963994
 0.460000   16.463416   -29.759415
 0.465000   16.315129   -29.555512
 0.470000   16.167861   -29.352293
 0.475000   16.021607   -29.149761
 0.480000   15.876363   -28.947924
 0.485000   15.732127   -28.746787
 0.490000   15.588895   -28.546356
 0.495000   15.446664   -28.346636
 0.500000   15.305429   -28.147633
 0.505000   15.165187   -27.949353
 0.510000   15.025935   -27.751800
 0.515000   14.887669   -27.554982
 0.520000   14.750386   -27.358903
 0.525000   14.614080   -27.163569
 0.530000   14.478750   -26.968987
 0.535000   14.344390   -26.775161
 0.540000   14.210998   -26.582100
 0.545000   14.078569   -26.389808
 0.550000   13.947100   -26.198295
 0.555000   13.816587   -26.007566
 0.560000   13.687025   -25.817631
 0.565000   13.558410   -25.628499
 0.570000   13.430740   -25.440181
 0.575000   13.304008   -25.252689
 0.580000   13.178213   -25.066037
 0.585000   13.053348   -24.880241
 0.590000   12.929410   -24.695319
 0.595000   12.806395   -24.511295
 0.600000   12.684297   -24.328196
 0.605000   12.563113   -24.146053
 0.610000   12.442837   -23.964905
 0.615000   12.323464   -23.784800
 0.620000   12.204989   -23.605795
 0.625000   12.087406   -23.427959
 0.630000   11.970709   -23.251378
 0.635000   11.854892   -23.076155
 0.640000   11.739948   -22.902419
 0.645000   11.625868   -22.730325
 0.650000   11.512644   -22.560064
 0.655000   11.400267   -22.391872
 0.660000   11.288726   -22.226039
 0.665000   11.178007   -22.062918
 0.670000   11.068096   -21.902947
 0.675000   10.958977   -21.746661
 0.680000   10.850630   -21.594718
 0.685000   10.743030   -21.447929
 0.690000   10.636151   -21.307287
 0.695000   10.529957   -21.174014
 0.700000   10.424410   -21.049609
 0.705000   10.319461   -20.935915
 0.710000   10.215051   -20.835189
 0.715000   10.111109   -20.750202
 0.720000   10.007549   -20.684351
 0.725000   9.904266   -20.641794
 0.730000   9.801131   -20.627623
 0.735000   9.697990   -20.648064
 0.740000   9.594651   -20.710724
 0.745000   9.490882   -20.824888
 0.750000   9.386402   -21.001870
 0.755000   9.280864   -21.255445
 0.760000   9.173847   -21.602352
 0.765000   9.064840   -22.062895
 0.770000   8.953218   -22.661655
 0.775000   8.838224   -23.428314
 0.780000   8.718935   -24.398617
 0.785000   8.594237   -25.615476
 0.790000   8.462781   -27.130209
 0.795000   8.322935   -29.003917
 0.800000   8.172741   -31.308965
 0.805000   8.009846   -34.130507
 0.810000   7.831436   -37.567958
 0.815000   7.634166   -41.736228
 0.820000   7.414074   -46.766441
 0.825000   7.166502   -52.805669
 0.830000   6.886017   -60.014983
 0.835000   6.566352   -68.564699
 0.840000   6.200370   -78.625113
 0.845000   5.780101   -90.350089
 0.850000   5.296869   -103.849462
 0.855000   4.741606   -119.144103
 0.860000   4.105428   -136.094301
 0.865000   3.380663   -154.287434
 0.870000   2.562554   -172.864278
 0.875000   1.652020   -190.254351
 0.880000   0.660011   -203.780107
 0.885000   -0.385781   -209.080436
 0.890000   -1.430794   -199.304782
 0.895000   -2.378829   -164.062023
 0.900000   -3.071414   -88.219688
 0.905000   -3.261025   49.073700
 0.910000   -2.580677   274.196341
 0.915000   -0.519062   615.759554
 0.920000   3.576919   1095.047826
 0.925000   10.431416   1706.610724
 0.930000   20.643026   2388.664855
 0.935000   34.318065   2994.042014
 0.940000   50.583446   3291.240251
 0.945000   67.230467   3034.998703
 0.950000   80.933433   2111.332377
 0.955000   88.343791   673.603771
 0.960000   87.669471   -870.833776
 0.965000   79.635453   -2067.028182
 0.970000   66.999189   -2659.775297
 0.975000   53.037700   -2679.281262
 0.980000   40.206376   -2334.800713
 0.985000   29.689693   -1853.462782
 0.990000   21.671748   -1387.314887
 0.995000   15.816544   -1003.729046
 1.000000   11.634458   -669.105550
201 psinorm kpol(km/s/T) dkpol/dpsiN
 0.000000   -0.005062   67.375360
 0.005000   0.270697   42.928205
 0.010000   0.424220   30.123179
 0.015000   0.571929   29.676729
 0.020000   0.720988   29.869889
 0.025000   0.870628   29.704703
 0.030000   1.018035   28.857402
 0.035000   1.159202   27.601500
 0.040000   1.294050   26.224417
 0.045000   1.421446   24.702134
 0.050000   1.541071   23.212230
 0.055000   1.653568   21.864503
 0.060000   1.759716   20.737377
 0.065000   1.860942   19.996975
 0.070000   1.959686   19.682388
 0.075000   2.057766   19.672925
 0.080000   2.156415   20.001788
 0.085000   2.257784   20.729107
 0.090000   2.363706   21.783326
 0.095000   2.475617   22.944875
 0.100000   2.593155   24.032142
 0.105000   2.715939   25.102778
 0.110000   2.844183   26.090632
 0.115000   2.976845   26.882851
 0.120000   3.113011   27.367113
 0.125000   3.250516   27.366898
 0.130000   3.386680   26.842504
 0.135000   3.518941   25.834972
 0.140000   3.645030   24.444303
 0.145000   3.763384   22.570639
 0.150000   3.870736   20.377365
 0.155000   3.967158   18.268729
 0.160000   4.053424   16.260271
 0.165000   4.129760   14.431265
 0.170000   4.197736   12.817353
 0.175000   4.257934   11.491091
 0.180000   4.312647   10.559128
 0.185000   4.363525   9.867727
 0.190000   4.411324   9.218370
 0.195000   4.455709   8.491078
 0.200000   4.496235   7.708162
 0.205000   4.532791   6.796701
 0.210000   4.564202   5.879875
 0.215000   4.591589   4.941542
 0.220000   4.613618   3.924158
 0.225000   4.630831   2.954829
 0.230000   4.643166   1.915052
 0.235000   4.649981   0.948586
 0.240000   4.652652   0.009281
 0.245000   4.650074   -0.975027
 0.250000   4.642901   -1.882112
 0.255000   4.631253   -2.867681
 0.260000   4.614225   -3.862844
 0.265000   4.592625   -4.899074
 0.270000   4.565234   -6.068579
 0.275000   4.531939   -7.203849
 0.280000   4.493195   -8.428323
 0.285000   4.447656   -9.728538
 0.290000   4.395910   -10.976449
 0.295000   4.337891   -12.277779
 0.300000   4.273132   -13.608062
 0.305000   4.201811   -14.914721
 0.310000   4.123985   -16.311906
 0.315000   4.038692   -17.756383
 0.320000   3.946421   -19.272103
 0.325000   3.845970   -20.945602
 0.330000   3.736965   -22.636976
 0.335000   3.619601   -24.382508
 0.340000   3.493140   -26.264541
 0.345000   3.356955   -28.146288
 0.350000   3.211677   -30.058169
 0.355000   3.056374   -32.069461
 0.360000   2.890983   -33.975018
 0.365000   2.716623   -35.759363
 0.370000   2.533389   -37.439469
 0.375000   2.342229   -38.834182
 0.380000   2.145047   -39.855519
 0.385000   1.943674   -40.772865
 0.390000   1.737319   -41.878449
 0.395000   1.524889   -43.272576
 0.400000   1.304593   -45.086103
 0.405000   1.074028   -47.371399
 0.410000   0.830879   -50.409148
 0.415000   0.569937   -54.118945
 0.420000   0.289689   -58.116044
 0.425000   -0.011224   -62.324834
 0.430000   -0.333559   -66.547018
 0.435000   -0.676694   -70.536707
 0.440000   -1.038926   -74.309911
 0.445000   -1.419793   -78.263207
 0.450000   -1.821558   -83.071414
 0.455000   -2.250507   -89.265388
 0.460000   -2.714212   -96.874243
 0.465000   -3.219250   -106.140920
 0.470000   -3.775621   -117.309049
 0.475000   -4.392340   -128.781490
 0.480000   -5.063436   -139.329054
 0.485000   -5.785631   -148.931204
 0.490000   -6.552748   -156.928950
 0.495000   -7.354920   -162.595485
 0.500000   -8.178703   -164.631621
 0.505000   -9.001236   -162.058530
 0.510000   -9.799288   -154.961685
 0.515000   -10.550853   -143.884815
 0.520000   -11.238136   -129.867871
 0.525000   -11.849532   -113.101203
 0.530000   -12.369148   -95.068322
 0.535000   -12.800215   -78.624267
 0.540000   -13.155391   -64.534773
 0.545000   -13.445563   -52.585828
 0.550000   -13.681249   -42.902644
 0.555000   -13.874589   -36.039821
 0.560000   -14.041648   -32.230122
 0.565000   -14.196891   -30.307973
 0.570000   -14.344727   -28.869207
 0.575000   -14.485583   -26.994563
 0.580000   -14.614673   -23.820384
 0.585000   -14.723787   -19.055683
 0.590000   -14.805230   -12.220675
 0.595000   -14.845993   -2.890221
 0.600000   -14.834132   8.477025
 0.605000   -14.761223   21.043662
 0.610000   -14.623695   34.094535
 0.615000   -14.420278   46.638372
 0.620000   -14.157312   57.370091
 0.625000   -13.846577   65.490204
 0.630000   -13.502410   70.804544
 0.635000   -13.138531   73.291879
 0.640000   -12.769491   72.758743
 0.645000   -12.410944   69.331005
 0.650000   -12.076181   64.876175
 0.655000   -11.762182   60.682660
 0.660000   -11.469354   56.687110
 0.665000   -11.195311   53.490448
 0.670000   -10.934450   51.454613
 0.675000   -10.680765   50.470006
 0.680000   -10.429750   50.092716
 0.685000   -10.179838   49.807532
 0.690000   -9.931674   49.339792
 0.695000   -9.686440   48.668051
 0.700000   -9.444994   47.871818
 0.705000   -9.207722   46.998646
 0.710000   -8.975007   45.969866
 0.715000   -8.748023   44.830434
 0.720000   -8.526703   43.654192
 0.725000   -8.311481   42.350789
 0.730000   -8.103195   40.892934
 0.735000   -7.902552   39.310547
 0.740000   -7.710090   37.590200
 0.745000   -7.526650   35.651359
 0.750000   -7.353576   33.526981
 0.755000   -7.191380   31.280738
 0.760000   -7.040769   28.875633
 0.765000   -6.902624   26.294633
 0.770000   -6.777822   23.619996
 0.775000   -6.666424   20.907142
 0.780000   -6.568751   18.113216
 0.785000   -6.485291   15.289075
 0.790000   -6.415860   12.538487
 0.795000   -6.359907   9.895275
 0.800000   -6.316907   7.267531
 0.805000   -6.287231   4.523309
 0.810000   -6.271674   1.479604
 0.815000   -6.272435   -2.147210
 0.820000   -6.293146   -6.608125
 0.825000   -6.338517   -11.955081
 0.830000   -6.412697   -18.163075
 0.835000   -6.520147   -25.342968
 0.840000   -6.666127   -33.478942
 0.845000   -6.854937   -42.616049
 0.850000   -7.092287   -52.910167
 0.855000   -7.384038   -63.391866
 0.860000   -7.726206   -72.921118
 0.865000   -8.113250   -80.960820
 0.870000   -8.535814   -86.887241
 0.875000   -8.982122   -90.171628
 0.880000   -9.437531   -90.469295
 0.885000   -9.886815   -87.664729
 0.890000   -10.314178   -81.861910
 0.895000   -10.705434   -73.324018
 0.900000   -11.047418   -62.410375
 0.905000   -11.329538   -49.297347
 0.910000   -11.540392   -34.872317
 0.915000   -11.678261   -20.137655
 0.920000   -11.741768   -4.528043
 0.925000   -11.723541   12.564889
 0.930000   -11.616119   29.896720
 0.935000   -11.424574   48.192641
 0.940000   -11.134193   71.086129
 0.945000   -10.713713   98.590239
 0.950000   -10.148290   130.045580
 0.955000   -9.413257   166.571654
 0.960000   -8.482574   207.892201
 0.965000   -7.334335   255.921960
 0.970000   -5.923354   308.287876
 0.975000   -4.251456   358.332109
 0.980000   -2.340033   401.523779
 0.985000   -0.236218   429.631985
 0.990000   1.956287   430.856782
 0.995000   4.072349   394.512553
 1.000000   5.901412   337.112594
201 psinorm omghb() domghb/dpsiN
 0.000000   -0.000005   0.031130
 0.005000   0.000081   0.003590
 0.010000   0.000030   0.003843
 0.015000   0.000120   0.022852
 0.020000   0.000259   0.035597
 0.025000   0.000476   0.052105
 0.030000   0.000780   0.077711
 0.035000   0.001253   0.113105
 0.040000   0.001911   0.148238
 0.045000   0.002735   0.177055
 0.050000   0.003682   0.198884
 0.055000   0.004724   0.218807
 0.060000   0.005870   0.234524
 0.065000   0.007069   0.252311
 0.070000   0.008393   0.253048
 0.075000   0.009600   0.239554
 0.080000   0.010788   0.236166
 0.085000   0.011961   0.229050
 0.090000   0.013079   0.224475
 0.095000   0.014206   0.210187
 0.100000   0.015181   0.195385
 0.105000   0.016160   0.215327
 0.110000   0.017334   0.236667
 0.115000   0.018527   0.247844
 0.120000   0.019812   0.270978
 0.125000   0.021237   0.281545
 0.130000   0.022628   0.320911
 0.135000   0.024446   0.415094
 0.140000   0.026779   0.460464
 0.145000   0.029050   0.478638
 0.150000   0.031565   0.518602
 0.155000   0.034236   0.563223
 0.160000   0.037197   0.624766
 0.165000   0.040484   0.629547
 0.170000   0.043493   0.550787
 0.175000   0.045992   0.462466
 0.180000   0.048118   0.397320
 0.185000   0.049965   0.343000
 0.190000   0.051548   0.318232
 0.195000   0.053147   0.289564
 0.200000   0.054443   0.266959
 0.205000   0.055817   0.240361
 0.210000   0.056847   0.196652
 0.215000   0.057783   0.166275
 0.220000   0.058510   0.081993
 0.225000   0.058603   0.053791
 0.230000   0.059047   0.065477
 0.235000   0.059258   0.035419
 0.240000   0.059402   0.076803
 0.245000   0.060026   0.147728
 0.250000   0.060879   0.249368
 0.255000   0.062520   0.349178
 0.260000   0.064371   0.345457
 0.265000   0.065974   0.346049
 0.270000   0.067831   0.341907
 0.275000   0.069393   0.298645
 0.280000   0.070818   0.345909
 0.285000   0.072853   0.185010
 0.290000   0.072668   -0.001265
 0.295000   0.072840   -0.007415
 0.300000   0.072594   -0.136605
 0.305000   0.071474   -0.279095
 0.310000   0.069803   -0.351806
 0.315000   0.067956   -0.611292
 0.320000   0.063690   -0.792353
 0.325000   0.060032   -0.778744
 0.330000   0.055902   -0.863265
 0.335000   0.051400   -0.892886
 0.340000   0.046973   -0.968543
 0.345000   0.041714   -0.895652
 0.350000   0.038017   -0.745215
 0.355000   0.034262   -0.753918
 0.360000   0.030478   -0.750642
 0.365000   0.026756   -0.729354
 0.370000   0.023184   -0.796389
 0.375000   0.018792   -0.671013
 0.380000   0.016474   -0.444633
 0.385000   0.014345   -0.408554
 0.390000   0.012389   -0.351567
 0.395000   0.010830   -0.249311
 0.400000   0.009895   -0.110701
 0.405000   0.009723   -0.103714
 0.410000   0.008858   -0.219140
 0.415000   0.007531   -0.261279
 0.420000   0.006245   -0.283476
 0.425000   0.004697   -0.366423
 0.430000   0.002581   -0.488682
 0.435000   -0.000190   -0.642895
 0.440000   -0.003848   -0.680992
 0.445000   -0.007000   -0.512337
 0.450000   -0.008971   -0.114269
 0.455000   -0.008143   0.445319
 0.460000   -0.004518   0.910661
 0.465000   0.000964   1.347116
 0.470000   0.008953   1.751508
 0.475000   0.018479   1.937827
 0.480000   0.028332   2.117253
 0.485000   0.039651   1.990518
 0.490000   0.048237   1.512599
 0.495000   0.054777   1.043994
 0.500000   0.058677   0.429706
 0.505000   0.059074   -0.251294
 0.510000   0.056164   -1.145490
 0.515000   0.047620   -1.853556
 0.520000   0.037628   -2.051390
 0.525000   0.027106   -2.109764
 0.530000   0.016531   -1.933624
 0.535000   0.007769   -1.527141
 0.540000   0.001259   -1.091920
 0.545000   -0.003150   -0.332481
 0.550000   -0.002066   0.598266
 0.555000   0.002833   1.338645
 0.560000   0.011321   1.904697
 0.565000   0.021880   2.187203
 0.570000   0.033193   2.322099
 0.575000   0.045101   2.183287
 0.580000   0.055026   1.829624
 0.585000   0.063397   1.483208
 0.590000   0.069858   1.093674
 0.595000   0.074334   0.648171
 0.600000   0.076339   0.248103
 0.605000   0.076815   0.048648
 0.610000   0.076826   -0.023516
 0.615000   0.076580   0.035619
 0.620000   0.077182   0.335178
 0.625000   0.079931   0.791741
 0.630000   0.085100   1.221624
 0.635000   0.092148   1.436756
 0.640000   0.099467   1.391961
 0.645000   0.106067   1.058540
 0.650000   0.110052   0.596901
 0.655000   0.112036   0.209364
 0.660000   0.112146   -0.548534
 0.665000   0.106551   -1.563387
 0.670000   0.096512   -2.150058
 0.675000   0.085050   -2.475653
 0.680000   0.071756   -2.574328
 0.685000   0.059307   -2.459320
 0.690000   0.047163   -2.366407
 0.695000   0.035643   -2.235043
 0.700000   0.024812   -1.934786
 0.705000   0.016295   -1.482396
 0.710000   0.009988   -1.058685
 0.715000   0.005708   -0.788638
 0.720000   0.002102   -0.597936
 0.725000   -0.000271   -0.413928
 0.730000   -0.002038   -0.394176
 0.735000   -0.004213   -0.282731
 0.740000   -0.004865   -0.450781
 0.745000   -0.008721   -1.033468
 0.750000   -0.015200   -1.184350
 0.755000   -0.020564   -1.153789
 0.760000   -0.026737   -1.305234
 0.765000   -0.033616   -1.371206
 0.770000   -0.040449   -1.629264
 0.775000   -0.049909   -1.953485
 0.780000   -0.059984   -1.799011
 0.785000   -0.067899   -1.486534
 0.790000   -0.074850   -1.245617
 0.795000   -0.080355   -0.977474
 0.800000   -0.084624   -0.751691
 0.805000   -0.087872   -0.226994
 0.810000   -0.086894   0.357623
 0.815000   -0.084296   0.816273
 0.820000   -0.078732   1.376632
 0.825000   -0.070530   1.848417
 0.830000   -0.060247   2.337159
 0.835000   -0.047158   3.154268
 0.840000   -0.028705   3.674826
 0.845000   -0.010410   3.778387
 0.850000   0.009079   3.981437
 0.855000   0.029405   4.062789
 0.860000   0.049707   4.154029
 0.865000   0.070945   4.189868
 0.870000   0.091606   4.034037
 0.875000   0.111285   3.944389
 0.880000   0.131050   4.006622
 0.885000   0.151351   4.164267
 0.890000   0.172692   4.951466
 0.895000   0.200866   5.280619
 0.900000   0.225498   5.612173
 0.905000   0.256988   6.960526
 0.910000   0.295104   8.263421
 0.915000   0.339622   9.092056
 0.920000   0.386024   10.643140
 0.925000   0.446053   10.154909
 0.930000   0.487573   8.979944
 0.935000   0.535853   9.385545
 0.940000   0.581429   8.306644
 0.945000   0.618919   5.914276
 0.950000   0.640572   5.247441
 0.955000   0.671394   -5.161029
 0.960000   0.588961   -24.002020
 0.965000   0.431373   -41.342401
 0.970000   0.175537   -61.412274
 0.975000   -0.182749   -78.942568
 0.980000   -0.613888   -85.613679
 0.985000   -1.038886   -77.863418
 0.990000   -1.392523   -49.627676
 0.995000   -1.535163   -6.433384
 1.000000   -1.456856   37.755935
201 psinorm nz1(10^20/m^3) dnz1/dpsiN
 0.000000   0.012105   0.000000
 0.005000   0.012105   0.000071
 0.010000   0.012106   0.000141
 0.015000   0.012107   0.000210
 0.020000   0.012108   0.000278
 0.025000   0.012110   0.000343
 0.030000   0.012111   0.000405
 0.035000   0.012114   0.000463
 0.040000   0.012116   0.000516
 0.045000   0.012119   0.000564
 0.050000   0.012122   0.000605
 0.055000   0.012125   0.000639
 0.060000   0.012128   0.000666
 0.065000   0.012132   0.000685
 0.070000   0.012135   0.000694
 0.075000   0.012138   0.000695
 0.080000   0.012142   0.000686
 0.085000   0.012145   0.000666
 0.090000   0.012149   0.000636
 0.095000   0.012152   0.000594
 0.100000   0.012155   0.000540
 0.105000   0.012157   0.000474
 0.110000   0.012159   0.000395
 0.115000   0.012161   0.000303
 0.120000   0.012162   0.000196
 0.125000   0.012163   0.000075
 0.130000   0.012163   -0.000060
 0.135000   0.012162   -0.000210
 0.140000   0.012161   -0.000374
 0.145000   0.012159   -0.000552
 0.150000   0.012155   -0.000744
 0.155000   0.012151   -0.000948
 0.160000   0.012146   -0.001165
 0.165000   0.012140   -0.001393
 0.170000   0.012132   -0.001634
 0.175000   0.012123   -0.001886
 0.180000   0.012113   -0.002150
 0.185000   0.012102   -0.002426
 0.190000   0.012089   -0.002715
 0.195000   0.012075   -0.003015
 0.200000   0.012059   -0.003326
 0.205000   0.012041   -0.003647
 0.210000   0.012022   -0.003978
 0.215000   0.012002   -0.004318
 0.220000   0.011979   -0.004668
 0.225000   0.011955   -0.005026
 0.230000   0.011929   -0.005391
 0.235000   0.011901   -0.005757
 0.240000   0.011871   -0.006125
 0.245000   0.011840   -0.006489
 0.250000   0.011806   -0.006848
 0.255000   0.011771   -0.007193
 0.260000   0.011734   -0.007524
 0.265000   0.011696   -0.007845
 0.270000   0.011656   -0.008160
 0.275000   0.011614   -0.008471
 0.280000   0.011571   -0.008778
 0.285000   0.011527   -0.009086
 0.290000   0.011480   -0.009393
 0.295000   0.011433   -0.009692
 0.300000   0.011383   -0.009981
 0.305000   0.011333   -0.010255
 0.310000   0.011281   -0.010509
 0.315000   0.011228   -0.010734
 0.320000   0.011174   -0.010920
 0.325000   0.011119   -0.011058
 0.330000   0.011063   -0.011153
 0.335000   0.011007   -0.011204
 0.340000   0.010951   -0.011213
 0.345000   0.010895   -0.011178
 0.350000   0.010839   -0.011112
 0.355000   0.010784   -0.011026
 0.360000   0.010729   -0.010918
 0.365000   0.010675   -0.010789
 0.370000   0.010621   -0.010640
 0.375000   0.010568   -0.010475
 0.380000   0.010516   -0.010297
 0.385000   0.010465   -0.010106
 0.390000   0.010415   -0.009901
 0.395000   0.010366   -0.009679
 0.400000   0.010318   -0.009439
 0.405000   0.010272   -0.009179
 0.410000   0.010227   -0.008887
 0.415000   0.010183   -0.008553
 0.420000   0.010141   -0.008182
 0.425000   0.010101   -0.007778
 0.430000   0.010063   -0.007346
 0.435000   0.010028   -0.006889
 0.440000   0.009994   -0.006412
 0.445000   0.009964   -0.005931
 0.450000   0.009935   -0.005453
 0.455000   0.009909   -0.004981
 0.460000   0.009885   -0.004518
 0.465000   0.009864   -0.004067
 0.470000   0.009845   -0.003631
 0.475000   0.009828   -0.003217
 0.480000   0.009813   -0.002822
 0.485000   0.009799   -0.002442
 0.490000   0.009788   -0.002075
 0.495000   0.009779   -0.001718
 0.500000   0.009771   -0.001373
 0.505000   0.009765   -0.001039
 0.510000   0.009761   -0.000719
 0.515000   0.009758   -0.000411
 0.520000   0.009756   -0.000119
 0.525000   0.009757   0.000158
 0.530000   0.009758   0.000418
 0.535000   0.009761   0.000660
 0.540000   0.009765   0.000883
 0.545000   0.009770   0.001085
 0.550000   0.009775   0.001264
 0.555000   0.009782   0.001419
 0.560000   0.009790   0.001546
 0.565000   0.009798   0.001646
 0.570000   0.009806   0.001716
 0.575000   0.009815   0.001759
 0.580000   0.009824   0.001773
 0.585000   0.009833   0.001759
 0.590000   0.009841   0.001718
 0.595000   0.009850   0.001649
 0.600000   0.009858   0.001556
 0.605000   0.009865   0.001437
 0.610000   0.009872   0.001293
 0.615000   0.009878   0.001123
 0.620000   0.009883   0.000928
 0.625000   0.009887   0.000707
 0.630000   0.009890   0.000460
 0.635000   0.009892   0.000188
 0.640000   0.009892   -0.000108
 0.645000   0.009891   -0.000426
 0.650000   0.009888   -0.000765
 0.655000   0.009883   -0.001123
 0.660000   0.009877   -0.001498
 0.665000   0.009868   -0.001892
 0.670000   0.009858   -0.002308
 0.675000   0.009845   -0.002749
 0.680000   0.009830   -0.003223
 0.685000   0.009813   -0.003733
 0.690000   0.009793   -0.004274
 0.695000   0.009770   -0.004846
 0.700000   0.009745   -0.005447
 0.705000   0.009716   -0.006076
 0.710000   0.009684   -0.006745
 0.715000   0.009648   -0.007475
 0.720000   0.009609   -0.008275
 0.725000   0.009566   -0.009151
 0.730000   0.009518   -0.010107
 0.735000   0.009465   -0.011137
 0.740000   0.009406   -0.012262
 0.745000   0.009342   -0.013468
 0.750000   0.009272   -0.014674
 0.755000   0.009195   -0.015844
 0.760000   0.009113   -0.016960
 0.765000   0.009026   -0.017976
 0.770000   0.008933   -0.018855
 0.775000   0.008837   -0.019530
 0.780000   0.008738   -0.019918
 0.785000   0.008638   -0.020018
 0.790000   0.008538   -0.019859
 0.795000   0.008439   -0.019464
 0.800000   0.008343   -0.018855
 0.805000   0.008251   -0.018043
 0.810000   0.008163   -0.017088
 0.815000   0.008080   -0.016039
 0.820000   0.008002   -0.014915
 0.825000   0.007931   -0.013752
 0.830000   0.007865   -0.012574
 0.835000   0.007805   -0.011401
 0.840000   0.007751   -0.010301
 0.845000   0.007702   -0.009300
 0.850000   0.007658   -0.008364
 0.855000   0.007618   -0.007481
 0.860000   0.007583   -0.006633
 0.865000   0.007552   -0.005806
 0.870000   0.007525   -0.005002
 0.875000   0.007502   -0.004240
 0.880000   0.007483   -0.003530
 0.885000   0.007467   -0.002882
 0.890000   0.007454   -0.002294
 0.895000   0.007444   -0.001764
 0.900000   0.007436   -0.001273
 0.905000   0.007431   -0.000811
 0.910000   0.007428   -0.000407
 0.915000   0.007427   -0.000100
 0.920000   0.007427   0.000036
 0.925000   0.007427   -0.000163
 0.930000   0.007425   -0.001048
 0.935000   0.007417   -0.003243
 0.940000   0.007393   -0.007712
 0.945000   0.007340   -0.015767
 0.950000   0.007235   -0.028884
 0.955000   0.007051   -0.048735
 0.960000   0.006748   -0.074816
 0.965000   0.006303   -0.103491
 0.970000   0.005713   -0.129309
 0.975000   0.005010   -0.145881
 0.980000   0.004254   -0.148767
 0.985000   0.003522   -0.137892
 0.990000   0.002875   -0.117062
 0.995000   0.002351   -0.092241
 1.000000   0.001953   -0.067123
201 psinorm vtor1(km/s) dvtor1/dpsiN
 0.000000   40.841020   209.794157
 0.005000   41.654107   115.440679
 0.010000   41.995426   59.770517
 0.015000   42.251812   46.410018
 0.020000   42.459527   38.243050
 0.025000   42.634242   32.543273
 0.030000   42.784959   27.998182
 0.035000   42.914224   23.742730
 0.040000   43.022387   19.709336
 0.045000   43.111318   15.863241
 0.050000   43.181019   11.941502
 0.055000   43.230733   7.819892
 0.060000   43.259218   3.539314
 0.065000   43.266126   -0.894032
 0.070000   43.250278   -5.624681
 0.075000   43.209879   -10.611451
 0.080000   43.144163   -15.743714
 0.085000   43.052442   -21.021098
 0.090000   42.933952   -26.466892
 0.095000   42.787773   -32.001336
 0.100000   42.613939   -37.507882
 0.105000   42.412694   -43.062578
 0.110000   42.183313   -48.741656
 0.115000   41.925277   -54.502780
 0.120000   41.638285   -60.323785
 0.125000   41.322040   -66.176876
 0.130000   40.976516   -71.850352
 0.135000   40.603536   -77.194410
 0.140000   40.204572   -82.304314
 0.145000   39.780493   -87.198474
 0.150000   39.332588   -91.838341
 0.155000   38.862110   -96.256818
 0.160000   38.370019   -100.452157
 0.165000   37.857588   -104.523338
 0.170000   37.324786   -108.622686
 0.175000   36.771361   -112.607365
 0.180000   36.198712   -116.254006
 0.185000   35.608821   -119.451345
 0.190000   35.004199   -122.077205
 0.195000   34.388049   -124.127825
 0.200000   33.762921   -125.877232
 0.205000   33.129277   -127.426212
 0.210000   32.488659   -128.664839
 0.215000   31.842628   -129.580539
 0.220000   31.192853   -130.065957
 0.225000   30.541969   -129.995664
 0.230000   29.892897   -129.621791
 0.235000   29.245751   -129.118641
 0.240000   28.601710   -128.444276
 0.245000   27.961308   -127.742783
 0.250000   27.324282   -127.197905
 0.255000   26.689329   -127.113628
 0.260000   26.053146   -127.493846
 0.265000   25.414391   -127.991938
 0.270000   24.773227   -128.368287
 0.275000   24.130708   -128.460946
 0.280000   23.488617   -128.161592
 0.285000   22.849092   -127.511928
 0.290000   22.213498   -126.230895
 0.295000   21.586783   -124.113549
 0.300000   20.972362   -121.295688
 0.305000   20.373826   -117.750051
 0.310000   19.794862   -113.458554
 0.315000   19.239240   -108.402653
 0.320000   18.710835   -102.557090
 0.325000   18.213670   -95.983425
 0.330000   17.751001   -88.799279
 0.335000   17.325677   -81.093177
 0.340000   16.940069   -72.967933
 0.345000   16.595997   -64.445408
 0.350000   16.295615   -55.732039
 0.355000   16.038677   -47.063173
 0.360000   15.824984   -38.458789
 0.365000   15.654089   -29.983567
 0.370000   15.525148   -21.718853
 0.375000   15.436901   -13.727772
 0.380000   15.387870   -6.134960
 0.385000   15.375551   0.995094
 0.390000   15.397821   7.756485
 0.395000   15.453116   14.277322
 0.400000   15.540594   20.712898
 0.405000   15.660245   27.277586
 0.410000   15.813370   34.210257
 0.415000   16.002347   41.649568
 0.420000   16.229866   49.663082
 0.425000   16.498978   58.277406
 0.430000   16.812640   67.437965
 0.435000   17.173358   77.167015
 0.440000   17.584310   87.240332
 0.445000   18.045761   97.155495
 0.450000   18.555865   106.689612
 0.455000   19.112657   115.711230
 0.460000   19.712977   124.002257
 0.465000   20.352680   131.466664
 0.470000   21.027644   138.075991
 0.475000   21.733440   143.708723
 0.480000   22.464731   148.271377
 0.485000   23.216154   151.697803
 0.490000   23.981709   153.866307
 0.495000   24.754817   154.687122
 0.500000   25.528580   154.032965
 0.505000   26.295146   151.725222
 0.510000   27.045833   147.716089
 0.515000   27.772307   142.049922
 0.520000   28.466332   134.771550
 0.525000   29.120023   125.949796
 0.530000   29.725830   115.655537
 0.535000   30.276578   104.157421
 0.540000   30.767404   91.721246
 0.545000   31.193790   78.482447
 0.550000   31.552229   64.641974
 0.555000   31.840210   50.370445
 0.560000   32.055933   35.755955
 0.565000   32.197770   20.681322
 0.570000   32.262746   4.942670
 0.575000   32.247196   -11.526398
 0.580000   32.147482   -28.695251
 0.585000   31.960244   -46.502710
 0.590000   31.682455   -64.963517
 0.595000   31.310609   -83.867656
 0.600000   30.843779   -102.906995
 0.605000   30.281539   -121.896293
 0.610000   29.624816   -140.546802
 0.615000   28.876071   -158.534738
 0.620000   28.039468   -175.660916
 0.625000   27.119462   -191.344153
 0.630000   26.126027   -205.007831
 0.635000   25.069383   -216.430219
 0.640000   23.961725   -225.181719
 0.645000   22.817566   -230.783652
 0.650000   21.653888   -232.363256
 0.655000   20.493934   -229.569273
 0.660000   19.358195   -222.969825
 0.665000   18.264235   -213.075058
 0.670000   17.227445   -200.414730
 0.675000   16.260088   -185.645676
 0.680000   15.370988   -168.826984
 0.685000   14.571818   -151.173375
 0.690000   13.859254   -134.309542
 0.695000   13.228723   -118.356730
 0.700000   12.675687   -103.450306
 0.705000   12.194220   -89.797215
 0.710000   11.777715   -77.348691
 0.715000   11.420733   -66.308390
 0.720000   11.114631   -56.711986
 0.725000   10.853613   -48.009056
 0.730000   10.634540   -39.767695
 0.735000   10.455936   -31.679986
 0.740000   10.317740   -23.525817
 0.745000   10.220678   -15.180755
 0.750000   10.165933   -6.661301
 0.755000   10.154065   1.884977
 0.760000   10.184783   10.301182
 0.765000   10.257077   18.439844
 0.770000   10.369181   26.151796
 0.775000   10.518595   33.282828
 0.780000   10.702009   39.695940
 0.785000   10.915554   45.295742
 0.790000   11.154967   50.006688
 0.795000   11.415621   53.765294
 0.800000   11.692620   56.513055
 0.805000   11.980751   58.202463
 0.810000   12.274644   58.880266
 0.815000   12.569554   58.608866
 0.820000   12.860733   57.428732
 0.825000   13.143841   55.426457
 0.830000   13.414998   52.694680
 0.835000   13.670788   49.337361
 0.840000   13.908371   45.339459
 0.845000   14.124183   40.567561
 0.850000   14.314047   34.899911
 0.855000   14.473182   28.210897
 0.860000   14.596156   20.362456
 0.865000   14.676806   11.145606
 0.870000   14.707612   0.058223
 0.875000   14.677389   -13.580975
 0.880000   14.571802   -30.446190
 0.885000   14.372927   -51.231420
 0.890000   14.059488   -76.578081
 0.895000   13.607146   -108.150789
 0.900000   12.977980   -145.933280
 0.905000   12.147813   -189.061951
 0.910000   11.087360   -237.565610
 0.915000   9.772157   -289.900701
 0.920000   8.188353   -343.206384
 0.925000   6.340093   -395.698469
 0.930000   4.231369   -438.645551
 0.935000   1.953638   -461.410348
 0.940000   -0.382735   -458.746381
 0.945000   -2.633826   -424.712865
 0.950000   -4.629863   -355.926329
 0.955000   -6.193089   -253.426321
 0.960000   -7.164127   -122.789995
 0.965000   -7.420989   23.715568
 0.970000   -6.926971   168.681261
 0.975000   -5.734177   294.671366
 0.980000   -3.980257   386.369870
 0.985000   -1.870478   432.354851
 0.990000   0.343291   429.339282
 0.995000   2.422915   383.162711
 1.000000   4.174918   317.638713
201 psinorm vpol1(km/s) dvpol1/dpsiN
 0.000000   -0.000016   2.745313
 0.005000   0.015465   3.446875
 0.010000   0.034453   4.144531
 0.015000   0.056910   4.818750
 0.020000   0.082641   5.430859
 0.025000   0.111219   5.946094
 0.030000   0.142102   6.312891
 0.035000   0.174348   6.537500
 0.040000   0.207477   6.672656
 0.045000   0.241074   6.731641
 0.050000   0.274793   6.738281
 0.055000   0.308457   6.714844
 0.060000   0.341941   6.696875
 0.065000   0.375426   6.728516
 0.070000   0.409227   6.821484
 0.075000   0.443641   6.971875
 0.080000   0.478945   7.192188
 0.085000   0.515563   7.506250
 0.090000   0.554008   7.905859
 0.095000   0.594621   8.336719
 0.100000   0.637375   8.773047
 0.105000   0.682352   9.210547
 0.110000   0.729480   9.632812
 0.115000   0.778680   10.019531
 0.120000   0.829676   10.325391
 0.125000   0.881934   10.497656
 0.130000   0.934652   10.515625
 0.135000   0.987090   10.387891
 0.140000   1.038531   10.130078
 0.145000   1.088391   9.706641
 0.150000   1.135598   9.164453
 0.155000   1.180035   8.615234
 0.160000   1.221750   8.070703
 0.165000   1.260742   7.550391
 0.170000   1.297254   7.085938
 0.175000   1.331602   6.683203
 0.180000   1.364086   6.392188
 0.185000   1.395523   6.171484
 0.190000   1.425801   5.951562
 0.195000   1.455039   5.710938
 0.200000   1.482910   5.428906
 0.205000   1.509328   5.116016
 0.210000   1.534070   4.775000
 0.215000   1.557078   4.419141
 0.220000   1.578262   4.043359
 0.225000   1.597512   3.659375
 0.230000   1.614855   3.266406
 0.235000   1.630176   2.865625
 0.240000   1.643512   2.471484
 0.245000   1.654891   2.077344
 0.250000   1.664285   1.677734
 0.255000   1.671668   1.266406
 0.260000   1.676949   0.833203
 0.265000   1.680000   0.369922
 0.270000   1.680648   -0.115625
 0.275000   1.678844   -0.628125
 0.280000   1.674367   -1.173828
 0.285000   1.667105   -1.729688
 0.290000   1.657070   -2.301953
 0.295000   1.644086   -2.882813
 0.300000   1.628242   -3.475781
 0.305000   1.609328   -4.086719
 0.310000   1.587375   -4.713672
 0.315000   1.562191   -5.372266
 0.320000   1.533652   -6.077734
 0.325000   1.501414   -6.822266
 0.330000   1.465430   -7.596875
 0.335000   1.425445   -8.407422
 0.340000   1.381355   -9.248437
 0.345000   1.332961   -10.114844
 0.350000   1.280207   -11.005078
 0.355000   1.222910   -11.913672
 0.360000   1.161070   -12.803125
 0.365000   1.094879   -13.653125
 0.370000   1.024539   -14.441797
 0.375000   0.950461   -15.131250
 0.380000   0.873227   -15.675000
 0.385000   0.793711   -16.158984
 0.390000   0.711637   -16.727344
 0.395000   0.626437   -17.419531
 0.400000   0.537441   -18.274609
 0.405000   0.443691   -19.328906
 0.410000   0.344152   -20.702734
 0.415000   0.236664   -22.355859
 0.420000   0.120594   -24.134766
 0.425000   -0.004684   -26.009766
 0.430000   -0.139504   -27.896289
 0.435000   -0.283646   -29.693164
 0.440000   -0.436436   -31.397852
 0.445000   -0.597625   -33.182812
 0.450000   -0.768264   -35.343359
 0.455000   -0.951059   -38.079492
 0.460000   -1.149059   -41.420312
 0.465000   -1.365262   -45.495898
 0.470000   -1.604018   -50.376367
 0.475000   -1.869025   -55.389258
 0.480000   -2.157910   -60.045117
 0.485000   -2.469477   -64.306836
 0.490000   -2.800979   -67.860352
 0.495000   -3.148080   -70.437500
 0.500000   -3.505354   -71.488672
 0.505000   -3.862967   -70.495898
 0.510000   -4.210312   -67.547656
 0.515000   -4.538443   -62.931055
 0.520000   -4.839623   -56.970312
 0.525000   -5.108146   -49.775391
 0.530000   -5.337377   -42.064258
 0.535000   -5.528789   -35.004492
 0.540000   -5.687422   -28.887891
 0.545000   -5.817668   -23.709570
 0.550000   -5.924518   -19.550586
 0.555000   -6.013174   -16.520898
 0.560000   -6.089727   -14.806836
 0.565000   -6.161242   -13.990039
 0.570000   -6.229627   -13.333789
 0.575000   -6.294580   -12.453320
 0.580000   -6.354160   -11.052734
 0.585000   -6.405107   -8.976172
 0.590000   -6.443922   -5.932031
 0.595000   -6.464428   -1.809961
 0.600000   -6.462021   3.142578
 0.605000   -6.433002   8.676172
 0.610000   -6.375260   14.443945
 0.615000   -6.288563   19.942969
 0.620000   -6.175830   24.656445
 0.625000   -6.041998   28.275977
 0.630000   -5.893070   30.652539
 0.635000   -5.735473   31.751758
 0.640000   -5.575553   31.575391
 0.645000   -5.419719   30.140820
 0.650000   -5.274145   28.211328
 0.655000   -5.137605   26.401953
 0.660000   -5.010125   24.705859
 0.665000   -4.890547   23.340430
 0.670000   -4.776721   22.452344
 0.675000   -4.666023   22.056445
 0.680000   -4.556156   21.929297
 0.685000   -4.446730   21.807520
 0.690000   -4.338081   21.612988
 0.695000   -4.230601   21.349609
 0.700000   -4.124585   21.017969
 0.705000   -4.020421   20.630957
 0.710000   -3.918275   20.201074
 0.715000   -3.818410   19.725879
 0.720000   -3.721017   19.208496
 0.725000   -3.626325   18.640527
 0.730000   -3.534611   18.021875
 0.735000   -3.446106   17.339258
 0.740000   -3.361219   16.579492
 0.745000   -3.280312   15.743945
 0.750000   -3.203779   14.831641
 0.755000   -3.131995   13.847363
 0.760000   -3.065306   12.796680
 0.765000   -3.004028   11.685449
 0.770000   -2.948451   10.527930
 0.775000   -2.898749   9.339648
 0.780000   -2.855055   8.132715
 0.785000   -2.817422   6.918945
 0.790000   -2.785865   5.723340
 0.795000   -2.760188   4.575000
 0.800000   -2.740115   3.450879
 0.805000   -2.725680   2.273828
 0.810000   -2.717377   0.953125
 0.815000   -2.716148   -0.604248
 0.820000   -2.723419   -2.512549
 0.825000   -2.741274   -4.813574
 0.830000   -2.771555   -7.486670
 0.835000   -2.816141   -10.553955
 0.840000   -2.877095   -14.028857
 0.845000   -2.956429   -17.947021
 0.850000   -3.056565   -22.340332
 0.855000   -3.179833   -26.791309
 0.860000   -3.324478   -30.834521
 0.865000   -3.488178   -34.238599
 0.870000   -3.666864   -36.693018
 0.875000   -3.855108   -38.004407
 0.880000   -4.046908   -38.062299
 0.885000   -4.235731   -36.777283
 0.890000   -4.414681   -34.194104
 0.895000   -4.577672   -30.460577
 0.900000   -4.719287   -25.739471
 0.905000   -4.835067   -20.235516
 0.910000   -4.921642   -14.207202
 0.915000   -4.977139   -7.924414
 0.920000   -5.000886   -1.527539
 0.925000   -4.992414   5.026831
 0.930000   -4.950618   11.955176
 0.935000   -4.872862   19.783838
 0.940000   -4.752779   29.160986
 0.945000   -4.581252   40.478174
 0.950000   -4.347998   54.029346
 0.955000   -4.040959   70.044189
 0.960000   -3.647556   88.492285
 0.965000   -3.156036   109.688184
 0.970000   -2.550674   132.401562
 0.975000   -1.832021   154.282031
 0.980000   -1.007854   173.041797
 0.985000   -0.101603   184.815918
 0.990000   0.840306   184.848047
 0.995000   1.746878   168.478320
 1.000000   2.525089   142.806055
3 N Z A of ION SPECIES
 6.000000   6.000000   12.010700
 1.000000   1.000000   2.000000
 1.000000   1.000000   2.000000
