201 psinorm ne(10^20/m^3) dne/dpsiN
 0.000000   0.564680   -0.824165
 0.005000   0.560584   -0.814249
 0.010000   0.556537   -0.804397
 0.015000   0.552540   -0.794674
 0.020000   0.548591   -0.785077
 0.025000   0.544689   -0.775604
 0.030000   0.540835   -0.766253
 0.035000   0.537026   -0.757023
 0.040000   0.533264   -0.747912
 0.045000   0.529547   -0.738917
 0.050000   0.525875   -0.730038
 0.055000   0.522247   -0.721272
 0.060000   0.518662   -0.712618
 0.065000   0.515121   -0.704073
 0.070000   0.511622   -0.695637
 0.075000   0.508164   -0.687308
 0.080000   0.504749   -0.679084
 0.085000   0.501374   -0.670963
 0.090000   0.498039   -0.662944
 0.095000   0.494744   -0.655025
 0.100000   0.491489   -0.647205
 0.105000   0.488272   -0.639483
 0.110000   0.485094   -0.631857
 0.115000   0.481954   -0.624325
 0.120000   0.478851   -0.616886
 0.125000   0.475785   -0.609539
 0.130000   0.472755   -0.602282
 0.135000   0.469762   -0.595114
 0.140000   0.466804   -0.588033
 0.145000   0.463882   -0.581039
 0.150000   0.460994   -0.574130
 0.155000   0.458140   -0.567305
 0.160000   0.455321   -0.560562
 0.165000   0.452535   -0.553901
 0.170000   0.449782   -0.547319
 0.175000   0.447061   -0.540817
 0.180000   0.444373   -0.534392
 0.185000   0.441717   -0.528044
 0.190000   0.439093   -0.521771
 0.195000   0.436500   -0.515573
 0.200000   0.433937   -0.509447
 0.205000   0.431405   -0.503394
 0.210000   0.428903   -0.497412
 0.215000   0.426431   -0.491500
 0.220000   0.423988   -0.485657
 0.225000   0.421575   -0.479882
 0.230000   0.419190   -0.474173
 0.235000   0.416833   -0.468531
 0.240000   0.414504   -0.462954
 0.245000   0.412203   -0.457440
 0.250000   0.409930   -0.451990
 0.255000   0.407683   -0.446602
 0.260000   0.405464   -0.441275
 0.265000   0.403271   -0.436009
 0.270000   0.401104   -0.430802
 0.275000   0.398963   -0.425653
 0.280000   0.396847   -0.420563
 0.285000   0.394757   -0.415529
 0.290000   0.392692   -0.410551
 0.295000   0.390652   -0.405628
 0.300000   0.388636   -0.400760
 0.305000   0.386644   -0.395945
 0.310000   0.384676   -0.391183
 0.315000   0.382732   -0.386473
 0.320000   0.380811   -0.381814
 0.325000   0.378914   -0.377206
 0.330000   0.377039   -0.372648
 0.335000   0.375187   -0.368138
 0.340000   0.373358   -0.363677
 0.345000   0.371551   -0.359264
 0.350000   0.369765   -0.354897
 0.355000   0.368002   -0.350576
 0.360000   0.366260   -0.346301
 0.365000   0.364539   -0.342071
 0.370000   0.362839   -0.337885
 0.375000   0.361160   -0.333743
 0.380000   0.359501   -0.329643
 0.385000   0.357863   -0.325586
 0.390000   0.356246   -0.321570
 0.395000   0.354648   -0.317595
 0.400000   0.353070   -0.313661
 0.405000   0.351511   -0.309766
 0.410000   0.349972   -0.305911
 0.415000   0.348452   -0.302094
 0.420000   0.346951   -0.298315
 0.425000   0.345469   -0.294574
 0.430000   0.344005   -0.290870
 0.435000   0.342560   -0.287202
 0.440000   0.341133   -0.283569
 0.445000   0.339724   -0.279972
 0.450000   0.338334   -0.276410
 0.455000   0.336960   -0.272882
 0.460000   0.335605   -0.269388
 0.465000   0.334267   -0.265927
 0.470000   0.332945   -0.262498
 0.475000   0.331642   -0.259102
 0.480000   0.330354   -0.255738
 0.485000   0.329084   -0.252405
 0.490000   0.327830   -0.249102
 0.495000   0.326593   -0.245830
 0.500000   0.325372   -0.242587
 0.505000   0.324167   -0.239374
 0.510000   0.322978   -0.236190
 0.515000   0.321805   -0.233034
 0.520000   0.320648   -0.229907
 0.525000   0.319506   -0.226806
 0.530000   0.318380   -0.223733
 0.535000   0.317269   -0.220687
 0.540000   0.316173   -0.217667
 0.545000   0.315092   -0.214673
 0.550000   0.314026   -0.211705
 0.555000   0.312975   -0.208761
 0.560000   0.311939   -0.205842
 0.565000   0.310917   -0.202948
 0.570000   0.309909   -0.200077
 0.575000   0.308916   -0.197230
 0.580000   0.307937   -0.194406
 0.585000   0.306972   -0.191605
 0.590000   0.306021   -0.188826
 0.595000   0.305084   -0.186069
 0.600000   0.304160   -0.183334
 0.605000   0.303250   -0.180620
 0.610000   0.302354   -0.177928
 0.615000   0.301471   -0.175255
 0.620000   0.300601   -0.172603
 0.625000   0.299745   -0.169971
 0.630000   0.298902   -0.167359
 0.635000   0.298071   -0.164765
 0.640000   0.297254   -0.162191
 0.645000   0.296450   -0.159635
 0.650000   0.295658   -0.157097
 0.655000   0.294879   -0.154578
 0.660000   0.294112   -0.152076
 0.665000   0.293358   -0.149591
 0.670000   0.292616   -0.147123
 0.675000   0.291887   -0.144672
 0.680000   0.291169   -0.142238
 0.685000   0.290464   -0.139819
 0.690000   0.289771   -0.137416
 0.695000   0.289090   -0.135029
 0.700000   0.288421   -0.132657
 0.705000   0.287763   -0.130300
 0.710000   0.287118   -0.127957
 0.715000   0.286484   -0.125629
 0.720000   0.285862   -0.123314
 0.725000   0.285251   -0.121014
 0.730000   0.284651   -0.118727
 0.735000   0.284064   -0.116453
 0.740000   0.283487   -0.114192
 0.745000   0.282922   -0.111943
 0.750000   0.282367   -0.109706
 0.755000   0.281825   -0.107481
 0.760000   0.281293   -0.105267
 0.765000   0.280772   -0.103064
 0.770000   0.280262   -0.100871
 0.775000   0.279763   -0.098687
 0.780000   0.279275   -0.096511
 0.785000   0.278798   -0.094341
 0.790000   0.278332   -0.092176
 0.795000   0.277876   -0.090014
 0.800000   0.277432   -0.087850
 0.805000   0.276998   -0.085681
 0.810000   0.276575   -0.083499
 0.815000   0.276163   -0.081296
 0.820000   0.275762   -0.079061
 0.825000   0.275372   -0.076778
 0.830000   0.274994   -0.074426
 0.835000   0.274628   -0.071977
 0.840000   0.274274   -0.069394
 0.845000   0.273934   -0.066632
 0.850000   0.273608   -0.063630
 0.855000   0.273298   -0.060316
 0.860000   0.273005   -0.056605
 0.865000   0.272732   -0.052407
 0.870000   0.272481   -0.047637
 0.875000   0.272255   -0.042243
 0.880000   0.272058   -0.036262
 0.885000   0.271893   -0.029913
 0.890000   0.271759   -0.023769
 0.895000   0.271655   -0.019045
 0.900000   0.271569   -0.018069
 0.905000   0.271474   -0.025042
 0.910000   0.271318   -0.047170
 0.915000   0.271003   -0.096257
 0.920000   0.270356   -0.190587
 0.925000   0.269097   -0.356371
 0.930000   0.266792   -0.626782
 0.935000   0.262829   -1.034839
 0.940000   0.256444   -1.595676
 0.945000   0.246872   -2.278672
 0.950000   0.233657   -2.984652
 0.955000   0.217026   -3.558704
 0.960000   0.198070   -3.854936
 0.965000   0.178476   -3.816324
 0.970000   0.159907   -3.500947
 0.975000   0.143467   -3.034092
 0.980000   0.129566   -2.536863
 0.985000   0.118098   -2.085862
 0.990000   0.108707   -1.711908
 0.995000   0.100979   -1.416588
 1.000000   0.094541   -1.158529
201 psinorm te(KeV) dte/dpsiN
 0.000000   4.395944   -5.801586
 0.005000   4.367011   -5.771819
 0.010000   4.338226   -5.742095
 0.015000   4.309590   -5.712458
 0.020000   4.281102   -5.682907
 0.025000   4.252761   -5.653444
 0.030000   4.224567   -5.624067
 0.035000   4.196520   -5.594778
 0.040000   4.168619   -5.565576
 0.045000   4.140864   -5.536462
 0.050000   4.113255   -5.507437
 0.055000   4.085790   -5.478499
 0.060000   4.058470   -5.449651
 0.065000   4.031293   -5.420891
 0.070000   4.004261   -5.392220
 0.075000   3.977371   -5.363639
 0.080000   3.950624   -5.335147
 0.085000   3.924020   -5.306745
 0.090000   3.897557   -5.278433
 0.095000   3.871235   -5.250211
 0.100000   3.845055   -5.222079
 0.105000   3.819015   -5.194038
 0.110000   3.793114   -5.166088
 0.115000   3.767354   -5.138229
 0.120000   3.741732   -5.110461
 0.125000   3.716249   -5.082784
 0.130000   3.690904   -5.055199
 0.135000   3.665697   -5.027705
 0.140000   3.640627   -5.000303
 0.145000   3.615694   -4.972993
 0.150000   3.590897   -4.945775
 0.155000   3.566236   -4.918649
 0.160000   3.541711   -4.891616
 0.165000   3.517320   -4.864675
 0.170000   3.493064   -4.837827
 0.175000   3.468942   -4.811072
 0.180000   3.444953   -4.784410
 0.185000   3.421098   -4.757841
 0.190000   3.397375   -4.731365
 0.195000   3.373784   -4.704982
 0.200000   3.350325   -4.678693
 0.205000   3.326997   -4.652497
 0.210000   3.303800   -4.626394
 0.215000   3.280733   -4.600386
 0.220000   3.257796   -4.574471
 0.225000   3.234989   -4.548650
 0.230000   3.212310   -4.522923
 0.235000   3.189759   -4.497290
 0.240000   3.167337   -4.471752
 0.245000   3.145042   -4.446307
 0.250000   3.122874   -4.420957
 0.255000   3.100832   -4.395701
 0.260000   3.078917   -4.370539
 0.265000   3.057127   -4.345472
 0.270000   3.035462   -4.320499
 0.275000   3.013922   -4.295621
 0.280000   2.992506   -4.270837
 0.285000   2.971214   -4.246148
 0.290000   2.950044   -4.221553
 0.295000   2.928998   -4.197054
 0.300000   2.908074   -4.172648
 0.305000   2.887272   -4.148338
 0.310000   2.866591   -4.124122
 0.315000   2.846030   -4.100001
 0.320000   2.825591   -4.075975
 0.325000   2.805271   -4.052044
 0.330000   2.785070   -4.028207
 0.335000   2.764989   -4.004466
 0.340000   2.745025   -3.980819
 0.345000   2.725180   -3.957266
 0.350000   2.705453   -3.933809
 0.355000   2.685842   -3.910446
 0.360000   2.666348   -3.887178
 0.365000   2.646970   -3.864005
 0.370000   2.627708   -3.840926
 0.375000   2.608561   -3.817942
 0.380000   2.589529   -3.795053
 0.385000   2.570611   -3.772258
 0.390000   2.551806   -3.749558
 0.395000   2.533115   -3.726952
 0.400000   2.514537   -3.704441
 0.405000   2.496071   -3.682024
 0.410000   2.477717   -3.659701
 0.415000   2.459474   -3.637473
 0.420000   2.441342   -3.615339
 0.425000   2.423320   -3.593300
 0.430000   2.405409   -3.571354
 0.435000   2.387607   -3.549502
 0.440000   2.369914   -3.527745
 0.445000   2.352329   -3.506081
 0.450000   2.334853   -3.484512
 0.455000   2.317484   -3.463036
 0.460000   2.300223   -3.441653
 0.465000   2.283068   -3.420365
 0.470000   2.266019   -3.399170
 0.475000   2.249076   -3.378068
 0.480000   2.232238   -3.357059
 0.485000   2.215505   -3.336144
 0.490000   2.198877   -3.315322
 0.495000   2.182352   -3.294593
 0.500000   2.165931   -3.273957
 0.505000   2.149613   -3.253414
 0.510000   2.133397   -3.232963
 0.515000   2.117283   -3.212605
 0.520000   2.101271   -3.192340
 0.525000   2.085360   -3.172167
 0.530000   2.069549   -3.152086
 0.535000   2.053839   -3.132097
 0.540000   2.038228   -3.112200
 0.545000   2.022717   -3.092395
 0.550000   2.007304   -3.072682
 0.555000   1.991990   -3.053061
 0.560000   1.976773   -3.033531
 0.565000   1.961655   -3.014092
 0.570000   1.946633   -2.994744
 0.575000   1.931707   -2.975487
 0.580000   1.916878   -2.956322
 0.585000   1.902144   -2.937247
 0.590000   1.887505   -2.918262
 0.595000   1.872961   -2.899368
 0.600000   1.858512   -2.880565
 0.605000   1.844156   -2.861851
 0.610000   1.829893   -2.843228
 0.615000   1.815723   -2.824694
 0.620000   1.801646   -2.806250
 0.625000   1.787661   -2.787895
 0.630000   1.773767   -2.769630
 0.635000   1.759965   -2.751453
 0.640000   1.746253   -2.733366
 0.645000   1.732631   -2.715367
 0.650000   1.719099   -2.697457
 0.655000   1.705656   -2.679636
 0.660000   1.692303   -2.661902
 0.665000   1.679037   -2.644257
 0.670000   1.665860   -2.626700
 0.675000   1.652770   -2.609230
 0.680000   1.639768   -2.591847
 0.685000   1.626852   -2.574552
 0.690000   1.614022   -2.557344
 0.695000   1.601278   -2.540222
 0.700000   1.588620   -2.523187
 0.705000   1.576047   -2.506238
 0.710000   1.563558   -2.489376
 0.715000   1.551153   -2.472598
 0.720000   1.538832   -2.455906
 0.725000   1.526594   -2.439298
 0.730000   1.514439   -2.422775
 0.735000   1.502366   -2.406335
 0.740000   1.490375   -2.389979
 0.745000   1.478466   -2.373704
 0.750000   1.466638   -2.357510
 0.755000   1.454891   -2.341396
 0.760000   1.443224   -2.325360
 0.765000   1.431637   -2.309400
 0.770000   1.420130   -2.293513
 0.775000   1.408702   -2.277697
 0.780000   1.397353   -2.261948
 0.785000   1.386083   -2.246261
 0.790000   1.374891   -2.230630
 0.795000   1.363777   -2.215049
 0.800000   1.352740   -2.199511
 0.805000   1.341781   -2.184005
 0.810000   1.330900   -2.168523
 0.815000   1.320096   -2.153055
 0.820000   1.309370   -2.137591
 0.825000   1.298720   -2.122126
 0.830000   1.288148   -2.106660
 0.835000   1.277654   -2.091208
 0.840000   1.267236   -2.075806
 0.845000   1.256896   -2.060528
 0.850000   1.246631   -2.045511
 0.855000   1.236441   -2.030989
 0.860000   1.226321   -2.017352
 0.865000   1.216267   -2.005231
 0.870000   1.206269   -1.995623
 0.875000   1.196311   -1.990088
 0.880000   1.186368   -1.991029
 0.885000   1.176400   -2.002117
 0.890000   1.166347   -2.028904
 0.895000   1.156111   -2.079719
 0.900000   1.145550   -2.166943
 0.905000   1.134442   -2.308798
 0.910000   1.122462   -2.531758
 0.915000   1.109124   -2.873652
 0.920000   1.093725   -3.387232
 0.925000   1.075252   -4.143447
 0.930000   1.052291   -5.232336
 0.935000   1.022929   -6.757215
 0.940000   0.984718   -8.814454
 0.945000   0.934784   -11.448318
 0.950000   0.870235   -14.573564
 0.955000   0.789049   -17.878997
 0.960000   0.691445   -20.771574
 0.965000   0.581333   -22.468793
 0.970000   0.466757   -22.310052
 0.975000   0.358232   -20.161181
 0.980000   0.265146   -16.579153
 0.985000   0.192441   -12.525662
 0.990000   0.139889   -8.853167
 0.995000   0.103909   -5.989419
 1.000000   0.079995   -3.576340
201 psinorm ni(10^20/m^3) dni/dpsiN
 0.000000   0.369483   -0.929389
 0.005000   0.365094   -0.826229
 0.010000   0.361220   -0.738022
 0.015000   0.357713   -0.670294
 0.020000   0.354517   -0.611313
 0.025000   0.351600   -0.558151
 0.030000   0.348936   -0.509714
 0.035000   0.346503   -0.466883
 0.040000   0.344267   -0.429169
 0.045000   0.342211   -0.395511
 0.050000   0.340312   -0.366495
 0.055000   0.338547   -0.340613
 0.060000   0.336906   -0.317644
 0.065000   0.335370   -0.297511
 0.070000   0.333931   -0.279969
 0.075000   0.332570   -0.264952
 0.080000   0.331281   -0.251931
 0.085000   0.330051   -0.241080
 0.090000   0.328870   -0.232156
 0.095000   0.327730   -0.225034
 0.100000   0.326620   -0.219345
 0.105000   0.325536   -0.214809
 0.110000   0.324472   -0.211339
 0.115000   0.323423   -0.208900
 0.120000   0.322383   -0.207525
 0.125000   0.321347   -0.207181
 0.130000   0.320311   -0.207382
 0.135000   0.319274   -0.207957
 0.140000   0.318232   -0.209092
 0.145000   0.317183   -0.210654
 0.150000   0.316125   -0.212544
 0.155000   0.315057   -0.214772
 0.160000   0.313977   -0.217270
 0.165000   0.312885   -0.219987
 0.170000   0.311778   -0.222903
 0.175000   0.310656   -0.225950
 0.180000   0.309518   -0.229069
 0.185000   0.308365   -0.232246
 0.190000   0.307196   -0.235488
 0.195000   0.306010   -0.239151
 0.200000   0.304804   -0.242848
 0.205000   0.303581   -0.246144
 0.210000   0.302343   -0.249350
 0.215000   0.301088   -0.252453
 0.220000   0.299818   -0.255443
 0.225000   0.298534   -0.258280
 0.230000   0.297235   -0.260913
 0.235000   0.295924   -0.263375
 0.240000   0.294602   -0.266180
 0.245000   0.293263   -0.268789
 0.250000   0.291914   -0.270726
 0.255000   0.290555   -0.272519
 0.260000   0.289188   -0.274232
 0.265000   0.287813   -0.275923
 0.270000   0.286429   -0.277901
 0.275000   0.285034   -0.279981
 0.280000   0.283629   -0.281663
 0.285000   0.282217   -0.283138
 0.290000   0.280798   -0.284595
 0.295000   0.279371   -0.286112
 0.300000   0.277937   -0.287872
 0.305000   0.276493   -0.289426
 0.310000   0.275043   -0.290544
 0.315000   0.273587   -0.291566
 0.320000   0.272127   -0.292538
 0.325000   0.270662   -0.293567
 0.330000   0.269191   -0.294308
 0.335000   0.267719   -0.294621
 0.340000   0.266245   -0.294774
 0.345000   0.264771   -0.294898
 0.350000   0.263296   -0.294949
 0.355000   0.261822   -0.294704
 0.360000   0.260349   -0.294242
 0.365000   0.258879   -0.293712
 0.370000   0.257412   -0.293242
 0.375000   0.255947   -0.292650
 0.380000   0.254486   -0.291799
 0.385000   0.253029   -0.290844
 0.390000   0.251577   -0.289878
 0.395000   0.250130   -0.288801
 0.400000   0.248689   -0.287461
 0.405000   0.247255   -0.285934
 0.410000   0.245830   -0.284291
 0.415000   0.244412   -0.282499
 0.420000   0.243005   -0.280450
 0.425000   0.241608   -0.278161
 0.430000   0.240223   -0.275710
 0.435000   0.238851   -0.273089
 0.440000   0.237492   -0.270214
 0.445000   0.236149   -0.267121
 0.450000   0.234821   -0.263906
 0.455000   0.233510   -0.260587
 0.460000   0.232215   -0.257100
 0.465000   0.230939   -0.253440
 0.470000   0.229681   -0.249692
 0.475000   0.228442   -0.245891
 0.480000   0.227222   -0.241948
 0.485000   0.226022   -0.237819
 0.490000   0.224844   -0.233559
 0.495000   0.223687   -0.229189
 0.500000   0.222552   -0.224626
 0.505000   0.221440   -0.219832
 0.510000   0.220353   -0.214883
 0.515000   0.219292   -0.209828
 0.520000   0.218255   -0.204612
 0.525000   0.217245   -0.199211
 0.530000   0.216263   -0.193702
 0.535000   0.215308   -0.188148
 0.540000   0.214382   -0.182502
 0.545000   0.213483   -0.176735
 0.550000   0.212614   -0.170924
 0.555000   0.211774   -0.165132
 0.560000   0.210963   -0.159310
 0.565000   0.210181   -0.153414
 0.570000   0.209429   -0.147504
 0.575000   0.208706   -0.141638
 0.580000   0.208012   -0.135767
 0.585000   0.207348   -0.129839
 0.590000   0.206714   -0.123914
 0.595000   0.206109   -0.118047
 0.600000   0.205534   -0.112217
 0.605000   0.204987   -0.106389
 0.610000   0.204470   -0.100607
 0.615000   0.203981   -0.094907
 0.620000   0.203521   -0.089277
 0.625000   0.203088   -0.083659
 0.630000   0.202684   -0.078040
 0.635000   0.202308   -0.072433
 0.640000   0.201960   -0.066845
 0.645000   0.201639   -0.061258
 0.650000   0.201347   -0.055628
 0.655000   0.201083   -0.050026
 0.660000   0.200847   -0.044540
 0.665000   0.200638   -0.039169
 0.670000   0.200455   -0.033934
 0.675000   0.200298   -0.028859
 0.680000   0.200167   -0.023832
 0.685000   0.200060   -0.018623
 0.690000   0.199980   -0.013095
 0.695000   0.199929   -0.007214
 0.700000   0.199908   -0.000994
 0.705000   0.199919   0.005497
 0.710000   0.199963   0.012428
 0.715000   0.200043   0.019496
 0.720000   0.200158   0.026030
 0.725000   0.200304   0.031937
 0.730000   0.200477   0.037212
 0.735000   0.200676   0.041762
 0.740000   0.200895   0.045532
 0.745000   0.201131   0.048266
 0.750000   0.201378   0.049760
 0.755000   0.201629   0.050152
 0.760000   0.201879   0.049605
 0.765000   0.202125   0.048194
 0.770000   0.202361   0.045863
 0.775000   0.202583   0.042648
 0.780000   0.202788   0.039092
 0.785000   0.202974   0.035606
 0.790000   0.203144   0.032269
 0.795000   0.203297   0.029220
 0.800000   0.203436   0.026495
 0.805000   0.203562   0.024212
 0.810000   0.203678   0.022625
 0.815000   0.203788   0.021701
 0.820000   0.203895   0.021238
 0.825000   0.204001   0.021132
 0.830000   0.204106   0.021277
 0.835000   0.204213   0.021559
 0.840000   0.204322   0.021929
 0.845000   0.204433   0.022465
 0.850000   0.204547   0.023290
 0.855000   0.204666   0.024512
 0.860000   0.204792   0.026240
 0.865000   0.204928   0.028623
 0.870000   0.205078   0.031989
 0.875000   0.205248   0.036581
 0.880000   0.205444   0.042380
 0.885000   0.205672   0.049209
 0.890000   0.205936   0.056539
 0.895000   0.206237   0.063451
 0.900000   0.206570   0.067775
 0.905000   0.206915   0.065558
 0.910000   0.207226   0.050185
 0.915000   0.207417   0.010368
 0.920000   0.207330   -0.071426
 0.925000   0.206702   -0.218403
 0.930000   0.205146   -0.461973
 0.935000   0.202083   -0.833829
 0.940000   0.196807   -1.344930
 0.945000   0.188633   -1.960523
 0.950000   0.177202   -2.577860
 0.955000   0.162855   -3.035493
 0.960000   0.146847   -3.194732
 0.965000   0.130907   -3.017324
 0.970000   0.116674   -2.578457
 0.975000   0.105123   -2.026092
 0.980000   0.096413   -1.500898
 0.985000   0.090114   -1.084970
 0.990000   0.085563   -0.804449
 0.995000   0.082069   -0.641891
 1.000000   0.079144   -0.528099
201 psinorm ti(KeV) dti/dpsiN
 0.000000   5.858889   0.002532
 0.005000   5.857985   -0.363843
 0.010000   5.855250   -0.733760
 0.015000   5.850648   -1.110347
 0.020000   5.844147   -1.492740
 0.025000   5.835720   -1.880046
 0.030000   5.825346   -2.271370
 0.035000   5.813007   -2.665835
 0.040000   5.798688   -3.062512
 0.045000   5.782382   -3.460484
 0.050000   5.764083   -3.858837
 0.055000   5.743793   -4.256545
 0.060000   5.721518   -4.652402
 0.065000   5.697269   -5.044880
 0.070000   5.671069   -5.431431
 0.075000   5.642955   -5.809987
 0.080000   5.612969   -6.179827
 0.085000   5.581157   -6.539950
 0.090000   5.547570   -6.889161
 0.095000   5.512265   -7.226428
 0.100000   5.475305   -7.549825
 0.105000   5.436767   -7.859011
 0.110000   5.396715   -8.154842
 0.115000   5.355218   -8.436644
 0.120000   5.312349   -8.704231
 0.125000   5.268176   -8.958364
 0.130000   5.222765   -9.200282
 0.135000   5.176173   -9.430585
 0.140000   5.128459   -9.647329
 0.145000   5.079700   -9.848219
 0.150000   5.029977   -10.032497
 0.155000   4.979375   -10.199708
 0.160000   4.927980   -10.349141
 0.165000   4.875883   -10.479218
 0.170000   4.823188   -10.588798
 0.175000   4.769996   -10.677541
 0.180000   4.716412   -10.745202
 0.185000   4.662544   -10.791924
 0.190000   4.608493   -10.816894
 0.195000   4.554375   -10.819676
 0.200000   4.500296   -10.804679
 0.205000   4.446328   -10.775270
 0.210000   4.392544   -10.732044
 0.215000   4.339007   -10.677170
 0.220000   4.285772   -10.612332
 0.225000   4.232884   -10.539945
 0.230000   4.180372   -10.462826
 0.235000   4.128256   -10.381151
 0.240000   4.076561   -10.294328
 0.245000   4.025312   -10.202670
 0.250000   3.974534   -10.106522
 0.255000   3.924247   -10.005901
 0.260000   3.874475   -9.894634
 0.265000   3.825301   -9.769590
 0.270000   3.776779   -9.633904
 0.275000   3.728962   -9.488261
 0.280000   3.681897   -9.333247
 0.285000   3.635629   -9.169435
 0.290000   3.590202   -8.995836
 0.295000   3.545671   -8.812383
 0.300000   3.502079   -8.619909
 0.305000   3.459472   -8.417607
 0.310000   3.417902   -8.204665
 0.315000   3.377425   -7.975980
 0.320000   3.338143   -7.737582
 0.325000   3.300049   -7.501906
 0.330000   3.263124   -7.272938
 0.335000   3.227320   -7.054344
 0.340000   3.192580   -6.848021
 0.345000   3.158840   -6.657447
 0.350000   3.126006   -6.482487
 0.355000   3.094015   -6.318328
 0.360000   3.062822   -6.162761
 0.365000   3.032387   -6.014542
 0.370000   3.002677   -5.872146
 0.375000   2.973666   -5.739834
 0.380000   2.945279   -5.610290
 0.385000   2.917563   -5.471009
 0.390000   2.890569   -5.322750
 0.395000   2.864336   -5.166253
 0.400000   2.838906   -5.001631
 0.405000   2.814319   -4.829196
 0.410000   2.790614   -4.647839
 0.415000   2.767841   -4.460015
 0.420000   2.746014   -4.270927
 0.425000   2.725132   -4.083467
 0.430000   2.705179   -3.900049
 0.435000   2.686131   -3.719898
 0.440000   2.667980   -3.544998
 0.445000   2.650681   -3.381520
 0.450000   2.634165   -3.229847
 0.455000   2.618383   -3.088330
 0.460000   2.603282   -2.957400
 0.465000   2.588809   -2.835608
 0.470000   2.574926   -2.723981
 0.475000   2.561569   -2.627372
 0.480000   2.548652   -2.545465
 0.485000   2.536114   -2.475716
 0.490000   2.523895   -2.417978
 0.495000   2.511934   -2.372167
 0.500000   2.500173   -2.338306
 0.505000   2.488551   -2.313872
 0.510000   2.477034   -2.295305
 0.515000   2.465598   -2.281511
 0.520000   2.454219   -2.272468
 0.525000   2.442874   -2.268432
 0.530000   2.431535   -2.269651
 0.535000   2.420177   -2.275829
 0.540000   2.408777   -2.286548
 0.545000   2.397312   -2.301597
 0.550000   2.385761   -2.320672
 0.555000   2.374105   -2.343503
 0.560000   2.362326   -2.369968
 0.565000   2.350405   -2.399351
 0.570000   2.338332   -2.431008
 0.575000   2.326095   -2.464806
 0.580000   2.313684   -2.500330
 0.585000   2.301092   -2.537167
 0.590000   2.288312   -2.574968
 0.595000   2.275342   -2.613101
 0.600000   2.262181   -2.651406
 0.605000   2.248828   -2.690471
 0.610000   2.235277   -2.730797
 0.615000   2.221520   -2.772818
 0.620000   2.207549   -2.818266
 0.625000   2.193337   -2.866125
 0.630000   2.178887   -2.914182
 0.635000   2.164196   -2.962536
 0.640000   2.149262   -3.010613
 0.645000   2.134089   -3.057715
 0.650000   2.118685   -3.105103
 0.655000   2.103038   -3.150086
 0.660000   2.087184   -3.189500
 0.665000   2.071143   -3.224870
 0.670000   2.054935   -3.256498
 0.675000   2.038578   -3.284188
 0.680000   2.022093   -3.309168
 0.685000   2.005487   -3.329139
 0.690000   1.988802   -3.340199
 0.695000   1.972085   -3.341846
 0.700000   1.955384   -3.333244
 0.705000   1.938752   -3.313517
 0.710000   1.922248   -3.281331
 0.715000   1.905939   -3.237949
 0.720000   1.889869   -3.188123
 0.725000   1.874058   -3.134396
 0.730000   1.858525   -3.077331
 0.735000   1.843285   -3.017793
 0.740000   1.828347   -2.955761
 0.745000   1.813727   -2.892593
 0.750000   1.799421   -2.830822
 0.755000   1.785419   -2.770795
 0.760000   1.771713   -2.712692
 0.765000   1.758292   -2.657719
 0.770000   1.745136   -2.607894
 0.775000   1.732213   -2.565557
 0.780000   1.719480   -2.528780
 0.785000   1.706925   -2.494028
 0.790000   1.694540   -2.460097
 0.795000   1.682324   -2.426181
 0.800000   1.670278   -2.392331
 0.805000   1.658401   -2.358546
 0.810000   1.646693   -2.325217
 0.815000   1.635149   -2.295114
 0.820000   1.623742   -2.271218
 0.825000   1.612436   -2.255127
 0.830000   1.601190   -2.248294
 0.835000   1.589953   -2.252518
 0.840000   1.578665   -2.266383
 0.845000   1.567290   -2.288772
 0.850000   1.555777   -2.322352
 0.855000   1.544066   -2.370300
 0.860000   1.532074   -2.437731
 0.865000   1.519689   -2.536097
 0.870000   1.506714   -2.663866
 0.875000   1.493050   -2.815990
 0.880000   1.478554   -2.998826
 0.885000   1.463062   -3.216014
 0.890000   1.446393   -3.472054
 0.895000   1.428341   -3.787292
 0.900000   1.408521   -4.150703
 0.905000   1.386834   -4.554138
 0.910000   1.362979   -5.023106
 0.915000   1.336603   -5.565703
 0.920000   1.307322   -6.185884
 0.925000   1.274744   -6.925487
 0.930000   1.238067   -7.747711
 0.935000   1.197267   -8.587873
 0.940000   1.152189   -9.445540
 0.945000   1.102812   -10.285489
 0.950000   1.049334   -11.061001
 0.955000   0.992202   -11.756432
 0.960000   0.931769   -12.282597
 0.965000   0.869376   -12.559422
 0.970000   0.806175   -12.608013
 0.975000   0.743296   -12.428729
 0.980000   0.681888   -12.023789
 0.985000   0.623058   -11.427060
 0.990000   0.567617   -10.646118
 0.995000   0.516597   -9.698444
 1.000000   0.470633   -8.687136
201 psinorm nb(10^20/m^3) dnb/dpsiN
 0.000000   0.097282   0.105160
 0.005000   0.097584   0.015722
 0.010000   0.097439   -0.058733
 0.015000   0.096997   -0.112655
 0.020000   0.096313   -0.157794
 0.025000   0.095419   -0.197109
 0.030000   0.094342   -0.231726
 0.035000   0.093102   -0.260805
 0.040000   0.091734   -0.284895
 0.045000   0.090253   -0.305100
 0.050000   0.088683   -0.320858
 0.055000   0.087044   -0.333731
 0.060000   0.085345   -0.343973
 0.065000   0.083605   -0.351686
 0.070000   0.081829   -0.357162
 0.075000   0.080033   -0.360442
 0.080000   0.078224   -0.362016
 0.085000   0.076413   -0.361752
 0.090000   0.074607   -0.359913
 0.095000   0.072814   -0.356629
 0.100000   0.071040   -0.352292
 0.105000   0.069291   -0.347125
 0.110000   0.067569   -0.341139
 0.115000   0.065879   -0.334385
 0.120000   0.064225   -0.326847
 0.125000   0.062611   -0.318565
 0.130000   0.061040   -0.310025
 0.135000   0.059511   -0.301380
 0.140000   0.058026   -0.292421
 0.145000   0.056586   -0.283292
 0.150000   0.055193   -0.274109
 0.155000   0.053845   -0.264871
 0.160000   0.052544   -0.255654
 0.165000   0.051289   -0.246511
 0.170000   0.050079   -0.237458
 0.175000   0.048914   -0.228550
 0.180000   0.047794   -0.219842
 0.185000   0.046716   -0.211340
 0.190000   0.045680   -0.203032
 0.195000   0.044686   -0.194557
 0.200000   0.043735   -0.186278
 0.205000   0.042823   -0.178614
 0.210000   0.041948   -0.171248
 0.215000   0.041110   -0.164178
 0.220000   0.040307   -0.157393
 0.225000   0.039536   -0.150886
 0.230000   0.038798   -0.144672
 0.235000   0.038090   -0.138727
 0.240000   0.037411   -0.132550
 0.245000   0.036764   -0.126694
 0.250000   0.036144   -0.121638
 0.255000   0.035548   -0.116844
 0.260000   0.034975   -0.112307
 0.265000   0.034425   -0.108013
 0.270000   0.033895   -0.103623
 0.275000   0.033388   -0.099325
 0.280000   0.032902   -0.095612
 0.285000   0.032432   -0.092284
 0.290000   0.031979   -0.089155
 0.295000   0.031541   -0.086125
 0.300000   0.031118   -0.082971
 0.305000   0.030711   -0.080119
 0.310000   0.030316   -0.077772
 0.315000   0.029933   -0.075575
 0.320000   0.029561   -0.073440
 0.325000   0.029199   -0.071223
 0.330000   0.028849   -0.069259
 0.335000   0.028506   -0.067675
 0.340000   0.028172   -0.066190
 0.345000   0.027844   -0.064672
 0.350000   0.027525   -0.063168
 0.355000   0.027213   -0.061918
 0.360000   0.026906   -0.060860
 0.365000   0.026604   -0.059853
 0.370000   0.026307   -0.058769
 0.375000   0.026016   -0.057792
 0.380000   0.025729   -0.057040
 0.385000   0.025446   -0.056335
 0.390000   0.025166   -0.055570
 0.395000   0.024890   -0.054831
 0.400000   0.024618   -0.054254
 0.405000   0.024348   -0.053743
 0.410000   0.024080   -0.053204
 0.415000   0.023816   -0.052653
 0.420000   0.023554   -0.052193
 0.425000   0.023294   -0.051798
 0.430000   0.023036   -0.051380
 0.435000   0.022780   -0.050930
 0.440000   0.022526   -0.050534
 0.445000   0.022275   -0.050197
 0.450000   0.022025   -0.049839
 0.455000   0.021776   -0.049446
 0.460000   0.021530   -0.049091
 0.465000   0.021285   -0.048785
 0.470000   0.021042   -0.048460
 0.475000   0.020801   -0.048089
 0.480000   0.020561   -0.047743
 0.485000   0.020323   -0.047450
 0.490000   0.020087   -0.047140
 0.495000   0.019852   -0.046781
 0.500000   0.019619   -0.046441
 0.505000   0.019388   -0.046154
 0.510000   0.019157   -0.045851
 0.515000   0.018929   -0.045496
 0.520000   0.018703   -0.045156
 0.525000   0.018477   -0.044868
 0.530000   0.018254   -0.044568
 0.535000   0.018032   -0.044217
 0.540000   0.017812   -0.043882
 0.545000   0.017593   -0.043604
 0.550000   0.017376   -0.043324
 0.555000   0.017160   -0.042989
 0.560000   0.016946   -0.042664
 0.565000   0.016733   -0.042401
 0.570000   0.016522   -0.042141
 0.575000   0.016312   -0.041831
 0.580000   0.016103   -0.041525
 0.585000   0.015896   -0.041281
 0.590000   0.015691   -0.041045
 0.595000   0.015486   -0.040778
 0.600000   0.015283   -0.040515
 0.605000   0.015081   -0.040302
 0.610000   0.014880   -0.040108
 0.615000   0.014680   -0.039907
 0.620000   0.014481   -0.039707
 0.625000   0.014283   -0.039545
 0.630000   0.014085   -0.039416
 0.635000   0.013889   -0.039300
 0.640000   0.013692   -0.039190
 0.645000   0.013497   -0.039107
 0.650000   0.013301   -0.039059
 0.655000   0.013106   -0.039025
 0.660000   0.012911   -0.039007
 0.665000   0.012716   -0.039011
 0.670000   0.012521   -0.039034
 0.675000   0.012326   -0.039068
 0.680000   0.012130   -0.039111
 0.685000   0.011934   -0.039175
 0.690000   0.011738   -0.039256
 0.695000   0.011542   -0.039340
 0.700000   0.011345   -0.039435
 0.705000   0.011148   -0.039544
 0.710000   0.010950   -0.039689
 0.715000   0.010751   -0.039846
 0.720000   0.010551   -0.039993
 0.725000   0.010351   -0.040148
 0.730000   0.010150   -0.040311
 0.735000   0.009948   -0.040511
 0.740000   0.009745   -0.040719
 0.745000   0.009540   -0.040904
 0.750000   0.009335   -0.041092
 0.755000   0.009130   -0.041281
 0.760000   0.008923   -0.041483
 0.765000   0.008715   -0.041691
 0.770000   0.008506   -0.041875
 0.775000   0.008296   -0.042038
 0.780000   0.008085   -0.042191
 0.785000   0.007874   -0.042333
 0.790000   0.007662   -0.042472
 0.795000   0.007449   -0.042599
 0.800000   0.007236   -0.042699
 0.805000   0.007022   -0.042779
 0.810000   0.006808   -0.042841
 0.815000   0.006594   -0.042881
 0.820000   0.006379   -0.042896
 0.825000   0.006165   -0.042876
 0.830000   0.005951   -0.042817
 0.835000   0.005737   -0.042722
 0.840000   0.005523   -0.042587
 0.845000   0.005311   -0.042412
 0.850000   0.005099   -0.042191
 0.855000   0.004889   -0.041924
 0.860000   0.004680   -0.041613
 0.865000   0.004473   -0.041304
 0.870000   0.004267   -0.041077
 0.875000   0.004062   -0.040939
 0.880000   0.003858   -0.040866
 0.885000   0.003653   -0.040854
 0.890000   0.003449   -0.040900
 0.895000   0.003244   -0.041000
 0.900000   0.003039   -0.041150
 0.905000   0.002833   -0.041339
 0.910000   0.002626   -0.041537
 0.915000   0.002418   -0.041639
 0.920000   0.002209   -0.041487
 0.925000   0.002003   -0.040977
 0.930000   0.001800   -0.040076
 0.935000   0.001602   -0.038819
 0.940000   0.001411   -0.037261
 0.945000   0.001229   -0.035431
 0.950000   0.001057   -0.033287
 0.955000   0.000897   -0.030660
 0.960000   0.000751   -0.027438
 0.965000   0.000622   -0.023760
 0.970000   0.000513   -0.019962
 0.975000   0.000423   -0.016313
 0.980000   0.000350   -0.013346
 0.985000   0.000289   -0.011551
 0.990000   0.000234   -0.010689
 0.995000   0.000182   -0.010758
 1.000000   0.000127   -0.011425
201 psinorm pb(KPa) dpb/dpsiN
 0.000000   40.055410   21.784801
 0.005000   40.084298   -10.229841
 0.010000   39.953112   -38.256159
 0.015000   39.701736   -59.984204
 0.020000   39.353270   -77.992827
 0.025000   38.921808   -93.470123
 0.030000   38.418569   -106.888697
 0.035000   37.852921   -118.007469
 0.040000   37.238494   -127.100599
 0.045000   36.581915   -134.566173
 0.050000   35.892832   -140.147024
 0.055000   35.180445   -144.546348
 0.060000   34.447369   -147.978081
 0.065000   33.700664   -150.419886
 0.070000   32.943170   -151.981279
 0.075000   32.180851   -152.744548
 0.080000   31.415724   -152.841371
 0.085000   30.652437   -152.178330
 0.090000   29.893941   -150.903315
 0.095000   29.143404   -149.068271
 0.100000   28.403258   -146.844058
 0.105000   27.674964   -144.323419
 0.110000   26.960024   -141.507751
 0.115000   26.259886   -138.420539
 0.120000   25.575819   -135.049628
 0.125000   24.909390   -131.403454
 0.130000   24.261784   -127.688491
 0.135000   23.632505   -123.963741
 0.140000   23.022147   -120.134043
 0.145000   22.431164   -116.258131
 0.150000   21.859566   -112.384798
 0.155000   21.307316   -108.517851
 0.160000   20.774387   -104.677257
 0.165000   20.260544   -100.883344
 0.170000   19.765554   -97.138052
 0.175000   19.289163   -93.469497
 0.180000   18.830859   -89.913135
 0.185000   18.390032   -86.452787
 0.190000   17.966331   -83.061978
 0.195000   17.559412   -79.611123
 0.200000   17.170220   -76.250525
 0.205000   16.796907   -73.139879
 0.210000   16.438821   -70.156166
 0.215000   16.095345   -67.296188
 0.220000   15.765859   -64.554839
 0.225000   15.449797   -61.927563
 0.230000   15.146583   -59.420583
 0.235000   14.855591   -57.028649
 0.240000   14.576297   -54.559732
 0.245000   14.309994   -52.221086
 0.250000   14.054086   -50.195484
 0.255000   13.808039   -48.276305
 0.260000   13.571323   -46.460552
 0.265000   13.343433   -44.742202
 0.270000   13.123901   -42.993470
 0.275000   12.913499   -41.282877
 0.280000   12.711072   -39.797721
 0.285000   12.515522   -38.464008
 0.290000   12.326432   -37.209662
 0.295000   12.143425   -35.995707
 0.300000   11.966475   -34.739477
 0.305000   11.796030   -33.599443
 0.310000   11.630480   -32.650717
 0.315000   11.469523   -31.760211
 0.320000   11.312878   -30.896393
 0.325000   11.160559   -30.004933
 0.330000   11.012829   -29.209921
 0.335000   10.868460   -28.558073
 0.340000   10.727248   -27.945587
 0.345000   10.589004   -27.323257
 0.350000   10.454016   -26.708501
 0.355000   10.321919   -26.188959
 0.360000   10.192126   -25.741246
 0.365000   10.064506   -25.312943
 0.370000   9.938997   -24.857710
 0.375000   9.815929   -24.442810
 0.380000   9.694569   -24.110850
 0.385000   9.574821   -23.796771
 0.390000   9.456601   -23.461391
 0.395000   9.340207   -23.136296
 0.400000   9.225238   -22.870382
 0.405000   9.111503   -22.629251
 0.410000   8.998945   -22.378153
 0.415000   8.887722   -22.123435
 0.420000   8.777711   -21.901930
 0.425000   8.668702   -21.704309
 0.430000   8.560668   -21.498441
 0.435000   8.453718   -21.280978
 0.440000   8.347858   -21.083342
 0.445000   8.242885   -20.907420
 0.450000   8.138784   -20.724287
 0.455000   8.035642   -20.528570
 0.460000   7.933498   -20.346985
 0.465000   7.832172   -20.184077
 0.470000   7.731657   -20.014627
 0.475000   7.632026   -19.829024
 0.480000   7.533367   -19.653518
 0.485000   7.435490   -19.497671
 0.490000   7.338391   -19.336304
 0.495000   7.242127   -19.157615
 0.500000   7.146814   -18.986824
 0.505000   7.052259   -18.835504
 0.510000   6.958459   -18.679229
 0.515000   6.865467   -18.504609
 0.520000   6.773413   -18.336015
 0.525000   6.682107   -18.186838
 0.530000   6.591545   -18.034200
 0.535000   6.501765   -17.862779
 0.540000   6.412917   -17.696816
 0.545000   6.324796   -17.551710
 0.550000   6.237400   -17.405360
 0.555000   6.150743   -17.239301
 0.560000   6.065007   -17.078345
 0.565000   5.979959   -16.940421
 0.570000   5.895603   -16.801961
 0.575000   5.811940   -16.645347
 0.580000   5.729149   -16.489252
 0.585000   5.647047   -16.353733
 0.590000   5.565612   -16.221390
 0.595000   5.484833   -16.076835
 0.600000   5.404844   -15.932760
 0.605000   5.325506   -15.807653
 0.610000   5.246767   -15.689293
 0.615000   5.168613   -15.568503
 0.620000   5.091082   -15.448581
 0.625000   5.014127   -15.342634
 0.630000   4.937656   -15.249474
 0.635000   4.861632   -15.163898
 0.640000   4.786017   -15.079929
 0.645000   4.710833   -15.005868
 0.650000   4.635958   -14.946126
 0.655000   4.561372   -14.890686
 0.660000   4.487051   -14.841632
 0.665000   4.412955   -14.801413
 0.670000   4.339037   -14.768020
 0.675000   4.265275   -14.737856
 0.680000   4.191659   -14.709569
 0.685000   4.118180   -14.686375
 0.690000   4.044795   -14.669019
 0.695000   3.971489   -14.654601
 0.700000   3.898249   -14.643829
 0.705000   3.825051   -14.638841
 0.710000   3.751860   -14.646382
 0.715000   3.678587   -14.658781
 0.720000   3.605273   -14.668245
 0.725000   3.531905   -14.680086
 0.730000   3.458472   -14.694559
 0.735000   3.384959   -14.719944
 0.740000   3.311272   -14.746849
 0.745000   3.237491   -14.765834
 0.750000   3.163614   -14.784779
 0.755000   3.089643   -14.803258
 0.760000   3.015581   -14.824498
 0.765000   2.941398   -14.847181
 0.770000   2.867110   -14.861498
 0.775000   2.792783   -14.866643
 0.780000   2.718443   -14.867183
 0.785000   2.644111   -14.863711
 0.790000   2.569806   -14.857719
 0.795000   2.495534   -14.847053
 0.800000   2.421335   -14.828833
 0.805000   2.347246   -14.804296
 0.810000   2.273292   -14.773492
 0.815000   2.199511   -14.735027
 0.820000   2.125942   -14.687238
 0.825000   2.052638   -14.624181
 0.830000   1.979700   -14.547190
 0.835000   1.907166   -14.459806
 0.840000   1.835102   -14.358946
 0.845000   1.763577   -14.243857
 0.850000   1.692664   -14.113618
 0.855000   1.622441   -13.967891
 0.860000   1.552985   -13.805464
 0.865000   1.484386   -13.633115
 0.870000   1.416654   -13.475971
 0.875000   1.349626   -13.340872
 0.880000   1.283245   -13.217844
 0.885000   1.217448   -13.107677
 0.890000   1.152168   -13.011453
 0.895000   1.087333   -12.930816
 0.900000   1.022860   -12.867745
 0.905000   0.958656   -12.822789
 0.910000   0.894632   -12.793093
 0.915000   0.830725   -12.755780
 0.920000   0.767074   -12.675149
 0.925000   0.703974   -12.523383
 0.930000   0.641841   -12.294277
 0.935000   0.581031   -12.006675
 0.940000   0.521774   -11.687524
 0.945000   0.464156   -11.367328
 0.950000   0.408101   -11.060978
 0.955000   0.353546   -10.724941
 0.960000   0.300851   -10.272924
 0.965000   0.250817   -9.630934
 0.970000   0.204542   -8.767454
 0.975000   0.163142   -7.684340
 0.980000   0.127698   -6.494584
 0.985000   0.098196   -5.350147
 0.990000   0.074197   -4.282271
 0.995000   0.055373   -3.525991
 1.000000   0.038937   -3.048603
201 psinorm ptot(KPa) dptot/dpsiN
 0.000000   116.041376   -175.990785
 0.005000   115.104247   -198.860909
 0.010000   114.052767   -219.154228
 0.015000   112.912704   -235.089020
 0.020000   111.701877   -248.145129
 0.025000   110.431253   -259.236599
 0.030000   109.109511   -268.733555
 0.035000   107.743918   -276.475551
 0.040000   106.344755   -282.687926
 0.045000   104.917038   -287.665954
 0.050000   103.468096   -291.202512
 0.055000   102.005013   -293.855163
 0.060000   100.529544   -295.810364
 0.065000   99.046910   -297.030164
 0.070000   97.559242   -297.585591
 0.075000   96.071054   -297.541186
 0.080000   94.583830   -296.976034
 0.085000   93.101293   -295.804866
 0.090000   91.625782   -294.145056
 0.095000   90.159843   -292.029598
 0.100000   88.705486   -289.583870
 0.105000   87.264004   -286.873378
 0.110000   85.836752   -283.896367
 0.115000   84.425040   -280.667830
 0.120000   83.030074   -277.175350
 0.125000   81.653287   -273.426557
 0.130000   80.295808   -269.592116
 0.135000   78.957366   -265.718984
 0.140000   77.638618   -261.716664
 0.145000   76.340199   -257.619746
 0.150000   75.062421   -253.464161
 0.155000   73.805557   -249.251720
 0.160000   72.569904   -244.993004
 0.165000   71.355627   -240.696116
 0.170000   70.162942   -236.355856
 0.175000   68.992069   -231.994237
 0.180000   67.843000   -227.641802
 0.185000   66.715651   -223.283232
 0.190000   65.610168   -218.889730
 0.195000   64.526753   -214.356477
 0.200000   63.466603   -209.829373
 0.205000   62.428460   -205.455404
 0.210000   61.412049   -201.138879
 0.215000   60.417071   -196.888202
 0.220000   59.443167   -192.707446
 0.225000   58.489996   -188.603094
 0.230000   57.557136   -184.593442
 0.235000   56.644062   -180.677115
 0.240000   55.750365   -176.693066
 0.245000   54.877131   -172.815163
 0.250000   54.022213   -169.198097
 0.255000   53.185150   -165.671034
 0.260000   52.365503   -162.205353
 0.265000   51.563097   -158.783977
 0.270000   50.777663   -155.314310
 0.275000   50.009954   -151.857416
 0.280000   49.259089   -148.574516
 0.285000   48.524209   -145.407475
 0.290000   47.805014   -142.291674
 0.295000   47.101292   -139.193421
 0.300000   46.413080   -136.045136
 0.305000   45.740841   -132.977402
 0.310000   45.083306   -130.050375
 0.315000   44.440337   -127.128242
 0.320000   43.812024   -124.211240
 0.325000   43.198224   -121.308346
 0.330000   42.598940   -118.543342
 0.335000   42.012791   -115.972030
 0.340000   41.439220   -113.512703
 0.345000   40.877664   -111.137040
 0.350000   40.327849   -108.858192
 0.355000   39.789082   -106.729902
 0.360000   39.260550   -104.722125
 0.365000   38.741861   -102.783601
 0.370000   38.232714   -100.866744
 0.375000   37.733193   -99.047570
 0.380000   37.242239   -97.330340
 0.385000   36.759890   -95.603976
 0.390000   36.286199   -93.837795
 0.395000   35.821512   -92.062600
 0.400000   35.365573   -90.321621
 0.405000   34.918296   -88.586207
 0.410000   34.479711   -86.821073
 0.415000   34.050085   -85.041913
 0.420000   33.629292   -83.302647
 0.425000   33.217059   -81.606580
 0.430000   32.813226   -79.934692
 0.435000   32.417712   -78.279717
 0.440000   32.030429   -76.676959
 0.445000   31.650942   -75.153583
 0.450000   31.278893   -73.685100
 0.455000   30.914091   -72.259049
 0.460000   30.556302   -70.900060
 0.465000   30.205090   -69.605724
 0.470000   29.860245   -68.357256
 0.475000   29.521518   -67.164163
 0.480000   29.188603   -66.046664
 0.485000   28.861051   -65.001568
 0.490000   28.538588   -64.004434
 0.495000   28.221007   -63.043032
 0.500000   27.908158   -62.138532
 0.505000   27.599622   -61.290601
 0.510000   27.295251   -60.463759
 0.515000   26.994984   -59.642006
 0.520000   26.698831   -58.846987
 0.525000   26.406514   -58.091665
 0.530000   26.117915   -57.356717
 0.535000   25.832947   -56.627671
 0.540000   25.551638   -55.924949
 0.545000   25.273698   -55.261759
 0.550000   24.999020   -54.617477
 0.555000   24.727523   -53.974790
 0.560000   24.459273   -53.355864
 0.565000   24.193964   -52.774162
 0.570000   23.931531   -52.206000
 0.575000   23.671904   -51.635300
 0.580000   23.415178   -51.077295
 0.585000   23.161131   -50.548559
 0.590000   22.909692   -50.032683
 0.595000   22.660804   -49.513867
 0.600000   22.414554   -49.003441
 0.605000   22.170770   -48.520594
 0.610000   21.929348   -48.056350
 0.615000   21.690206   -47.604236
 0.620000   21.453305   -47.173096
 0.625000   21.218475   -46.770503
 0.630000   20.985600   -46.387226
 0.635000   20.754603   -46.018968
 0.640000   20.525411   -45.658024
 0.645000   20.298023   -45.309735
 0.650000   20.072313   -44.981633
 0.655000   19.848207   -44.656679
 0.660000   19.625747   -44.328596
 0.665000   19.404921   -44.005017
 0.670000   19.185696   -43.685613
 0.675000   18.968065   -43.366753
 0.680000   18.752029   -43.048243
 0.685000   18.537582   -42.719201
 0.690000   18.324837   -42.363705
 0.695000   18.113945   -41.976684
 0.700000   17.905070   -41.556600
 0.705000   17.698379   -41.104685
 0.710000   17.494023   -40.618900
 0.715000   17.292190   -40.103888
 0.720000   17.092984   -39.585021
 0.725000   16.896340   -39.077858
 0.730000   16.702206   -38.583971
 0.735000   16.510500   -38.116027
 0.740000   16.321045   -37.665247
 0.745000   16.133848   -37.232347
 0.750000   15.948722   -36.837737
 0.755000   15.765470   -36.477860
 0.760000   15.583943   -36.151762
 0.765000   15.403953   -35.859840
 0.770000   15.225345   -35.600002
 0.775000   15.047953   -35.378000
 0.780000   14.871565   -35.178766
 0.785000   14.696165   -34.981174
 0.790000   14.521753   -34.780748
 0.795000   14.348358   -34.569546
 0.800000   14.176058   -34.344164
 0.805000   14.004916   -34.103302
 0.810000   13.835025   -33.842874
 0.815000   13.666487   -33.571875
 0.820000   13.499306   -33.303435
 0.825000   13.333453   -33.039209
 0.830000   13.168914   -32.787630
 0.835000   13.005576   -32.560370
 0.840000   12.843310   -32.350010
 0.845000   12.682076   -32.149668
 0.850000   12.521814   -31.964555
 0.855000   12.362431   -31.802804
 0.860000   12.203785   -31.678856
 0.865000   12.045642   -31.637270
 0.870000   11.887413   -31.694446
 0.875000   11.728698   -31.842077
 0.880000   11.568992   -32.105852
 0.885000   11.407639   -32.525716
 0.890000   11.243735   -33.167766
 0.895000   11.075962   -34.186556
 0.900000   10.901869   -35.691338
 0.905000   10.719048   -37.892378
 0.910000   10.522946   -41.247959
 0.915000   10.306569   -46.336341
 0.920000   10.059582   -53.956012
 0.925000   9.767009   -65.261882
 0.930000   9.406963   -81.293707
 0.935000   8.954071   -102.707391
 0.940000   8.379889   -129.169336
 0.945000   7.662378   -157.959884
 0.950000   6.800291   -183.518242
 0.955000   5.827196   -198.738486
 0.960000   4.812906   -198.166736
 0.965000   3.845528   -181.357189
 0.970000   2.999334   -153.179067
 0.975000   2.313738   -120.818115
 0.980000   1.791153   -90.577771
 0.985000   1.407960   -66.045714
 0.990000   1.130695   -47.937045
 0.995000   0.928589   -35.462049
 1.000000   0.776075   -25.543748
201 psinorm omeg(kRad/s) domeg/dpsiN
 0.000000   57.626404   0.036776
 0.005000   57.625989   -0.202532
 0.010000   57.624378   -0.505281
 0.015000   57.620936   -0.952326
 0.020000   57.614855   -1.575218
 0.025000   57.605184   -2.399766
 0.030000   57.590857   -3.444778
 0.035000   57.570736   -4.718442
 0.040000   57.543673   -6.202422
 0.045000   57.508712   -7.869980
 0.050000   57.464973   -9.695433
 0.055000   57.411758   -11.637398
 0.060000   57.348599   -13.648004
 0.065000   57.275278   -15.676398
 0.070000   57.191835   -17.610312
 0.075000   57.099175   -19.442097
 0.080000   56.997414   -21.242195
 0.085000   56.886753   -22.996930
 0.090000   56.767445   -24.711440
 0.095000   56.639638   -26.406265
 0.100000   56.503382   -28.049414
 0.105000   56.359144   -29.649794
 0.110000   56.206884   -31.234232
 0.115000   56.046802   -32.760626
 0.120000   55.879278   -34.219321
 0.125000   55.704609   -35.633710
 0.130000   55.522941   -37.012476
 0.135000   55.334484   -38.383984
 0.140000   55.139101   -39.763155
 0.145000   54.936852   -41.110406
 0.150000   54.727997   -42.408913
 0.155000   54.512763   -43.666989
 0.160000   54.291327   -44.881326
 0.165000   54.063950   -46.051890
 0.170000   53.830808   -47.187665
 0.175000   53.592073   -48.273730
 0.180000   53.348071   -49.296098
 0.185000   53.099112   -50.258931
 0.190000   52.845482   -51.161909
 0.195000   52.587493   -52.014175
 0.200000   52.325340   -52.828966
 0.205000   52.059204   -53.577959
 0.210000   51.789560   -54.220277
 0.215000   51.517001   -54.735954
 0.220000   51.242201   -55.101035
 0.225000   50.965990   -55.287035
 0.230000   50.689330   -55.340964
 0.235000   50.412581   -55.301091
 0.240000   50.136320   -55.151114
 0.245000   49.861070   -54.901662
 0.250000   49.587303   -54.552892
 0.255000   49.315541   -54.073065
 0.260000   49.046572   -53.514283
 0.265000   48.780398   -52.922665
 0.270000   48.517346   -52.275389
 0.275000   48.257644   -51.591431
 0.280000   48.001431   -50.885752
 0.285000   47.748787   -50.164274
 0.290000   47.499789   -49.478054
 0.295000   47.254006   -48.842273
 0.300000   47.011366   -48.210494
 0.305000   46.771901   -47.558803
 0.310000   46.535778   -46.858630
 0.315000   46.303315   -46.076000
 0.320000   46.075018   -45.201450
 0.325000   45.851300   -44.251828
 0.330000   45.632499   -43.239125
 0.335000   45.418909   -42.171819
 0.340000   45.210781   -41.057735
 0.345000   45.008332   -39.889355
 0.350000   44.811888   -38.687879
 0.355000   44.621453   -37.479475
 0.360000   44.437093   -36.258823
 0.365000   44.258865   -35.029818
 0.370000   44.086795   -33.798016
 0.375000   43.920884   -32.562787
 0.380000   43.761167   -31.332260
 0.385000   43.607562   -30.107867
 0.390000   43.460088   -28.876898
 0.395000   43.318793   -27.637798
 0.400000   43.183710   -26.394248
 0.405000   43.054850   -25.144118
 0.410000   42.932269   -23.897987
 0.415000   42.815871   -22.676740
 0.420000   42.705502   -21.490408
 0.425000   42.600966   -20.350829
 0.430000   42.501993   -19.271161
 0.435000   42.408255   -18.269493
 0.440000   42.319299   -17.350650
 0.445000   42.234748   -16.482474
 0.450000   42.154474   -15.639198
 0.455000   42.078356   -14.815256
 0.460000   42.006321   -14.003166
 0.465000   41.938325   -13.208932
 0.470000   41.874232   -12.427734
 0.475000   41.814047   -11.631117
 0.480000   41.757921   -10.820644
 0.485000   41.705841   -10.015757
 0.490000   41.657763   -9.224187
 0.495000   41.613599   -8.457868
 0.500000   41.573184   -7.724811
 0.505000   41.536351   -7.029767
 0.510000   41.502887   -6.395025
 0.515000   41.472401   -5.848264
 0.520000   41.444404   -5.406287
 0.525000   41.418338   -5.085507
 0.530000   41.393549   -4.907125
 0.535000   41.369267   -4.869400
 0.540000   41.344855   -4.978759
 0.545000   41.319479   -5.272058
 0.550000   41.292135   -5.787627
 0.555000   41.261603   -6.577802
 0.560000   41.226356   -7.725378
 0.565000   41.184349   -9.259636
 0.570000   41.133760   -11.210506
 0.575000   41.072244   -13.654286
 0.580000   40.997217   -16.631042
 0.585000   40.905933   -20.165173
 0.590000   40.795566   -24.280898
 0.595000   40.663124   -28.875731
 0.600000   40.506808   -33.839725
 0.605000   40.324727   -39.135612
 0.610000   40.115452   -44.664786
 0.615000   39.878079   -50.318155
 0.620000   39.612271   -55.883354
 0.625000   39.319246   -61.258662
 0.630000   38.999684   -66.424028
 0.635000   38.655006   -71.260365
 0.640000   38.287080   -75.692058
 0.645000   37.898085   -79.669820
 0.650000   37.490382   -82.981903
 0.655000   37.068266   -85.803851
 0.660000   36.632344   -88.451733
 0.665000   36.183749   -90.901091
 0.670000   35.723333   -93.243352
 0.675000   35.251315   -95.602383
 0.680000   34.767309   -98.140468
 0.685000   34.269910   -101.032458
 0.690000   33.756984   -104.121793
 0.695000   33.228693   -107.015117
 0.700000   32.686833   -109.415016
 0.705000   32.134542   -111.083881
 0.710000   31.575994   -111.834714
 0.715000   31.016195   -111.674374
 0.720000   30.459251   -110.847321
 0.725000   29.907722   -109.524268
 0.730000   29.364008   -107.744539
 0.735000   28.830277   -105.550497
 0.740000   28.308503   -102.957167
 0.745000   27.800705   -100.032657
 0.750000   27.308176   -96.873689
 0.755000   26.831968   -93.511041
 0.760000   26.373066   -90.008250
 0.765000   25.931886   -86.481245
 0.770000   25.508253   -83.138086
 0.775000   25.100505   -80.159293
 0.780000   24.706661   -77.233762
 0.785000   24.328167   -73.987422
 0.790000   23.966786   -70.338052
 0.795000   23.624787   -66.226566
 0.800000   23.304521   -61.729614
 0.805000   23.007490   -56.955003
 0.810000   22.734971   -51.920172
 0.815000   22.488289   -46.878688
 0.820000   22.266184   -42.212549
 0.825000   22.066163   -38.165880
 0.830000   21.884525   -34.996989
 0.835000   21.716193   -32.979782
 0.840000   21.554727   -32.283972
 0.845000   21.393354   -33.117581
 0.850000   21.223551   -35.766681
 0.855000   21.035687   -40.444003
 0.860000   20.819111   -47.383452
 0.865000   20.561852   -57.009711
 0.870000   20.249014   -69.483859
 0.875000   19.867014   -84.810536
 0.880000   19.400909   -103.123119
 0.885000   18.835782   -124.315488
 0.890000   18.157754   -148.053622
 0.895000   17.355246   -174.245276
 0.900000   16.415301   -200.945473
 0.905000   15.345792   -225.787372
 0.910000   14.157427   -247.538545
 0.915000   12.870406   -264.282649
 0.920000   11.514601   -274.171410
 0.925000   10.128692   -275.915569
 0.930000   8.755445   -268.048575
 0.935000   7.448206   -250.093698
 0.940000   6.254508   -223.232915
 0.945000   5.215877   -189.115115
 0.950000   4.363357   -150.229259
 0.955000   3.713584   -109.536180
 0.960000   3.267995   -70.589272
 0.965000   3.007692   -36.629291
 0.970000   2.901702   -9.574831
 0.975000   2.911943   9.607486
 0.980000   2.997777   20.832861
 0.985000   3.120272   24.687418
 0.990000   3.244651   22.426831
 0.995000   3.344540   15.614785
 1.000000   3.400799   6.888779
201 psinorm omegp(kRad/s) domegp/dpsiN
 0.000000   0.000644   102.479403
 0.005000   0.412239   62.158808
 0.010000   0.622232   40.154412
 0.015000   0.813784   37.806019
 0.020000   1.000292   36.963071
 0.025000   1.183414   36.011601
 0.030000   1.360408   34.486397
 0.035000   1.528278   32.871143
 0.040000   1.689120   31.360098
 0.045000   1.841879   29.861128
 0.050000   1.987731   28.584476
 0.055000   2.127724   27.628998
 0.060000   2.264021   27.004177
 0.065000   2.397766   26.572629
 0.070000   2.529747   26.159514
 0.075000   2.659361   25.703919
 0.080000   2.786786   25.113939
 0.085000   2.910500   24.263733
 0.090000   3.029424   23.237381
 0.095000   3.142874   21.999076
 0.100000   3.249414   20.666136
 0.105000   3.349535   19.286083
 0.110000   3.442275   17.833287
 0.115000   3.527868   16.394177
 0.120000   3.606217   15.040178
 0.125000   3.678270   13.942817
 0.130000   3.745645   13.050265
 0.135000   3.808773   12.299402
 0.140000   3.868639   11.764629
 0.145000   3.926419   11.347175
 0.150000   3.982111   10.967524
 0.155000   4.036094   10.452293
 0.160000   4.086634   9.863033
 0.165000   4.134725   9.174635
 0.170000   4.178380   8.377750
 0.175000   4.218502   7.503607
 0.180000   4.253416   6.487756
 0.185000   4.283380   5.519715
 0.190000   4.308613   4.504219
 0.195000   4.328422   3.563621
 0.200000   4.344250   2.658498
 0.205000   4.355007   1.711900
 0.210000   4.361369   0.924573
 0.215000   4.364253   0.181205
 0.220000   4.363181   -0.404574
 0.225000   4.360207   -0.960707
 0.230000   4.353574   -1.587025
 0.235000   4.344337   -2.101620
 0.240000   4.332557   -2.688323
 0.245000   4.317453   -3.254464
 0.250000   4.300013   -3.771160
 0.255000   4.279742   -4.374147
 0.260000   4.256271   -4.881677
 0.265000   4.230925   -5.373621
 0.270000   4.202535   -5.946596
 0.275000   4.171459   -6.431975
 0.280000   4.138215   -6.966511
 0.285000   4.101794   -7.562844
 0.290000   4.062587   -8.161919
 0.295000   4.020175   -8.932848
 0.300000   3.973258   -9.826600
 0.305000   3.921909   -10.782939
 0.310000   3.865429   -11.923531
 0.315000   3.802673   -13.175379
 0.320000   3.733675   -14.484330
 0.325000   3.657830   -15.879732
 0.330000   3.574878   -17.225289
 0.335000   3.485577   -18.448130
 0.340000   3.390397   -19.579693
 0.345000   3.289780   -20.541271
 0.350000   3.184984   -21.183339
 0.355000   3.077947   -21.583107
 0.360000   2.969153   -21.840295
 0.365000   2.859544   -21.939685
 0.370000   2.749756   -21.994382
 0.375000   2.639600   -22.037741
 0.380000   2.529379   -22.070186
 0.385000   2.418898   -22.292879
 0.390000   2.306450   -22.778794
 0.395000   2.191110   -23.344237
 0.400000   2.073007   -23.979597
 0.405000   1.951314   -24.634070
 0.410000   1.826667   -25.203924
 0.415000   1.699275   -25.727575
 0.420000   1.569391   -26.357465
 0.425000   1.435700   -27.342927
 0.430000   1.295962   -28.903272
 0.435000   1.146668   -31.406361
 0.440000   0.981898   -35.369835
 0.445000   0.792969   -40.352922
 0.450000   0.578369   -45.815786
 0.455000   0.334812   -51.852382
 0.460000   0.059845   -58.248305
 0.465000   -0.247672   -64.879224
 0.470000   -0.588947   -71.322539
 0.475000   -0.960897   -76.488713
 0.480000   -1.353834   -79.934304
 0.485000   -1.760240   -81.701249
 0.490000   -2.170847   -81.621491
 0.495000   -2.576455   -79.341784
 0.500000   -2.964265   -74.649077
 0.505000   -3.322946   -68.553142
 0.510000   -3.649796   -61.940556
 0.515000   -3.942351   -54.987138
 0.520000   -4.199667   -48.056559
 0.525000   -4.422917   -41.311242
 0.530000   -4.612780   -35.781088
 0.535000   -4.780728   -32.522190
 0.540000   -4.938002   -31.190732
 0.545000   -5.092635   -31.369509
 0.550000   -5.251697   -32.583757
 0.555000   -5.418473   -34.606808
 0.560000   -5.597765   -36.915848
 0.565000   -5.787631   -38.785936
 0.570000   -5.985624   -40.083078
 0.575000   -6.188462   -40.701541
 0.580000   -6.392640   -40.628219
 0.585000   -6.594744   -39.761574
 0.590000   -6.790255   -37.802828
 0.595000   -6.972772   -34.861870
 0.600000   -7.138874   -31.389913
 0.605000   -7.286671   -27.531369
 0.610000   -7.414188   -23.423704
 0.615000   -7.520908   -19.243046
 0.620000   -7.606618   -15.352762
 0.625000   -7.674436   -11.989594
 0.630000   -7.726514   -9.095847
 0.635000   -7.765395   -6.729153
 0.640000   -7.793806   -4.791358
 0.645000   -7.813308   -3.208404
 0.650000   -7.825890   -2.013600
 0.655000   -7.833444   -1.062820
 0.660000   -7.836518   -0.159214
 0.665000   -7.835036   0.730236
 0.670000   -7.829216   1.529799
 0.675000   -7.819738   2.313678
 0.680000   -7.806079   3.148381
 0.685000   -7.788254   3.981897
 0.690000   -7.766260   4.882285
 0.695000   -7.739432   6.030270
 0.700000   -7.705957   7.598319
 0.705000   -7.663448   9.702022
 0.710000   -7.608937   12.333865
 0.715000   -7.540110   15.473116
 0.720000   -7.454206   19.029278
 0.725000   -7.349817   22.761051
 0.730000   -7.226595   26.541188
 0.735000   -7.084405   29.893304
 0.740000   -6.927662   32.253993
 0.745000   -6.761865   33.483423
 0.750000   -6.592828   33.594448
 0.755000   -6.425921   32.617502
 0.760000   -6.266653   30.409777
 0.765000   -6.121823   27.402873
 0.770000   -5.992624   24.364292
 0.775000   -5.878180   21.603049
 0.780000   -5.776594   19.282576
 0.785000   -5.685354   17.561821
 0.790000   -5.600976   16.617571
 0.795000   -5.519179   16.265111
 0.800000   -5.438324   15.985233
 0.805000   -5.359326   15.370906
 0.810000   -5.284615   14.130446
 0.815000   -5.218022   12.075035
 0.820000   -5.163865   9.172755
 0.825000   -5.126294   5.558577
 0.830000   -5.108279   1.626492
 0.835000   -5.110029   -2.174459
 0.840000   -5.130024   -5.479519
 0.845000   -5.164824   -8.017844
 0.850000   -5.210202   -9.683223
 0.855000   -5.261657   -10.648939
 0.860000   -5.316692   -11.112987
 0.865000   -5.372787   -11.146163
 0.870000   -5.428153   -10.915803
 0.875000   -5.481945   -10.540929
 0.880000   -5.533563   -10.095020
 0.885000   -5.582895   -9.605849
 0.890000   -5.629621   -8.989737
 0.895000   -5.672792   -8.147688
 0.900000   -5.711098   -7.028669
 0.905000   -5.743079   -5.607875
 0.910000   -5.767177   -3.664240
 0.915000   -5.779721   -1.527060
 0.920000   -5.782447   0.373690
 0.925000   -5.775984   2.179367
 0.930000   -5.760654   5.089424
 0.935000   -5.725090   8.066157
 0.940000   -5.679992   10.373264
 0.945000   -5.621357   13.855983
 0.950000   -5.541432   19.528016
 0.955000   -5.426077   28.308193
 0.960000   -5.258350   42.188610
 0.965000   -5.004191   66.444588
 0.970000   -4.593904   107.028306
 0.975000   -3.933908   172.124748
 0.980000   -2.872657   269.358476
 0.985000   -1.240323   393.871749
 0.990000   1.066061   515.461069
 0.995000   3.914287   569.281420
 1.000000   6.758875   568.553548
201 psinorm omgvb(kRad/s) domgvb/dpsiN
 0.000000   57.627047   102.516179
 0.005000   58.038229   61.956276
 0.010000   58.246610   39.649131
 0.015000   58.434720   36.853693
 0.020000   58.615147   35.387853
 0.025000   58.788598   33.611835
 0.030000   58.951266   31.041619
 0.035000   59.099015   28.152701
 0.040000   59.232793   25.157676
 0.045000   59.350591   21.991148
 0.050000   59.452704   18.889043
 0.055000   59.539482   15.991600
 0.060000   59.612620   13.356173
 0.065000   59.673044   10.896231
 0.070000   59.721582   8.549202
 0.075000   59.758536   6.261823
 0.080000   59.784201   3.871744
 0.085000   59.797253   1.266804
 0.090000   59.796869   -1.474058
 0.095000   59.782512   -4.407189
 0.100000   59.752797   -7.383278
 0.105000   59.708680   -10.363711
 0.110000   59.649160   -13.400945
 0.115000   59.574670   -16.366449
 0.120000   59.485495   -19.179143
 0.125000   59.382879   -21.690893
 0.130000   59.268586   -23.962210
 0.135000   59.143257   -26.084582
 0.140000   59.007740   -27.998526
 0.145000   58.863271   -29.763231
 0.150000   58.710108   -31.441389
 0.155000   58.548858   -33.214696
 0.160000   58.377961   -35.018292
 0.165000   58.198675   -36.877255
 0.170000   58.009188   -38.809915
 0.175000   57.810575   -40.770124
 0.180000   57.601487   -42.808342
 0.185000   57.382492   -44.739216
 0.190000   57.154095   -46.657690
 0.195000   56.915915   -48.450554
 0.200000   56.669590   -50.170468
 0.205000   56.414210   -51.866058
 0.210000   56.150929   -53.295705
 0.215000   55.881253   -54.554749
 0.220000   55.605381   -55.505610
 0.225000   55.326197   -56.247742
 0.230000   55.042904   -56.927989
 0.235000   54.756917   -57.402711
 0.240000   54.468877   -57.839437
 0.245000   54.178523   -58.156127
 0.250000   53.887316   -58.324052
 0.255000   53.595283   -58.447212
 0.260000   53.302844   -58.395960
 0.265000   53.011323   -58.296286
 0.270000   52.719881   -58.221985
 0.275000   52.429103   -58.023406
 0.280000   52.139647   -57.852263
 0.285000   51.850580   -57.727118
 0.290000   51.562375   -57.639973
 0.295000   51.274181   -57.775121
 0.300000   50.984624   -58.037094
 0.305000   50.693810   -58.341741
 0.310000   50.401207   -58.782160
 0.315000   50.105988   -59.251380
 0.320000   49.808693   -59.685779
 0.325000   49.509130   -60.131560
 0.330000   49.207377   -60.464415
 0.335000   48.904486   -60.619949
 0.340000   48.601178   -60.637429
 0.345000   48.298112   -60.430625
 0.350000   47.996872   -59.871218
 0.355000   47.699400   -59.062582
 0.360000   47.406246   -58.099117
 0.365000   47.118409   -56.969503
 0.370000   46.836551   -55.792398
 0.375000   46.560485   -54.600528
 0.380000   46.290546   -53.402446
 0.385000   46.026460   -52.400746
 0.390000   45.766538   -51.655692
 0.395000   45.509903   -50.982035
 0.400000   45.256718   -50.373845
 0.405000   45.006165   -49.778188
 0.410000   44.758936   -49.101911
 0.415000   44.515146   -48.404315
 0.420000   44.274893   -47.847873
 0.425000   44.036667   -47.693756
 0.430000   43.797955   -48.174433
 0.435000   43.554923   -49.675854
 0.440000   43.301197   -52.720486
 0.445000   43.027718   -56.835396
 0.450000   42.732843   -61.454984
 0.455000   42.413168   -66.667638
 0.460000   42.066166   -72.251471
 0.465000   41.690653   -78.088156
 0.470000   41.285285   -83.750272
 0.475000   40.853150   -88.119830
 0.480000   40.404086   -90.754948
 0.485000   39.945601   -91.717006
 0.490000   39.486916   -90.845678
 0.495000   39.037144   -87.799652
 0.500000   38.608920   -82.373888
 0.505000   38.213405   -75.582909
 0.510000   37.853091   -68.335581
 0.515000   37.530050   -60.835402
 0.520000   37.244737   -53.462846
 0.525000   36.995421   -46.396750
 0.530000   36.780769   -40.688213
 0.535000   36.588539   -37.391590
 0.540000   36.406853   -36.169491
 0.545000   36.226844   -36.641567
 0.550000   36.040438   -38.371385
 0.555000   35.843130   -41.184610
 0.560000   35.628592   -44.641227
 0.565000   35.396718   -48.045572
 0.570000   35.148136   -51.293584
 0.575000   34.883782   -54.355827
 0.580000   34.604578   -57.259261
 0.585000   34.311189   -59.926748
 0.590000   34.005310   -62.083725
 0.595000   33.690352   -63.737601
 0.600000   33.367934   -65.229637
 0.605000   33.038056   -66.666982
 0.610000   32.701264   -68.088490
 0.615000   32.357171   -69.561201
 0.620000   32.005652   -71.236116
 0.625000   31.644810   -73.248257
 0.630000   31.273170   -75.519875
 0.635000   30.889611   -77.989519
 0.640000   30.493275   -80.483415
 0.645000   30.084777   -82.878223
 0.650000   29.664492   -84.995503
 0.655000   29.234822   -86.866671
 0.660000   28.795826   -88.610948
 0.665000   28.348712   -90.170855
 0.670000   27.894117   -91.713552
 0.675000   27.431577   -93.288705
 0.680000   26.961230   -94.992087
 0.685000   26.481656   -97.050562
 0.690000   25.990724   -99.239508
 0.695000   25.489261   -100.984847
 0.700000   24.980876   -101.816697
 0.705000   24.471094   -101.381858
 0.710000   23.967057   -99.500849
 0.715000   23.476085   -96.201259
 0.720000   23.005045   -91.818042
 0.725000   22.557905   -86.763217
 0.730000   22.137413   -81.203351
 0.735000   21.745872   -75.657193
 0.740000   21.380841   -70.703174
 0.745000   21.038840   -66.549234
 0.750000   20.715348   -63.279241
 0.755000   20.406047   -60.893540
 0.760000   20.106413   -59.598473
 0.765000   19.810063   -59.078373
 0.770000   19.515629   -58.773794
 0.775000   19.222325   -58.556244
 0.780000   18.930067   -57.951186
 0.785000   18.642813   -56.425601
 0.790000   18.365811   -53.720481
 0.795000   18.105608   -49.961454
 0.800000   17.866196   -45.744381
 0.805000   17.648164   -41.584097
 0.810000   17.450355   -37.789726
 0.815000   17.270267   -34.803653
 0.820000   17.102319   -33.039794
 0.825000   16.939869   -32.607302
 0.830000   16.776246   -33.370497
 0.835000   16.606164   -35.154241
 0.840000   16.424703   -37.763491
 0.845000   16.228529   -41.135425
 0.850000   16.013349   -45.449904
 0.855000   15.774030   -51.092943
 0.860000   15.502420   -58.496439
 0.865000   15.189066   -68.155874
 0.870000   14.820861   -80.399663
 0.875000   14.385069   -95.351466
 0.880000   13.867346   -113.218138
 0.885000   13.252888   -133.921337
 0.890000   12.528133   -157.043359
 0.895000   11.682454   -182.392964
 0.900000   10.704203   -207.974142
 0.905000   9.602713   -231.395246
 0.910000   8.390251   -251.202786
 0.915000   7.090685   -265.809710
 0.920000   5.732154   -273.797720
 0.925000   4.352708   -273.736201
 0.930000   2.994792   -262.959150
 0.935000   1.723116   -242.027541
 0.940000   0.574516   -212.859651
 0.945000   -0.405480   -175.259133
 0.950000   -1.178075   -130.701243
 0.955000   -1.712493   -81.227987
 0.960000   -1.990355   -28.400662
 0.965000   -1.996499   29.815298
 0.970000   -1.692202   97.453475
 0.975000   -1.021965   181.732234
 0.980000   0.125120   290.191336
 0.985000   1.879949   418.559167
 0.990000   4.310712   537.887900
 0.995000   7.258828   584.896205
 1.000000   10.159674   575.442327
201 psinorm omgpp(kRad/s) domgpp/dpsiN
 0.000000   -0.075142   -37.351896
 0.005000   -0.304162   -54.255988
 0.010000   -0.617702   -63.622827
 0.015000   -0.940390   -65.336726
 0.020000   -1.271069   -66.775029
 0.025000   -1.608140   -67.865535
 0.030000   -1.949724   -68.621094
 0.035000   -2.294351   -69.029481
 0.040000   -2.640019   -69.040045
 0.045000   -2.984751   -68.649148
 0.050000   -3.326511   -67.769594
 0.055000   -3.662447   -66.381712
 0.060000   -3.990328   -64.864158
 0.065000   -4.311089   -63.168834
 0.070000   -4.622016   -61.077733
 0.075000   -4.921866   -58.756970
 0.080000   -5.209586   -56.140141
 0.085000   -5.483268   -53.092120
 0.090000   -5.740507   -50.249348
 0.095000   -5.985761   -47.563083
 0.100000   -6.216138   -44.609814
 0.105000   -6.431859   -41.719162
 0.110000   -6.633329   -38.873145
 0.115000   -6.820591   -35.935472
 0.120000   -6.992684   -33.350815
 0.125000   -7.154099   -31.006455
 0.130000   -7.302749   -28.456673
 0.135000   -7.438666   -25.879190
 0.140000   -7.561541   -23.200108
 0.145000   -7.670667   -20.365808
 0.150000   -7.765199   -17.342385
 0.155000   -7.844091   -14.192774
 0.160000   -7.907126   -10.983510
 0.165000   -7.953926   -7.703792
 0.170000   -7.984164   -4.365897
 0.175000   -7.997585   -0.741535
 0.180000   -7.991580   2.698283
 0.185000   -7.970602   5.737327
 0.190000   -7.934206   8.760620
 0.195000   -7.882996   11.627595
 0.200000   -7.817930   14.281892
 0.205000   -7.740177   16.912922
 0.210000   -7.648801   18.811391
 0.215000   -7.552063   19.956542
 0.220000   -7.449236   21.084886
 0.225000   -7.341214   22.002824
 0.230000   -7.229208   22.711613
 0.235000   -7.114098   22.998384
 0.240000   -6.999224   23.245153
 0.245000   -6.881646   24.011475
 0.250000   -6.759109   25.069235
 0.255000   -6.630954   26.304921
 0.260000   -6.496060   27.734166
 0.265000   -6.353612   29.053387
 0.270000   -6.205526   30.523708
 0.275000   -6.048375   32.251862
 0.280000   -5.883007   33.699915
 0.285000   -5.711376   34.885770
 0.290000   -5.534150   35.932268
 0.295000   -5.352053   36.909287
 0.300000   -5.165057   38.012195
 0.305000   -4.971931   39.081180
 0.310000   -4.774245   39.889981
 0.315000   -4.573032   40.377610
 0.320000   -4.370469   40.365963
 0.325000   -4.169372   39.802063
 0.330000   -3.972448   38.214054
 0.335000   -3.787231   35.736122
 0.340000   -3.615087   33.415907
 0.345000   -3.453072   31.450426
 0.350000   -3.300583   29.627232
 0.355000   -3.156800   27.778829
 0.360000   -3.022794   25.791630
 0.365000   -2.898884   24.653165
 0.370000   -2.776263   24.124794
 0.375000   -2.657636   23.440764
 0.380000   -2.541855   22.996736
 0.385000   -2.427668   22.721583
 0.390000   -2.314639   22.671928
 0.395000   -2.200949   23.333401
 0.400000   -2.081305   23.940008
 0.405000   -1.961549   23.863458
 0.410000   -1.842671   23.583414
 0.415000   -1.725715   23.131881
 0.420000   -1.611352   22.792884
 0.425000   -1.497786   21.826889
 0.430000   -1.393083   20.178474
 0.435000   -1.296001   18.620526
 0.440000   -1.206878   17.020495
 0.445000   -1.125796   15.429398
 0.450000   -1.052584   14.324142
 0.455000   -0.982555   12.732089
 0.460000   -0.925263   10.636088
 0.465000   -0.876194   8.992772
 0.470000   -0.835335   7.351746
 0.475000   -0.802677   5.709685
 0.480000   -0.778238   4.232735
 0.485000   -0.760349   2.367653
 0.490000   -0.754562   0.236610
 0.495000   -0.757983   -1.511799
 0.500000   -0.769680   -3.064648
 0.505000   -0.788630   -4.388065
 0.510000   -0.813560   -5.470375
 0.515000   -0.843333   -6.409936
 0.520000   -0.877660   -7.327375
 0.525000   -0.916607   -8.219028
 0.530000   -0.959850   -9.039940
 0.535000   -1.007007   -9.782403
 0.540000   -1.057674   -10.468940
 0.545000   -1.111696   -11.059094
 0.550000   -1.168265   -11.534221
 0.555000   -1.227038   -11.951963
 0.560000   -1.287785   -12.315246
 0.565000   -1.350191   -12.618204
 0.570000   -1.413967   -12.879979
 0.575000   -1.478990   -13.083726
 0.580000   -1.544804   -13.206844
 0.585000   -1.611059   -13.268103
 0.590000   -1.677485   -13.265540
 0.595000   -1.743714   -13.193574
 0.600000   -1.809421   -13.091195
 0.605000   -1.874626   -13.053579
 0.610000   -1.939956   -13.064428
 0.615000   -2.005271   -13.059620
 0.620000   -2.070553   -13.051275
 0.625000   -2.135783   -13.040972
 0.630000   -2.200962   -13.155230
 0.635000   -2.267336   -13.374483
 0.640000   -2.334707   -13.207726
 0.645000   -2.399413   -12.772576
 0.650000   -2.462433   -12.371316
 0.655000   -2.523126   -11.843320
 0.660000   -2.580866   -11.311317
 0.665000   -2.636239   -10.825001
 0.670000   -2.689116   -9.856885
 0.675000   -2.734808   -8.802964
 0.680000   -2.777146   -8.300364
 0.685000   -2.817812   -8.125096
 0.690000   -2.858397   -8.383654
 0.695000   -2.901648   -9.263852
 0.700000   -2.951035   -8.968045
 0.705000   -2.991329   -7.628587
 0.710000   -3.027321   -6.680122
 0.715000   -3.058130   -5.536616
 0.720000   -3.082687   -4.227922
 0.725000   -3.100409   -3.043121
 0.730000   -3.113119   -0.697428
 0.735000   -3.107383   2.329128
 0.740000   -3.089827   4.748347
 0.745000   -3.059900   7.249469
 0.750000   -3.017333   9.763492
 0.755000   -2.962265   12.592970
 0.760000   -2.891403   15.082409
 0.765000   -2.811441   16.712960
 0.770000   -2.724273   17.930200
 0.775000   -2.632139   18.689007
 0.780000   -2.537383   18.976643
 0.785000   -2.442372   19.294794
 0.790000   -2.344435   18.686476
 0.795000   -2.255508   17.164770
 0.800000   -2.172788   15.889885
 0.805000   -2.096609   14.486837
 0.810000   -2.027919   12.900575
 0.815000   -1.967603   10.986986
 0.820000   -1.918049   8.856627
 0.825000   -1.879037   7.187451
 0.830000   -1.846175   6.030368
 0.835000   -1.818733   4.954223
 0.840000   -1.796633   3.849827
 0.845000   -1.780235   2.547535
 0.850000   -1.771157   0.915430
 0.855000   -1.771081   -1.252949
 0.860000   -1.783687   -4.049668
 0.865000   -1.811577   -7.316877
 0.870000   -1.856856   -11.010298
 0.875000   -1.921680   -15.972544
 0.880000   -2.016581   -21.786023
 0.885000   -2.139540   -26.875488
 0.890000   -2.285336   -32.078495
 0.895000   -2.460325   -38.335124
 0.900000   -2.668687   -45.665104
 0.905000   -2.916976   -56.892917
 0.910000   -3.237616   -72.393973
 0.915000   -3.640916   -86.553686
 0.920000   -4.103153   -101.533417
 0.925000   -4.656250   -121.185207
 0.930000   -5.315005   -143.909927
 0.935000   -6.095350   -174.181023
 0.940000   -7.056815   -212.783166
 0.945000   -8.223181   -242.439782
 0.950000   -9.481213   -265.841500
 0.955000   -10.881596   -290.623724
 0.960000   -12.387450   -304.276538
 0.965000   -13.924362   -304.104314
 0.970000   -15.428494   -282.834808
 0.975000   -16.752710   -204.722264
 0.980000   -17.475716   -85.208503
 0.985000   -17.604795   37.977276
 0.990000   -17.095943   161.483314
 0.995000   -15.989962   266.588678
 1.000000   -14.430057   357.373296
201 psinorm omgeb(kRad/s) domgeb/dpsiN
 0.000000   57.551906   65.164283
 0.005000   57.734067   7.700288
 0.010000   57.628909   -23.973697
 0.015000   57.494330   -28.483033
 0.020000   57.344078   -31.387176
 0.025000   57.180458   -34.253700
 0.030000   57.001541   -37.579475
 0.035000   56.804664   -40.876780
 0.040000   56.592773   -43.882369
 0.045000   56.365840   -46.657999
 0.050000   56.126193   -48.880551
 0.055000   55.877034   -50.390112
 0.060000   55.622292   -51.507984
 0.065000   55.361955   -52.272603
 0.070000   55.099566   -52.528531
 0.075000   54.836669   -52.495147
 0.080000   54.574615   -52.268397
 0.085000   54.313985   -51.825316
 0.090000   54.056362   -51.723407
 0.095000   53.796751   -51.970272
 0.100000   53.536659   -51.993092
 0.105000   53.276820   -52.082873
 0.110000   53.015830   -52.274091
 0.115000   52.754079   -52.301921
 0.120000   52.492811   -52.529957
 0.125000   52.228780   -52.697348
 0.130000   51.965837   -52.418883
 0.135000   51.704591   -51.963772
 0.140000   51.446200   -51.198634
 0.145000   51.192605   -50.129040
 0.150000   50.944909   -48.783774
 0.155000   50.704767   -47.407470
 0.160000   50.470835   -46.001803
 0.165000   50.244749   -44.581047
 0.170000   50.025024   -43.175812
 0.175000   49.812991   -41.511659
 0.180000   49.609908   -40.110059
 0.185000   49.411890   -39.001890
 0.190000   49.219889   -37.897070
 0.195000   49.032919   -36.822958
 0.200000   48.851659   -35.888576
 0.205000   48.674034   -34.953137
 0.210000   48.502128   -34.484314
 0.215000   48.329191   -34.598207
 0.220000   48.156146   -34.420724
 0.225000   47.984983   -34.244918
 0.230000   47.813697   -34.216376
 0.235000   47.642820   -34.404327
 0.240000   47.469653   -34.594285
 0.245000   47.296877   -34.144652
 0.250000   47.128207   -33.254817
 0.255000   46.964329   -32.142291
 0.260000   46.806784   -30.661794
 0.265000   46.657711   -29.242898
 0.270000   46.514355   -27.698277
 0.275000   46.380728   -25.771544
 0.280000   46.256639   -24.152348
 0.285000   46.139204   -22.841348
 0.290000   46.028226   -21.707705
 0.295000   45.922127   -20.865834
 0.300000   45.819568   -20.024899
 0.305000   45.721878   -19.260561
 0.310000   45.626962   -18.892179
 0.315000   45.532957   -18.873769
 0.320000   45.438224   -19.319817
 0.325000   45.339758   -20.329497
 0.330000   45.234929   -22.250361
 0.335000   45.117255   -24.883828
 0.340000   44.986091   -27.221522
 0.345000   44.845040   -28.980199
 0.350000   44.696289   -30.243986
 0.355000   44.542600   -31.283753
 0.360000   44.383451   -32.307488
 0.365000   44.219525   -32.316339
 0.370000   44.060288   -31.667604
 0.375000   43.902849   -31.159764
 0.380000   43.748690   -30.405710
 0.385000   43.598792   -29.679163
 0.390000   43.451899   -28.983764
 0.395000   43.308954   -27.648634
 0.400000   43.175413   -26.433836
 0.405000   43.044616   -25.914730
 0.410000   42.916265   -25.518497
 0.415000   42.789431   -25.272434
 0.420000   42.663541   -25.054989
 0.425000   42.538881   -25.866867
 0.430000   42.404872   -27.995959
 0.435000   42.258921   -31.055329
 0.440000   42.094319   -35.699991
 0.445000   41.901921   -41.405998
 0.450000   41.680259   -47.130842
 0.455000   41.430613   -53.935549
 0.460000   41.140903   -61.615383
 0.465000   40.814459   -69.095385
 0.470000   40.449950   -76.398526
 0.475000   40.050474   -82.410145
 0.480000   39.625848   -86.522213
 0.485000   39.185252   -89.349353
 0.490000   38.732355   -90.609068
 0.495000   38.279161   -89.311451
 0.500000   37.839240   -85.438535
 0.505000   37.424776   -79.970974
 0.510000   37.039530   -73.805956
 0.515000   36.686716   -67.245338
 0.520000   36.367077   -60.790220
 0.525000   36.078814   -54.615778
 0.530000   35.820919   -49.728153
 0.535000   35.581532   -47.173993
 0.540000   35.349179   -46.638431
 0.545000   35.115148   -47.700661
 0.550000   34.872173   -49.905605
 0.555000   34.616092   -53.136573
 0.560000   34.340807   -56.956473
 0.565000   34.046527   -60.663776
 0.570000   33.734169   -64.173564
 0.575000   33.404792   -67.439553
 0.580000   33.059774   -70.466105
 0.585000   32.700131   -73.194850
 0.590000   32.327825   -75.349265
 0.595000   31.946638   -76.931174
 0.600000   31.558513   -78.320832
 0.605000   31.163430   -79.720561
 0.610000   30.761308   -81.152919
 0.615000   30.351900   -82.620820
 0.620000   29.935100   -84.287392
 0.625000   29.509026   -86.289229
 0.630000   29.072207   -88.675105
 0.635000   28.622275   -91.364002
 0.640000   28.158567   -93.691141
 0.645000   27.685364   -95.650800
 0.650000   27.202059   -97.366819
 0.655000   26.711696   -98.709991
 0.660000   26.214959   -99.922265
 0.665000   25.712473   -100.995857
 0.670000   25.205001   -101.570437
 0.675000   24.696769   -102.091669
 0.680000   24.184084   -103.292451
 0.685000   23.663844   -105.175658
 0.690000   23.132328   -107.623162
 0.695000   22.587613   -110.248699
 0.700000   22.029841   -110.784743
 0.705000   21.479765   -109.010445
 0.710000   20.939736   -106.180970
 0.715000   20.417956   -101.737874
 0.720000   19.922357   -96.045964
 0.725000   19.457496   -89.806338
 0.730000   19.024294   -81.900778
 0.735000   18.638488   -73.328065
 0.740000   18.291013   -65.954826
 0.745000   17.978940   -59.299764
 0.750000   17.698016   -53.515749
 0.755000   17.443782   -48.300569
 0.760000   17.215010   -44.516064
 0.765000   16.998622   -42.365413
 0.770000   16.791356   -40.843593
 0.775000   16.590186   -39.867237
 0.780000   16.392683   -38.974543
 0.785000   16.200440   -37.130807
 0.790000   16.021375   -35.034006
 0.795000   15.850100   -32.796684
 0.800000   15.693409   -29.854496
 0.805000   15.551555   -27.097261
 0.810000   15.422436   -24.889152
 0.815000   15.302664   -23.816668
 0.820000   15.184269   -24.183167
 0.825000   15.060832   -25.419852
 0.830000   14.930071   -27.340130
 0.835000   14.787431   -30.200018
 0.840000   14.628071   -33.913664
 0.845000   14.448294   -38.587890
 0.850000   14.242192   -44.534474
 0.855000   14.002949   -52.345892
 0.860000   13.718733   -62.546106
 0.865000   13.377488   -75.472751
 0.870000   12.964005   -91.409960
 0.875000   12.463389   -111.324009
 0.880000   11.850765   -135.004161
 0.885000   11.113347   -160.796824
 0.890000   10.242797   -189.121854
 0.895000   9.222129   -220.728087
 0.900000   8.035516   -253.639245
 0.905000   6.685736   -288.288163
 0.910000   5.152634   -323.596759
 0.915000   3.449769   -352.363395
 0.920000   1.629000   -375.331137
 0.925000   -0.303543   -394.921408
 0.930000   -2.320214   -406.869077
 0.935000   -4.372234   -416.208564
 0.940000   -6.482299   -425.642817
 0.945000   -8.628662   -417.698914
 0.950000   -10.659288   -396.542743
 0.955000   -12.594089   -371.851711
 0.960000   -14.377806   -332.677200
 0.965000   -15.920861   -274.289017
 0.970000   -17.120696   -185.381333
 0.975000   -17.774674   -22.990030
 0.980000   -17.350596   204.982833
 0.985000   -15.724846   456.536443
 0.990000   -12.785232   699.371213
 0.995000   -8.731134   851.484884
 1.000000   -4.270383   932.815624
201 psinorm er(kV/m) der/dpsiN
 0.000000   0.655545   1196.238898
 0.005000   5.410124   705.592608
 0.010000   7.711471   406.128867
 0.015000   9.471413   323.248909
 0.020000   10.943960   276.978839
 0.025000   12.241201   245.505114
 0.030000   13.399011   220.483339
 0.035000   14.446034   200.498632
 0.040000   15.403998   184.317673
 0.045000   16.289211   170.480738
 0.050000   17.108805   158.010629
 0.055000   17.869317   149.241952
 0.060000   18.601225   141.214974
 0.065000   19.281467   129.938066
 0.070000   19.900605   122.978156
 0.075000   20.511249   119.792214
 0.080000   21.098528   109.480122
 0.085000   21.606050   105.212486
 0.090000   22.150652   102.447081
 0.095000   22.630521   94.265619
 0.100000   23.093309   92.511944
 0.105000   23.555640   85.191357
 0.110000   23.945222   83.406392
 0.115000   24.389704   77.501950
 0.120000   24.720242   75.077166
 0.125000   25.140476   70.597598
 0.130000   25.426218   67.591007
 0.135000   25.816386   64.974784
 0.140000   26.075965   61.338721
 0.145000   26.429773   60.554146
 0.150000   26.681507   56.338210
 0.155000   26.993155   57.186913
 0.160000   27.253376   52.197742
 0.165000   27.515133   53.926062
 0.170000   27.792637   48.690298
 0.175000   28.002036   51.062244
 0.180000   28.303259   46.150020
 0.185000   28.463536   43.827989
 0.190000   28.741539   48.474893
 0.195000   28.948285   41.211392
 0.200000   29.153653   45.467040
 0.205000   29.402955   38.853101
 0.210000   29.542184   37.842740
 0.215000   29.781382   41.161095
 0.220000   29.953795   33.731862
 0.225000   30.118701   37.917497
 0.230000   30.332970   31.716428
 0.235000   30.435865   28.807599
 0.240000   30.621046   34.659314
 0.245000   30.782459   26.575122
 0.250000   30.886797   27.816947
 0.255000   31.060628   29.885845
 0.260000   31.185656   24.753906
 0.265000   31.308167   28.817967
 0.270000   31.473835   26.930974
 0.275000   31.577477   24.455245
 0.280000   31.718388   30.403113
 0.285000   31.881508   25.607718
 0.290000   31.974465   24.129787
 0.295000   32.122806   30.188676
 0.300000   32.276352   24.099380
 0.305000   32.363800   23.225434
 0.310000   32.508606   28.435024
 0.315000   32.648150   22.377060
 0.320000   32.732377   20.993664
 0.325000   32.858086   24.157574
 0.330000   32.973952   17.579123
 0.335000   33.033878   14.591020
 0.340000   33.119862   16.191808
 0.345000   33.195796   10.319730
 0.350000   33.223060   8.133511
 0.355000   33.277131   10.219629
 0.360000   33.325256   5.798929
 0.365000   33.335120   4.307102
 0.370000   33.368327   6.847008
 0.375000   33.403590   4.842406
 0.380000   33.416751   3.697518
 0.385000   33.440565   5.406431
 0.390000   33.470815   4.832852
 0.395000   33.488894   3.941110
 0.400000   33.510227   5.196698
 0.405000   33.540861   5.541495
 0.410000   33.565642   3.904586
 0.415000   33.579907   3.758262
 0.420000   33.603224   4.482076
 0.425000   33.624728   2.060640
 0.430000   33.623831   -0.391827
 0.435000   33.620809   -2.202957
 0.440000   33.601801   -7.157961
 0.445000   33.549230   -12.805004
 0.450000   33.473751   -17.318583
 0.455000   33.376044   -23.275687
 0.460000   33.240994   -30.784879
 0.465000   33.068195   -37.446913
 0.470000   32.866525   -43.433905
 0.475000   32.633856   -49.582977
 0.480000   32.370695   -53.836491
 0.485000   32.095491   -56.231557
 0.490000   31.808380   -58.162841
 0.495000   31.513863   -58.159511
 0.500000   31.226784   -55.332962
 0.505000   30.960533   -51.144264
 0.510000   30.715342   -47.116772
 0.515000   30.489365   -42.271186
 0.520000   30.292630   -36.822263
 0.525000   30.121143   -32.541698
 0.530000   29.967213   -29.183776
 0.535000   29.829305   -26.972983
 0.540000   29.697483   -26.817615
 0.545000   29.561129   -28.643573
 0.550000   29.411047   -30.829414
 0.555000   29.252835   -33.323951
 0.560000   29.077808   -37.509641
 0.565000   28.877738   -41.296346
 0.570000   28.664844   -44.022980
 0.575000   28.437508   -47.174585
 0.580000   28.193099   -50.759622
 0.585000   27.929912   -53.347230
 0.590000   27.659626   -54.897462
 0.595000   27.380938   -57.262128
 0.600000   27.087005   -59.124692
 0.605000   26.789691   -60.008237
 0.610000   26.486923   -61.515269
 0.615000   26.174538   -63.867863
 0.620000   25.848244   -65.548039
 0.625000   25.519058   -66.852085
 0.630000   25.179723   -69.812992
 0.635000   24.820928   -72.901130
 0.640000   24.450712   -74.659914
 0.645000   24.074329   -76.340244
 0.650000   23.687309   -79.071518
 0.655000   23.283613   -80.581126
 0.660000   22.881498   -81.016598
 0.665000   22.473447   -82.627002
 0.670000   22.055228   -84.051243
 0.675000   21.632935   -84.412599
 0.680000   21.211102   -85.123660
 0.685000   20.781698   -87.892745
 0.690000   20.332175   -90.563380
 0.695000   19.876065   -92.308127
 0.700000   19.409093   -93.014988
 0.705000   18.945915   -92.552880
 0.710000   18.483565   -90.179639
 0.715000   18.044118   -85.663182
 0.720000   17.626933   -81.348770
 0.725000   17.230631   -76.550248
 0.730000   16.861430   -69.245571
 0.735000   16.538175   -61.315064
 0.740000   16.248280   -55.755030
 0.745000   15.980625   -50.162814
 0.750000   15.746652   -44.344829
 0.755000   15.537176   -39.833401
 0.760000   15.348318   -37.292823
 0.765000   15.164248   -35.373418
 0.770000   14.994583   -33.431723
 0.775000   14.829931   -32.990915
 0.780000   14.664674   -32.700018
 0.785000   14.502931   -30.843346
 0.790000   14.356241   -28.680806
 0.795000   14.216123   -27.223208
 0.800000   14.084009   -24.840887
 0.805000   13.967714   -22.011983
 0.810000   13.863889   -19.977581
 0.815000   13.767938   -19.563421
 0.820000   13.668255   -19.984248
 0.825000   13.568095   -20.712242
 0.830000   13.461132   -22.620637
 0.835000   13.341889   -25.591779
 0.840000   13.205214   -28.928278
 0.845000   13.052606   -32.923967
 0.850000   12.875975   -38.575605
 0.855000   12.666850   -45.925096
 0.860000   12.416724   -55.060265
 0.865000   12.116248   -66.675842
 0.870000   11.749965   -81.532721
 0.875000   11.300920   -99.809396
 0.880000   10.751871   -121.124612
 0.885000   10.089674   -144.622804
 0.890000   9.305643   -170.906801
 0.895000   8.380606   -199.784824
 0.900000   7.307795   -229.516027
 0.905000   6.085446   -261.486675
 0.910000   4.692928   -294.090415
 0.915000   3.144542   -320.117752
 0.920000   1.491751   -341.007750
 0.925000   -0.265536   -361.199927
 0.930000   -2.120248   -374.506933
 0.935000   -4.010605   -382.538947
 0.940000   -5.945638   -390.718263
 0.945000   -7.917788   -395.079096
 0.950000   -9.896429   -382.309943
 0.955000   -11.740887   -351.684342
 0.960000   -13.413272   -312.605904
 0.965000   -14.866946   -273.544953
 0.970000   -16.148722   -193.301081
 0.975000   -16.799957   -25.632274
 0.980000   -16.405045   192.367737
 0.985000   -14.876280   432.266502
 0.990000   -12.082379   659.997870
 0.995000   -8.276301   799.633643
 1.000000   -4.086043   876.469466
201 psinorm ommvb() dommvb/dpsiN
 0.000000   -3.359748   26148.958594
 0.005000   96.620299   13843.059866
 0.010000   135.070851   8127.464373
 0.015000   177.894942   8101.278880
 0.020000   216.083640   7079.126272
 0.025000   248.686205   6157.235690
 0.030000   277.655997   5513.573947
 0.035000   303.821945   4933.657307
 0.040000   326.992570   4316.030456
 0.045000   346.982249   3705.127620
 0.050000   364.043846   3216.166791
 0.055000   379.143917   2947.776689
 0.060000   393.521613   2653.794280
 0.065000   405.681860   2320.745562
 0.070000   416.729069   2082.871610
 0.075000   426.510576   1840.010145
 0.080000   435.129170   1537.421720
 0.085000   441.884793   1259.841711
 0.090000   447.727587   1058.379139
 0.095000   452.468585   862.951193
 0.100000   456.357099   623.151231
 0.105000   458.700097   390.774217
 0.110000   460.264841   253.823052
 0.115000   461.238327   121.641121
 0.120000   461.481252   -40.262815
 0.125000   460.835699   -203.457193
 0.130000   459.446681   -340.252351
 0.135000   457.433176   -483.368021
 0.140000   454.613000   -623.393063
 0.145000   451.199245   -728.117340
 0.150000   447.331827   -827.763479
 0.155000   442.921610   -924.719645
 0.160000   438.084630   -1004.450624
 0.165000   432.877104   -1086.018208
 0.170000   427.224448   -1157.593930
 0.175000   421.301165   -1193.697872
 0.180000   415.287470   -1226.586119
 0.185000   409.035304   -1281.074559
 0.190000   402.476724   -1334.871688
 0.195000   395.686587   -1371.104988
 0.200000   388.765674   -1390.051009
 0.205000   381.786077   -1403.336327
 0.210000   374.732311   -1410.616588
 0.215000   367.679911   -1480.557365
 0.220000   359.926737   -1599.171158
 0.225000   351.688199   -1516.594368
 0.230000   344.760794   -1372.722277
 0.235000   337.960976   -1344.881095
 0.240000   331.311983   -1317.868329
 0.245000   324.782293   -1290.403641
 0.250000   318.407946   -1300.410777
 0.255000   311.778185   -1432.422770
 0.260000   304.083719   -1334.805014
 0.265000   298.430135   -1109.289228
 0.270000   292.990826   -1071.047938
 0.275000   287.719656   -1035.492487
 0.280000   282.635901   -1063.308030
 0.285000   277.086575   -1128.564565
 0.290000   271.350256   -988.598633
 0.295000   267.200589   -808.118414
 0.300000   263.269072   -766.741352
 0.305000   259.533176   -756.493317
 0.310000   255.704138   -847.857027
 0.315000   251.054605   -753.601527
 0.320000   248.168123   -556.417601
 0.325000   245.490429   -516.953420
 0.330000   242.998589   -529.342470
 0.335000   240.197005   -570.953409
 0.340000   237.289055   -468.949036
 0.345000   235.507514   -342.948216
 0.350000   233.859573   -315.818677
 0.355000   232.349327   -367.173340
 0.360000   230.187839   -346.058569
 0.365000   228.888742   -220.802179
 0.370000   227.979818   -170.693178
 0.375000   227.181810   -183.839783
 0.380000   226.141420   -201.587350
 0.385000   225.165937   -136.014039
 0.390000   224.781279   -69.151779
 0.395000   224.474419   -60.957416
 0.400000   224.171705   -90.262196
 0.405000   223.571797   -54.667839
 0.410000   223.625027   15.716938
 0.415000   223.728966   26.020602
 0.420000   223.885233   -13.545930
 0.425000   223.593507   -2.102536
 0.430000   223.864207   57.477048
 0.435000   224.168277   61.968411
 0.440000   224.483892   20.011048
 0.445000   224.368388   14.322995
 0.450000   224.627121   59.934559
 0.455000   224.967733   67.336464
 0.460000   225.300486   22.968919
 0.465000   225.197423   7.385348
 0.470000   225.374340   43.774404
 0.475000   225.635167   51.203672
 0.480000   225.886376   11.652094
 0.485000   225.751688   -0.614135
 0.490000   225.880235   38.933139
 0.495000   226.141019   54.467564
 0.500000   226.424911   23.217672
 0.505000   226.373196   16.263591
 0.510000   226.587547   61.069052
 0.515000   226.983886   83.145931
 0.520000   227.419006   54.102989
 0.525000   227.524916   44.762537
 0.530000   227.866631   88.065000
 0.535000   228.405566   109.399674
 0.540000   228.960628   79.400211
 0.545000   229.199568   60.950633
 0.550000   229.570134   94.525671
 0.555000   230.144825   114.948545
 0.560000   230.719620   91.506524
 0.565000   231.059890   66.402149
 0.570000   231.383641   91.911608
 0.575000   231.979006   118.644225
 0.580000   232.570083   98.595471
 0.585000   232.964961   69.829934
 0.590000   233.268383   95.380444
 0.595000   233.918765   134.276892
 0.600000   234.611152   138.679495
 0.605000   235.305560   111.152772
 0.610000   235.722679   133.248716
 0.615000   236.638047   191.047106
 0.620000   237.633151   207.130769
 0.625000   238.709355   199.181333
 0.630000   239.624964   228.756848
 0.635000   240.996924   287.335088
 0.640000   242.498315   311.765559
 0.645000   244.114579   336.840386
 0.650000   245.866719   364.524750
 0.655000   247.759827   405.066236
 0.660000   249.917381   447.101404
 0.665000   252.230841   478.504229
 0.670000   254.702423   516.964925
 0.675000   257.400490   550.227942
 0.680000   260.204703   574.470856
 0.685000   263.145199   605.730897
 0.690000   266.262012   644.762684
 0.695000   269.592825   701.971001
 0.700000   273.281722   753.607781
 0.705000   277.128903   795.580137
 0.710000   281.237523   849.857942
 0.715000   285.627483   909.647308
 0.720000   290.333996   997.308090
 0.725000   295.600564   1060.174288
 0.730000   300.935739   1100.541265
 0.735000   306.605976   1169.058430
 0.740000   312.626323   1239.629574
 0.745000   319.002272   1339.624021
 0.750000   326.022563   1416.275782
 0.755000   333.165030   1458.830839
 0.760000   340.610872   1529.152868
 0.765000   348.456558   1608.682998
 0.770000   356.697702   1684.480686
 0.775000   365.301365   1766.534960
 0.780000   374.363051   1834.828179
 0.785000   383.649647   1904.312488
 0.790000   393.406176   2002.340925
 0.795000   403.673056   2107.948806
 0.800000   414.485664   2218.828744
 0.805000   425.861344   2328.406633
 0.810000   437.769731   2430.758020
 0.815000   450.168924   2536.677452
 0.820000   463.136505   2652.046148
 0.825000   476.689385   2770.652527
 0.830000   490.843031   2891.033994
 0.835000   505.599725   3012.601692
 0.840000   520.969047   3069.333812
 0.845000   536.293064   3160.338969
 0.850000   552.572437   3325.354736
 0.855000   569.546611   3475.816535
 0.860000   587.330602   3701.582785
 0.865000   606.562439   4060.535598
 0.870000   627.935958   4538.373468
 0.875000   651.946173   5106.813832
 0.880000   679.004097   5776.486486
 0.885000   709.711038   6509.872882
 0.890000   744.102826   7450.528005
 0.895000   784.216318   8721.259659
 0.900000   831.315422   10242.571008
 0.905000   886.642028   12103.804662
 0.910000   952.353469   14214.731936
 0.915000   1028.789348   16357.969930
 0.920000   1115.933168   18575.996172
 0.925000   1214.549310   21048.952703
 0.930000   1326.422695   23990.113424
 0.935000   1454.450444   27909.300074
 0.940000   1605.515696   33733.042605
 0.945000   1791.780870   42284.408247
 0.950000   2028.359778   53146.373415
 0.955000   2323.244604   63517.252424
 0.960000   2663.532303   69246.752299
 0.965000   3015.712127   66417.816799
 0.970000   3327.710471   52289.602327
 0.975000   3538.608150   27980.083580
 0.980000   3607.511306   5676.137731
 0.985000   3595.369528   -4280.069750
 0.990000   3564.710609   -3908.730842
 0.995000   3556.282219   157986.049155
 1.000000   5144.571100   477329.503372
201 psinorm ommpp() dommpp/dpsiN
 0.000000   60.911653   -26083.794311
 0.005000   -38.886232   -13835.359578
 0.010000   -77.441943   -8151.438070
 0.015000   -120.400612   -8129.761913
 0.020000   -158.739562   -7110.513448
 0.025000   -191.505747   -6191.489390
 0.030000   -220.654456   -5551.153421
 0.035000   -247.017281   -4974.534087
 0.040000   -270.399797   -4359.912825
 0.045000   -290.616409   -3751.785619
 0.050000   -307.917653   -3265.047342
 0.055000   -323.266883   -2998.166800
 0.060000   -337.899321   -2705.302264
 0.065000   -350.319905   -2373.018165
 0.070000   -361.629502   -2135.400141
 0.075000   -371.673907   -1892.505292
 0.080000   -380.554555   -1589.690117
 0.085000   -387.570808   -1311.667026
 0.090000   -393.671226   -1110.102545
 0.095000   -398.671833   -914.921465
 0.100000   -402.820440   -675.144322
 0.105000   -405.423277   -442.857090
 0.110000   -407.249011   -306.097142
 0.115000   -408.484248   -173.943042
 0.120000   -408.988442   -12.267142
 0.125000   -408.606919   150.759845
 0.130000   -407.480843   287.833467
 0.135000   -405.728585   431.404249
 0.140000   -403.166801   572.194429
 0.145000   -400.006640   677.988301
 0.150000   -396.386918   778.979706
 0.155000   -392.216843   877.312175
 0.160000   -387.613796   958.448821
 0.165000   -382.632355   1041.437162
 0.170000   -377.199424   1114.418118
 0.175000   -371.488174   1152.186214
 0.180000   -365.677562   1186.476060
 0.185000   -359.623413   1242.072669
 0.190000   -353.256835   1296.974618
 0.195000   -346.653667   1334.282029
 0.200000   -339.914015   1354.162433
 0.205000   -333.112043   1368.383190
 0.210000   -326.230183   1376.132274
 0.215000   -319.350720   1445.959158
 0.220000   -311.770592   1564.750435
 0.225000   -303.703216   1482.349450
 0.230000   -296.947097   1338.505901
 0.235000   -290.318157   1310.476768
 0.240000   -283.842329   1283.274044
 0.245000   -277.485416   1256.258989
 0.250000   -271.279740   1267.155960
 0.255000   -264.813857   1400.280479
 0.260000   -257.276935   1304.143219
 0.265000   -251.772425   1080.046330
 0.270000   -246.476471   1043.349661
 0.275000   -241.338928   1009.720943
 0.280000   -236.379262   1039.155682
 0.285000   -230.947371   1105.723217
 0.290000   -225.322030   966.890928
 0.295000   -221.278462   787.252580
 0.300000   -217.449504   746.716454
 0.305000   -213.811297   737.232755
 0.310000   -210.077176   828.964848
 0.315000   -205.521649   734.727757
 0.320000   -202.729899   537.097784
 0.325000   -200.150671   496.623923
 0.330000   -197.763660   507.092109
 0.335000   -195.079750   546.069582
 0.340000   -192.302964   441.727514
 0.345000   -190.662475   313.968017
 0.350000   -189.163284   285.574692
 0.355000   -187.806728   335.889586
 0.360000   -185.804388   313.751081
 0.365000   -184.669217   188.485840
 0.370000   -183.919529   139.025573
 0.375000   -183.278961   152.680019
 0.380000   -182.392729   171.181640
 0.385000   -181.567145   106.334876
 0.390000   -181.329380   40.168015
 0.395000   -181.165465   33.308782
 0.400000   -180.996293   63.828359
 0.405000   -180.527181   28.753109
 0.410000   -180.708762   -41.235435
 0.415000   -180.939535   -51.293035
 0.420000   -181.221692   -11.509059
 0.425000   -181.054626   -23.764331
 0.430000   -181.459335   -85.473006
 0.435000   -181.909356   -93.023740
 0.440000   -182.389573   -55.711039
 0.445000   -182.466467   -55.728994
 0.450000   -182.946863   -107.065401
 0.455000   -183.537121   -121.272013
 0.460000   -184.159583   -84.584302
 0.465000   -184.382964   -76.480732
 0.470000   -184.924390   -120.172930
 0.475000   -185.584693   -133.613818
 0.480000   -186.260528   -98.174307
 0.485000   -186.566436   -88.735218
 0.490000   -187.147880   -129.542207
 0.495000   -187.861858   -143.779015
 0.500000   -188.585671   -108.656208
 0.505000   -188.948420   -96.234565
 0.510000   -189.548016   -134.875008
 0.515000   -190.297170   -150.391269
 0.520000   -191.051929   -114.893209
 0.525000   -191.446102   -99.378314
 0.530000   -192.045712   -137.793152
 0.535000   -192.824034   -156.573668
 0.540000   -193.611449   -126.038642
 0.545000   -194.084420   -108.651294
 0.550000   -194.697962   -144.431276
 0.555000   -195.528733   -168.085117
 0.560000   -196.378813   -148.462996
 0.565000   -197.013363   -127.065925
 0.570000   -197.649472   -156.085172
 0.575000   -198.574215   -186.083778
 0.580000   -199.510310   -169.061576
 0.585000   -200.264830   -143.024784
 0.590000   -200.940558   -170.729710
 0.595000   -201.972127   -211.208066
 0.600000   -203.052638   -217.000327
 0.605000   -204.142131   -190.873333
 0.610000   -204.961372   -214.401635
 0.615000   -206.286147   -273.667926
 0.620000   -207.698051   -291.418161
 0.625000   -209.200329   -285.470562
 0.630000   -210.552757   -317.431952
 0.635000   -212.374648   -378.699090
 0.640000   -214.339747   -405.456700
 0.645000   -216.429215   -432.491186
 0.650000   -218.664659   -461.891569
 0.655000   -221.048131   -503.776227
 0.660000   -223.702422   -547.023669
 0.665000   -226.518368   -579.500085
 0.670000   -229.497422   -618.535362
 0.675000   -232.703721   -652.319611
 0.680000   -236.020619   -677.763307
 0.685000   -239.481354   -710.906555
 0.690000   -243.129684   -752.385846
 0.695000   -247.005213   -812.219700
 0.700000   -251.251881   -864.392524
 0.705000   -255.649138   -904.590582
 0.710000   -260.297787   -956.038912
 0.715000   -265.209527   -1011.385183
 0.720000   -270.411639   -1093.354054
 0.725000   -276.143068   -1149.980625
 0.730000   -281.911445   -1182.442043
 0.735000   -287.967488   -1242.386496
 0.740000   -294.335310   -1305.584400
 0.745000   -301.023332   -1398.923786
 0.750000   -308.324548   -1469.791531
 0.755000   -315.721247   -1507.131409
 0.760000   -323.395862   -1573.668931
 0.765000   -331.457937   -1651.048411
 0.770000   -339.906346   -1725.324280
 0.775000   -348.711180   -1806.402197
 0.780000   -357.970368   -1873.802722
 0.785000   -367.449207   -1941.443295
 0.790000   -377.384801   -2037.374930
 0.795000   -387.822956   -2140.745490
 0.800000   -398.792256   -2248.683241
 0.805000   -410.309788   -2355.503894
 0.810000   -422.347295   -2455.647172
 0.815000   -434.866260   -2560.494120
 0.820000   -447.952236   -2676.229315
 0.825000   -461.628553   -2796.072379
 0.830000   -475.912960   -2918.374123
 0.835000   -490.812295   -3042.801710
 0.840000   -506.340977   -3103.247476
 0.845000   -521.844769   -3198.926859
 0.850000   -538.330245   -3369.889210
 0.855000   -555.543661   -3528.162427
 0.860000   -573.611870   -3764.128891
 0.865000   -593.184950   -4136.008349
 0.870000   -614.971953   -4629.783428
 0.875000   -639.482785   -5218.137841
 0.880000   -667.153332   -5911.490647
 0.885000   -698.597691   -6670.669706
 0.890000   -733.860029   -7639.649860
 0.895000   -774.994190   -8941.987746
 0.900000   -823.279906   -10496.210253
 0.905000   -879.956292   -12392.092825
 0.910000   -947.200834   -14538.328696
 0.915000   -1025.339579   -16710.333325
 0.920000   -1114.304168   -18951.327308
 0.925000   -1214.852852   -21443.874111
 0.930000   -1328.742909   -24396.982501
 0.935000   -1458.822677   -28325.508638
 0.940000   -1611.997995   -34158.685421
 0.945000   -1800.409531   -42702.107161
 0.950000   -2039.019067   -53542.916158
 0.955000   -2335.838693   -63889.104135
 0.960000   -2677.910108   -69579.429499
 0.965000   -3031.632988   -66692.105816
 0.970000   -3344.831166   -52474.983660
 0.975000   -3556.382825   -28003.073610
 0.980000   -3624.861902   -5471.154897
 0.985000   -3611.094374   4736.606193
 0.990000   -3577.495840   4608.102055
 0.995000   -3565.013353   -157134.564271
 1.000000   -5148.841483   -476396.687748
201 psinorm omevb() domevb/dpsiN
 0.000000   19.541001   104.485253
 0.005000   19.960773   63.423452
 0.010000   20.175236   39.728938
 0.015000   20.358062   34.777447
 0.020000   20.523010   31.433342
 0.025000   20.672396   28.129044
 0.030000   20.804300   24.367680
 0.035000   20.916072   20.636968
 0.040000   21.010670   17.200150
 0.045000   21.088074   13.995465
 0.050000   21.150625   11.346030
 0.055000   21.201534   9.411754
 0.060000   21.244742   7.871329
 0.065000   21.280247   6.686318
 0.070000   21.311606   6.012154
 0.075000   21.340369   5.629454
 0.080000   21.367900   5.442267
 0.085000   21.394792   5.473557
 0.090000   21.422636   5.165814
 0.095000   21.446450   4.511433
 0.100000   21.467750   4.083229
 0.105000   21.487282   3.590191
 0.110000   21.503652   2.997840
 0.115000   21.517261   2.570994
 0.120000   21.529362   1.946057
 0.125000   21.536721   1.383875
 0.130000   21.543201   1.269655
 0.135000   21.549418   1.334181
 0.140000   21.556542   1.710830
 0.145000   21.566526   2.394027
 0.150000   21.580483   3.354982
 0.155000   21.600076   4.349057
 0.160000   21.623973   5.374572
 0.165000   21.653821   6.417248
 0.170000   21.688146   7.446470
 0.175000   21.728286   8.736673
 0.180000   21.775512   9.766379
 0.185000   21.825950   10.504707
 0.190000   21.880559   11.241732
 0.195000   21.938367   11.950092
 0.200000   22.000060   12.520759
 0.205000   22.063575   13.094514
 0.210000   22.131006   13.203678
 0.215000   22.195612   12.732148
 0.220000   22.258327   12.554009
 0.225000   22.321152   12.376202
 0.230000   22.382089   12.053136
 0.235000   22.441683   11.515576
 0.240000   22.497245   10.978003
 0.245000   22.551463   11.082009
 0.250000   22.608065   11.628198
 0.255000   22.667745   12.399056
 0.260000   22.732055   13.539855
 0.265000   22.803144   14.621018
 0.270000   22.878266   15.829867
 0.275000   22.961442   17.422781
 0.280000   23.052493   18.710105
 0.285000   23.148543   19.691175
 0.290000   23.249405   20.496825
 0.295000   23.353512   21.012632
 0.300000   23.459532   21.529429
 0.305000   23.568806   21.971545
 0.310000   23.679247   22.019619
 0.315000   23.789002   21.719626
 0.320000   23.896443   20.957076
 0.325000   23.998573   19.632787
 0.330000   24.092771   17.399202
 0.335000   24.172565   14.454896
 0.340000   24.237320   11.808238
 0.345000   24.290647   9.742466
 0.350000   24.334745   8.173448
 0.355000   24.372382   6.830305
 0.360000   24.403048   5.505046
 0.365000   24.427432   5.196514
 0.370000   24.455013   5.547406
 0.375000   24.482906   5.759235
 0.380000   24.512605   6.219102
 0.385000   24.545097   6.653281
 0.390000   24.579138   7.058124
 0.395000   24.615679   8.104504
 0.400000   24.660183   9.032350
 0.405000   24.706002   9.266298
 0.410000   24.752846   9.379159
 0.415000   24.799794   9.343629
 0.420000   24.846282   9.281254
 0.425000   24.892606   8.191323
 0.430000   24.928196   5.785937
 0.435000   24.950466   2.452027
 0.440000   24.952716   -2.465429
 0.445000   24.925811   -8.442490
 0.450000   24.868291   -14.436654
 0.455000   24.781445   -21.508955
 0.460000   24.653201   -29.454663
 0.465000   24.486898   -37.198825
 0.470000   24.281213   -44.764421
 0.475000   24.039254   -51.036795
 0.480000   23.770845   -55.407924
 0.485000   23.485175   -58.492439
 0.490000   23.185921   -60.007851
 0.495000   22.885096   -58.964257
 0.500000   22.596278   -55.343699
 0.505000   22.331659   -50.126836
 0.510000   22.095010   -44.210864
 0.515000   21.889551   -37.897646
 0.520000   21.716033   -31.688291
 0.525000   21.572668   -25.757978
 0.530000   21.458454   -21.112859
 0.535000   21.361539   -18.799587
 0.540000   21.270458   -18.503301
 0.545000   21.176506   -19.803204
 0.550000   21.072426   -22.244222
 0.555000   20.954064   -25.709674
 0.560000   20.815329   -29.762475
 0.565000   20.656439   -33.701102
 0.570000   20.478318   -37.440643
 0.575000   20.282033   -40.934824
 0.580000   20.068970   -44.188011
 0.585000   19.840152   -47.141843
 0.590000   19.597551   -49.519802
 0.595000   19.344954   -51.323720
 0.600000   19.084314   -52.933858
 0.605000   18.815616   -54.552545
 0.610000   18.538789   -56.202347
 0.615000   18.253592   -57.886186
 0.620000   17.959927   -59.767192
 0.625000   17.655921   -61.981970
 0.630000   17.340107   -64.579299
 0.635000   17.010128   -67.478169
 0.640000   16.665325   -70.013806
 0.645000   16.309989   -72.180494
 0.650000   15.943520   -74.102082
 0.655000   15.568969   -75.649366
 0.660000   15.187027   -77.064301
 0.665000   14.798326   -78.339108
 0.670000   14.403636   -79.113464
 0.675000   14.007191   -79.833033
 0.680000   13.605305   -81.230718
 0.685000   13.194884   -83.309395
 0.690000   12.772211   -85.950933
 0.695000   12.335374   -88.769067
 0.700000   11.884521   -89.496263
 0.705000   11.440412   -87.911661
 0.710000   11.005404   -85.270409
 0.715000   10.587708   -81.014035
 0.720000   10.195264   -75.507310
 0.725000   9.832635   -69.451280
 0.730000   9.500751   -61.727658
 0.735000   9.215358   -53.335126
 0.740000   8.967400   -46.140179
 0.745000   8.753956   -39.661343
 0.750000   8.570786   -34.051249
 0.755000   8.413444   -29.007366
 0.760000   8.280713   -25.391108
 0.765000   8.159533   -23.405086
 0.770000   8.046662   -22.043529
 0.775000   7.939097   -21.222075
 0.780000   7.834441   -20.477623
 0.785000   7.734321   -18.773761
 0.790000   7.646703   -16.806249
 0.795000   7.566259   -14.684767
 0.800000   7.499856   -11.841302
 0.805000   7.447846   -9.161029
 0.810000   7.408245   -7.002330
 0.815000   7.377822   -5.944620
 0.820000   7.348799   -6.282828
 0.825000   7.314994   -7.438529
 0.830000   7.274414   -9.214838
 0.835000   7.222846   -11.858052
 0.840000   7.155833   -15.275634
 0.845000   7.070089   -19.575308
 0.850000   6.960080   -25.085380
 0.855000   6.819236   -32.444212
 0.860000   6.635638   -42.274004
 0.865000   6.396496   -55.100809
 0.870000   6.084630   -71.548766
 0.875000   5.681008   -93.174218
 0.880000   5.152888   -120.762650
 0.885000   4.473381   -154.307004
 0.890000   3.609818   -196.899572
 0.895000   2.504386   -253.551644
 0.900000   1.074302   -328.955546
 0.905000   -0.785170   -433.726060
 0.910000   -3.262959   -581.805150
 0.915000   -6.603221   -786.995430
 0.920000   -11.132913   -1076.852462
 0.925000   -17.371746   -1482.361943
 0.930000   -25.956533   -2017.149373
 0.935000   -37.543240   -2667.531022
 0.940000   -52.631843   -3342.147660
 0.945000   -70.964716   -3822.585385
 0.950000   -90.857697   -3828.103998
 0.955000   -109.245756   -3120.639226
 0.960000   -122.064089   -1662.378034
 0.965000   -125.869537   251.469233
 0.970000   -119.549397   2099.919279
 0.975000   -104.870344   3419.196578
 0.980000   -85.357431   3973.195386
 0.985000   -65.138390   3848.664482
 0.990000   -46.870786   3355.596673
 0.995000   -31.582423   2737.673561
 1.000000   -19.494051   2097.675463
201 psinorm omepp() domepp/dpsiN
 0.000000   38.010905   -39.320970
 0.005000   37.773294   -55.723163
 0.010000   37.453673   -63.702634
 0.015000   37.136268   -63.260480
 0.020000   36.821068   -62.820518
 0.025000   36.508063   -62.382744
 0.030000   36.197241   -61.947155
 0.035000   35.888591   -61.513748
 0.040000   35.582103   -61.082519
 0.045000   35.277766   -60.653464
 0.050000   34.975569   -60.226581
 0.055000   34.675500   -59.801865
 0.060000   34.377550   -59.379313
 0.065000   34.081707   -58.958921
 0.070000   33.787961   -58.540685
 0.075000   33.496300   -58.124601
 0.080000   33.206715   -57.710665
 0.085000   32.919194   -57.298873
 0.090000   32.633726   -56.889221
 0.095000   32.350301   -56.481705
 0.100000   32.068909   -56.076321
 0.105000   31.789538   -55.673064
 0.110000   31.512178   -55.271930
 0.115000   31.236819   -54.872915
 0.120000   30.963449   -54.476015
 0.125000   30.692059   -54.081224
 0.130000   30.422637   -53.688538
 0.135000   30.155173   -53.297953
 0.140000   29.889657   -52.909464
 0.145000   29.626079   -52.523067
 0.150000   29.364427   -52.138756
 0.155000   29.104691   -51.756527
 0.160000   28.846861   -51.376375
 0.165000   28.590927   -50.998295
 0.170000   28.336879   -50.622282
 0.175000   28.084705   -50.248332
 0.180000   27.834395   -49.876438
 0.185000   27.585940   -49.506597
 0.190000   27.339329   -49.138803
 0.195000   27.094552   -48.773050
 0.200000   26.851599   -48.409335
 0.205000   26.610459   -48.047650
 0.210000   26.371122   -47.687992
 0.215000   26.133579   -47.330354
 0.220000   25.897819   -46.974732
 0.225000   25.663832   -46.621120
 0.230000   25.431607   -46.269512
 0.235000   25.201136   -45.919903
 0.240000   24.972408   -45.572288
 0.245000   24.745414   -45.226661
 0.250000   24.520142   -44.883015
 0.255000   24.296583   -44.541347
 0.260000   24.074728   -44.201649
 0.265000   23.854567   -43.863917
 0.270000   23.636089   -43.528144
 0.275000   23.419285   -43.194324
 0.280000   23.204146   -42.862453
 0.285000   22.990661   -42.532523
 0.290000   22.778821   -42.204530
 0.295000   22.568616   -41.878467
 0.300000   22.360036   -41.554328
 0.305000   22.153072   -41.232107
 0.310000   21.947715   -40.911798
 0.315000   21.743954   -40.593395
 0.320000   21.541781   -40.276893
 0.325000   21.341185   -39.962284
 0.330000   21.142158   -39.649563
 0.335000   20.944690   -39.338724
 0.340000   20.748771   -39.029760
 0.345000   20.554392   -38.722665
 0.350000   20.361544   -38.417433
 0.355000   20.170218   -38.114058
 0.360000   19.980404   -37.812534
 0.365000   19.792093   -37.512853
 0.370000   19.605275   -37.215010
 0.375000   19.419942   -36.918999
 0.380000   19.236085   -36.624812
 0.385000   19.053694   -36.332444
 0.390000   18.872761   -36.041888
 0.395000   18.693275   -35.753138
 0.400000   18.515229   -35.466187
 0.405000   18.338614   -35.181028
 0.410000   18.163419   -34.897656
 0.415000   17.989637   -34.616063
 0.420000   17.817258   -34.336243
 0.425000   17.646275   -34.058190
 0.430000   17.476677   -33.781896
 0.435000   17.308456   -33.507356
 0.440000   17.141603   -33.234562
 0.445000   16.976110   -32.963508
 0.450000   16.811968   -32.694188
 0.455000   16.649168   -32.426594
 0.460000   16.487702   -32.160720
 0.465000   16.327561   -31.896559
 0.470000   16.168736   -31.634105
 0.475000   16.011220   -31.373350
 0.480000   15.855003   -31.114289
 0.485000   15.700077   -30.856913
 0.490000   15.546434   -30.601217
 0.495000   15.394065   -30.347194
 0.500000   15.242962   -30.094837
 0.505000   15.093116   -29.844139
 0.510000   14.944520   -29.595092
 0.515000   14.797166   -29.347692
 0.520000   14.651044   -29.101930
 0.525000   14.506146   -28.857799
 0.530000   14.362466   -28.615294
 0.535000   14.219993   -28.374406
 0.540000   14.078721   -28.135130
 0.545000   13.938642   -27.897458
 0.550000   13.799747   -27.661383
 0.555000   13.662028   -27.426899
 0.560000   13.525478   -27.193998
 0.565000   13.390088   -26.962674
 0.570000   13.255851   -26.732920
 0.575000   13.122759   -26.504729
 0.580000   12.990804   -26.278094
 0.585000   12.859978   -26.053007
 0.590000   12.730274   -25.829463
 0.595000   12.601683   -25.607455
 0.600000   12.474199   -25.386974
 0.605000   12.347814   -25.168015
 0.610000   12.222519   -24.950571
 0.615000   12.098308   -24.734635
 0.620000   11.975173   -24.520200
 0.625000   11.853106   -24.307259
 0.630000   11.732100   -24.095805
 0.635000   11.612148   -23.885833
 0.640000   11.493242   -23.677335
 0.645000   11.375375   -23.470305
 0.650000   11.258539   -23.264737
 0.655000   11.142727   -23.060626
 0.660000   11.027933   -22.857964
 0.665000   10.914148   -22.656748
 0.670000   10.801365   -22.456974
 0.675000   10.689578   -22.258636
 0.680000   10.578779   -22.061733
 0.685000   10.468960   -21.866264
 0.690000   10.360116   -21.672229
 0.695000   10.252238   -21.479632
 0.700000   10.145320   -21.288480
 0.705000   10.039353   -21.098784
 0.710000   9.934332   -20.910562
 0.715000   9.830248   -20.723840
 0.720000   9.727094   -20.538654
 0.725000   9.624861   -20.355058
 0.730000   9.523543   -20.173120
 0.735000   9.423130   -19.992940
 0.740000   9.323614   -19.814647
 0.745000   9.224984   -19.638421
 0.750000   9.127229   -19.464500
 0.755000   9.030339   -19.293203
 0.760000   8.934297   -19.124956
 0.765000   8.839089   -18.960326
 0.770000   8.744694   -18.800064
 0.775000   8.651088   -18.645161
 0.780000   8.558242   -18.496920
 0.785000   8.466119   -18.357046
 0.790000   8.374672   -18.227756
 0.795000   8.283842   -18.111917
 0.800000   8.193553   -18.013194
 0.805000   8.103710   -17.936232
 0.810000   8.014190   -17.886822
 0.815000   7.924841   -17.872048
 0.820000   7.835470   -17.900339
 0.825000   7.745838   -17.981323
 0.830000   7.655657   -18.125291
 0.835000   7.564585   -18.341966
 0.840000   7.472237   -18.638031
 0.845000   7.378205   -19.012582
 0.850000   7.282111   -19.449094
 0.855000   7.183714   -19.901680
 0.860000   7.083094   -20.272102
 0.865000   6.980993   -20.371942
 0.870000   6.879375   -19.861194
 0.875000   6.782381   -18.149791
 0.880000   6.697877   -14.241511
 0.885000   6.639966   -6.489821
 0.890000   6.632979   7.777717
 0.895000   6.717743   32.823557
 0.900000   6.961215   75.316301
 0.905000   7.470906   145.437897
 0.910000   8.415593   258.208391
 0.915000   10.052990   434.632035
 0.920000   12.761914   701.521325
 0.925000   17.068203   1087.440535
 0.930000   23.636319   1610.280295
 0.935000   33.171006   2251.322458
 0.940000   46.149544   2916.504843
 0.945000   62.336055   3404.886471
 0.950000   80.198408   3431.561255
 0.955000   96.651667   2748.787515
 0.960000   107.686284   1329.700834
 0.965000   109.948675   -525.758250
 0.970000   102.428701   -2285.300612
 0.975000   87.095669   -3442.186608
 0.980000   68.006835   -3768.212553
 0.985000   49.413544   -3392.128039
 0.990000   34.085555   -2656.225459
 0.995000   22.851289   -1886.188678
 1.000000   15.223668   -1164.859839
201 psinorm kpol(km/s/T) dkpol/dpsiN
 0.000000   0.000633   103.694335
 0.005000   0.421213   64.537487
 0.010000   0.646008   43.394026
 0.015000   0.855153   41.569883
 0.020000   1.061707   41.186556
 0.025000   1.267019   40.626193
 0.030000   1.467969   39.398929
 0.035000   1.661008   38.001348
 0.040000   1.847982   36.660441
 0.045000   2.027612   35.301589
 0.050000   2.200998   34.148430
 0.055000   2.369097   33.314972
 0.060000   2.534148   32.830796
 0.065000   2.697404   32.553542
 0.070000   2.859683   32.280838
 0.075000   3.020213   31.946926
 0.080000   3.179153   31.452705
 0.085000   3.334740   30.649763
 0.090000   3.485650   29.622249
 0.095000   3.630962   28.334393
 0.100000   3.768994   26.922182
 0.105000   3.900184   25.432476
 0.110000   4.023319   23.837560
 0.115000   4.138560   22.240668
 0.120000   4.245726   20.729883
 0.125000   4.345859   19.499867
 0.130000   4.440724   18.498814
 0.135000   4.530847   17.664044
 0.140000   4.617365   17.075670
 0.145000   4.701604   16.618637
 0.150000   4.783551   16.205096
 0.155000   4.863654   15.628065
 0.160000   4.939832   14.952136
 0.165000   5.013176   14.148554
 0.170000   5.081317   13.209293
 0.175000   5.145269   12.165899
 0.180000   5.202976   10.940811
 0.185000   5.254677   9.763676
 0.190000   5.300613   8.522773
 0.195000   5.339905   7.360877
 0.200000   5.374222   6.233132
 0.205000   5.402236   5.049768
 0.210000   5.424719   4.054421
 0.215000   5.442780   3.107352
 0.220000   5.455793   2.349403
 0.225000   5.466274   1.625443
 0.230000   5.472047   0.810498
 0.235000   5.474379   0.127641
 0.240000   5.473324   -0.647346
 0.245000   5.467906   -1.400566
 0.250000   5.459318   -2.098597
 0.255000   5.446920   -2.907395
 0.260000   5.430244   -3.600560
 0.265000   5.410914   -4.278522
 0.270000   5.387459   -5.061122
 0.275000   5.360303   -5.737824
 0.280000   5.330081   -6.479861
 0.285000   5.295504   -7.305192
 0.290000   5.257029   -8.141424
 0.295000   5.214090   -9.203331
 0.300000   5.164996   -10.430891
 0.305000   5.109781   -11.749461
 0.310000   5.047501   -13.314006
 0.315000   4.976641   -15.032630
 0.320000   4.897175   -16.839014
 0.325000   4.808251   -18.768707
 0.330000   4.709488   -20.643037
 0.335000   4.601821   -22.366559
 0.340000   4.485822   -23.977732
 0.345000   4.362043   -25.372341
 0.350000   4.232099   -26.350449
 0.355000   4.098539   -27.008846
 0.360000   3.962010   -27.478768
 0.365000   3.823751   -27.740392
 0.370000   3.684606   -27.941390
 0.375000   3.544337   -28.126235
 0.380000   3.403344   -28.297384
 0.385000   3.261363   -28.724198
 0.390000   3.116102   -29.507211
 0.395000   2.966291   -30.403067
 0.400000   2.812071   -31.397301
 0.405000   2.652318   -32.420350
 0.410000   2.487868   -33.334752
 0.415000   2.318971   -34.189990
 0.420000   2.145968   -35.192897
 0.425000   1.967042   -36.689095
 0.430000   1.779077   -38.983388
 0.435000   1.577208   -42.586989
 0.440000   1.353207   -48.225118
 0.445000   1.094957   -55.303460
 0.450000   0.800172   -63.085328
 0.455000   0.464103   -71.705793
 0.460000   0.083114   -80.873245
 0.465000   -0.344629   -90.418010
 0.470000   -0.821066   -99.752382
 0.475000   -1.342153   -107.350298
 0.480000   -1.894569   -112.577958
 0.485000   -2.467932   -115.476540
 0.490000   -3.049334   -115.791953
 0.495000   -3.625852   -113.005108
 0.500000   -4.179385   -106.794715
 0.505000   -4.693799   -98.565375
 0.510000   -5.165039   -89.553943
 0.515000   -5.589339   -80.006333
 0.520000   -5.965102   -70.438162
 0.525000   -6.293720   -61.079124
 0.530000   -6.575894   -53.400867
 0.535000   -6.827729   -48.926105
 0.540000   -7.065155   -47.188335
 0.545000   -7.299612   -47.603796
 0.550000   -7.541193   -49.507031
 0.555000   -7.794683   -52.588038
 0.560000   -8.067073   -56.095422
 0.565000   -8.355637   -58.983074
 0.570000   -8.656904   -61.057447
 0.575000   -8.966211   -62.160388
 0.580000   -9.278508   -62.258688
 0.585000   -9.588798   -61.201518
 0.590000   -9.890523   -58.548622
 0.595000   -10.174284   -54.445705
 0.600000   -10.434980   -49.540621
 0.605000   -10.669691   -44.042922
 0.610000   -10.875409   -38.154129
 0.615000   -11.051232   -32.122470
 0.620000   -11.196634   -26.485043
 0.625000   -11.316082   -21.600185
 0.630000   -11.412636   -17.383977
 0.635000   -11.489922   -13.921279
 0.640000   -11.551848   -11.077956
 0.645000   -11.600702   -8.751504
 0.650000   -11.639363   -6.987723
 0.655000   -11.670579   -5.576346
 0.660000   -11.695127   -4.230853
 0.665000   -11.712887   -2.902857
 0.670000   -11.724155   -1.697137
 0.675000   -11.729859   -0.508376
 0.680000   -11.729239   0.756781
 0.685000   -11.722291   2.028449
 0.690000   -11.708955   3.410922
 0.695000   -11.688182   5.173063
 0.700000   -11.657224   7.576118
 0.705000   -11.612420   10.806822
 0.710000   -11.549156   14.858035
 0.715000   -11.463840   19.697466
 0.720000   -11.352181   25.194185
 0.725000   -11.211898   30.991555
 0.730000   -11.042266   36.890952
 0.735000   -10.842989   42.157791
 0.740000   -10.620688   45.930410
 0.745000   -10.383685   47.985573
 0.750000   -10.140832   48.327059
 0.755000   -9.900414   46.988038
 0.760000   -9.670952   43.743692
 0.765000   -9.462977   39.248457
 0.770000   -9.278467   34.678452
 0.775000   -9.116193   30.514386
 0.780000   -8.973323   27.018533
 0.785000   -8.846007   24.439557
 0.790000   -8.728928   23.054418
 0.795000   -8.615463   22.586963
 0.800000   -8.503058   22.233377
 0.805000   -8.393129   21.352130
 0.810000   -8.289537   19.480108
 0.815000   -8.198328   16.318974
 0.820000   -8.126347   11.810476
 0.825000   -8.080223   6.155012
 0.830000   -8.064797   -0.032127
 0.835000   -8.080545   -6.038245
 0.840000   -8.125179   -11.286267
 0.845000   -8.193407   -15.345106
 0.850000   -8.278630   -18.035922
 0.855000   -8.373767   -19.621539
 0.860000   -8.474846   -20.414274
 0.865000   -8.577909   -20.526258
 0.870000   -8.680108   -20.215687
 0.875000   -8.780066   -19.668832
 0.880000   -8.876797   -19.006400
 0.885000   -8.970130   -18.274017
 0.890000   -9.059537   -17.331190
 0.895000   -9.143442   -16.017037
 0.900000   -9.219707   -14.251439
 0.905000   -9.285957   -11.991024
 0.910000   -9.339617   -8.868627
 0.915000   -9.374643   -5.416761
 0.920000   -9.393785   -2.335817
 0.925000   -9.398001   0.604199
 0.930000   -9.387743   5.366467
 0.935000   -9.344336   10.258559
 0.940000   -9.285157   14.078404
 0.945000   -9.203552   19.846854
 0.950000   -9.086689   29.240169
 0.955000   -8.911151   43.784029
 0.960000   -8.648849   66.785302
 0.965000   -8.243298   106.999200
 0.970000   -7.578857   174.353132
 0.975000   -6.499766   282.541910
 0.980000   -4.753437   444.430627
 0.985000   -2.055460   652.275395
 0.990000   1.769316   856.163032
 0.995000   6.506170   948.181899
 1.000000   11.251135   949.804145
201 psinorm omghb() domghb/dpsiN
 0.000000   -0.000037   0.108008
 0.005000   0.000435   0.080951
 0.010000   0.000773   0.095017
 0.015000   0.001386   0.132668
 0.020000   0.002099   0.152553
 0.025000   0.002911   0.169661
 0.030000   0.003796   0.195211
 0.035000   0.004863   0.219388
 0.040000   0.005990   0.239513
 0.045000   0.007258   0.249465
 0.050000   0.008484   0.243671
 0.055000   0.009695   0.235901
 0.060000   0.010843   0.219892
 0.065000   0.011894   0.191774
 0.070000   0.012761   0.195297
 0.075000   0.013847   0.205598
 0.080000   0.014817   0.183547
 0.085000   0.015682   0.175134
 0.090000   0.016568   0.174420
 0.095000   0.017427   0.159646
 0.100000   0.018165   0.201306
 0.105000   0.019440   0.239412
 0.110000   0.020559   0.214681
 0.115000   0.021587   0.186006
 0.120000   0.022419   0.175215
 0.125000   0.023339   0.173393
 0.130000   0.024153   0.174126
 0.135000   0.025080   0.136798
 0.140000   0.025521   0.079386
 0.145000   0.025874   0.044532
 0.150000   0.025966   0.022427
 0.155000   0.026098   0.013522
 0.160000   0.026102   -0.006650
 0.165000   0.026032   -0.015689
 0.170000   0.025945   -0.025232
 0.175000   0.025779   -0.026203
 0.180000   0.025683   -0.036110
 0.185000   0.025418   -0.049099
 0.190000   0.025192   -0.050286
 0.195000   0.024915   0.000231
 0.200000   0.025194   0.049259
 0.205000   0.025408   0.027256
 0.210000   0.025466   0.040291
 0.215000   0.025811   0.061921
 0.220000   0.026086   0.097279
 0.225000   0.026784   0.153213
 0.230000   0.027618   0.116757
 0.235000   0.027951   0.069433
 0.240000   0.028312   0.059361
 0.245000   0.028545   0.035732
 0.250000   0.028669   0.033691
 0.255000   0.028882   -0.150757
 0.260000   0.027162   -0.276723
 0.265000   0.026114   -0.206929
 0.270000   0.025093   -0.217885
 0.275000   0.023936   -0.216511
 0.280000   0.022928   -0.175436
 0.285000   0.022181   -0.199582
 0.290000   0.020932   -0.174270
 0.295000   0.020439   -0.081960
 0.300000   0.020112   -0.070653
 0.305000   0.019732   -0.039997
 0.310000   0.019712   -0.110396
 0.315000   0.018628   0.031814
 0.320000   0.020030   0.336883
 0.325000   0.021997   0.441108
 0.330000   0.024441   0.496547
 0.335000   0.026962   0.516414
 0.340000   0.029605   0.574602
 0.345000   0.032708   0.500849
 0.350000   0.034614   0.318364
 0.355000   0.035892   0.215015
 0.360000   0.036764   0.111331
 0.365000   0.037005   0.024060
 0.370000   0.037005   0.139241
 0.375000   0.038398   -0.010921
 0.380000   0.036896   -0.289603
 0.385000   0.035502   -0.227051
 0.390000   0.034625   -0.168218
 0.395000   0.033819   -0.134370
 0.400000   0.033281   -0.107510
 0.405000   0.032744   -0.141906
 0.410000   0.031862   -0.086635
 0.415000   0.031878   0.048194
 0.420000   0.032344   0.182390
 0.425000   0.033702   0.425615
 0.430000   0.036600   0.678382
 0.435000   0.040486   0.997295
 0.440000   0.046573   1.386130
 0.445000   0.054347   1.641511
 0.450000   0.062988   1.964178
 0.455000   0.073989   2.175946
 0.460000   0.084748   2.060200
 0.465000   0.094591   1.988642
 0.470000   0.104634   1.976777
 0.475000   0.114359   1.720368
 0.480000   0.121838   1.228307
 0.485000   0.126642   0.609954
 0.490000   0.127937   0.003834
 0.495000   0.126680   -0.493253
 0.500000   0.123005   -1.011000
 0.505000   0.116570   -1.497380
 0.510000   0.108031   -1.995590
 0.515000   0.096614   -2.032160
 0.520000   0.087710   -1.661972
 0.525000   0.079994   -1.362089
 0.530000   0.074089   -0.993618
 0.535000   0.070058   -0.527587
 0.540000   0.068813   0.143161
 0.545000   0.071490   0.694774
 0.550000   0.075761   0.929544
 0.555000   0.080785   1.055154
 0.560000   0.086312   1.145950
 0.565000   0.092245   1.224489
 0.570000   0.098557   1.246743
 0.575000   0.104712   1.114205
 0.580000   0.109699   0.938895
 0.585000   0.114101   0.810879
 0.590000   0.117808   0.675967
 0.595000   0.120861   0.591358
 0.600000   0.123721   0.516962
 0.605000   0.126030   0.483297
 0.610000   0.128554   0.551202
 0.615000   0.131542   0.708007
 0.620000   0.135634   0.773226
 0.625000   0.139275   0.750853
 0.630000   0.143143   0.819432
 0.635000   0.147469   0.845079
 0.640000   0.151594   0.822472
 0.645000   0.155694   0.891075
 0.650000   0.160504   0.709348
 0.655000   0.162787   0.436118
 0.660000   0.164866   0.356115
 0.665000   0.166348   0.288366
 0.670000   0.167749   0.328640
 0.675000   0.169635   0.550014
 0.680000   0.173249   0.724820
 0.685000   0.176883   0.773942
 0.690000   0.180989   0.765306
 0.695000   0.184536   0.540241
 0.700000   0.186391   0.065102
 0.705000   0.185187   -0.334551
 0.710000   0.183046   -1.013186
 0.715000   0.175055   -1.913642
 0.720000   0.163909   -2.252257
 0.725000   0.152533   -2.401367
 0.730000   0.139896   -2.541862
 0.735000   0.127114   -2.498084
 0.740000   0.114915   -2.471763
 0.745000   0.102396   -2.271188
 0.750000   0.092203   -1.798048
 0.755000   0.084416   -1.383800
 0.760000   0.078365   -1.013291
 0.765000   0.074283   -0.760147
 0.770000   0.070764   -0.537511
 0.775000   0.068908   -0.193267
 0.780000   0.068831   -0.251516
 0.785000   0.066393   -0.531691
 0.790000   0.063514   -0.760028
 0.795000   0.058792   -1.053887
 0.800000   0.052975   -1.136077
 0.805000   0.047432   -0.863524
 0.810000   0.044340   -0.486629
 0.815000   0.042565   -0.111746
 0.820000   0.043222   0.300284
 0.825000   0.045568   0.632515
 0.830000   0.049548   0.953667
 0.835000   0.055105   1.160199
 0.840000   0.061150   1.444344
 0.845000   0.069548   1.945553
 0.850000   0.080605   2.542565
 0.855000   0.094974   3.320387
 0.860000   0.113809   4.447775
 0.865000   0.139452   5.401351
 0.870000   0.167822   6.394385
 0.875000   0.203396   7.822510
 0.880000   0.246048   9.202016
 0.885000   0.295416   10.404613
 0.890000   0.350094   12.173123
 0.895000   0.417147   12.215696
 0.900000   0.472251   11.880406
 0.905000   0.535951   12.601234
 0.910000   0.598263   11.895257
 0.915000   0.654904   10.411941
 0.920000   0.702382   11.524359
 0.925000   0.770147   7.655265
 0.930000   0.778935   2.175943
 0.935000   0.791907   1.786400
 0.940000   0.796799   -0.247437
 0.945000   0.789432   -2.785259
 0.950000   0.768946   -0.311518
 0.955000   0.786317   -9.080457
 0.960000   0.678142   -24.224903
 0.965000   0.544068   -32.937536
 0.970000   0.348766   -49.624794
 0.975000   0.047820   -73.204947
 0.980000   -0.383283   -94.007469
 0.985000   -0.892255   -107.387531
 0.990000   -1.457158   -90.122478
 0.995000   -1.793479   -25.921256
 1.000000   -1.716371   56.764656
201 psinorm nz1(10^20/m^3) dnz1/dpsiN
 0.000000   0.016319   0.000011
 0.005000   0.016318   -0.000624
 0.010000   0.016313   -0.001274
 0.015000   0.016305   -0.001954
 0.020000   0.016293   -0.002662
 0.025000   0.016278   -0.003391
 0.030000   0.016259   -0.004136
 0.035000   0.016237   -0.004889
 0.040000   0.016211   -0.005641
 0.045000   0.016180   -0.006384
 0.050000   0.016147   -0.007114
 0.055000   0.016109   -0.007821
 0.060000   0.016069   -0.008500
 0.065000   0.016024   -0.009146
 0.070000   0.015977   -0.009751
 0.075000   0.015927   -0.010319
 0.080000   0.015874   -0.010856
 0.085000   0.015818   -0.011355
 0.090000   0.015760   -0.011813
 0.095000   0.015700   -0.012227
 0.100000   0.015638   -0.012595
 0.105000   0.015574   -0.012925
 0.110000   0.015509   -0.013230
 0.115000   0.015442   -0.013507
 0.120000   0.015374   -0.013752
 0.125000   0.015304   -0.013966
 0.130000   0.015234   -0.014146
 0.135000   0.015163   -0.014296
 0.140000   0.015091   -0.014420
 0.145000   0.015019   -0.014515
 0.150000   0.014946   -0.014579
 0.155000   0.014873   -0.014610
 0.160000   0.014800   -0.014606
 0.165000   0.014727   -0.014567
 0.170000   0.014654   -0.014493
 0.175000   0.014582   -0.014386
 0.180000   0.014510   -0.014247
 0.185000   0.014439   -0.014076
 0.190000   0.014370   -0.013875
 0.195000   0.014301   -0.013644
 0.200000   0.014233   -0.013387
 0.205000   0.014167   -0.013106
 0.210000   0.014102   -0.012802
 0.215000   0.014039   -0.012478
 0.220000   0.013977   -0.012137
 0.225000   0.013917   -0.011786
 0.230000   0.013859   -0.011431
 0.235000   0.013803   -0.011072
 0.240000   0.013749   -0.010704
 0.245000   0.013696   -0.010326
 0.250000   0.013645   -0.009938
 0.255000   0.013597   -0.009540
 0.260000   0.013550   -0.009123
 0.265000   0.013506   -0.008679
 0.270000   0.013463   -0.008213
 0.275000   0.013423   -0.007725
 0.280000   0.013386   -0.007215
 0.285000   0.013351   -0.006684
 0.290000   0.013319   -0.006134
 0.295000   0.013290   -0.005565
 0.300000   0.013264   -0.004986
 0.305000   0.013240   -0.004400
 0.310000   0.013220   -0.003811
 0.315000   0.013202   -0.003222
 0.320000   0.013187   -0.002639
 0.325000   0.013176   -0.002069
 0.330000   0.013167   -0.001513
 0.335000   0.013160   -0.000974
 0.340000   0.013157   -0.000452
 0.345000   0.013156   0.000051
 0.350000   0.013157   0.000537
 0.355000   0.013161   0.001008
 0.360000   0.013167   0.001467
 0.365000   0.013176   0.001916
 0.370000   0.013187   0.002354
 0.375000   0.013199   0.002783
 0.380000   0.013214   0.003199
 0.385000   0.013231   0.003599
 0.390000   0.013250   0.003980
 0.395000   0.013271   0.004340
 0.400000   0.013294   0.004676
 0.405000   0.013318   0.004985
 0.410000   0.013344   0.005264
 0.415000   0.013371   0.005510
 0.420000   0.013399   0.005721
 0.425000   0.013428   0.005897
 0.430000   0.013458   0.006037
 0.435000   0.013488   0.006136
 0.440000   0.013519   0.006196
 0.445000   0.013550   0.006224
 0.450000   0.013581   0.006223
 0.455000   0.013612   0.006192
 0.460000   0.013643   0.006134
 0.465000   0.013674   0.006050
 0.470000   0.013704   0.005942
 0.475000   0.013733   0.005813
 0.480000   0.013762   0.005659
 0.485000   0.013790   0.005478
 0.490000   0.013817   0.005266
 0.495000   0.013842   0.005023
 0.500000   0.013867   0.004747
 0.505000   0.013890   0.004435
 0.510000   0.013911   0.004091
 0.515000   0.013931   0.003715
 0.520000   0.013948   0.003310
 0.525000   0.013964   0.002879
 0.530000   0.013977   0.002423
 0.535000   0.013988   0.001946
 0.540000   0.013997   0.001453
 0.545000   0.014003   0.000944
 0.550000   0.014006   0.000424
 0.555000   0.014007   -0.000107
 0.560000   0.014005   -0.000645
 0.565000   0.014000   -0.001189
 0.570000   0.013993   -0.001739
 0.575000   0.013983   -0.002293
 0.580000   0.013970   -0.002852
 0.585000   0.013955   -0.003414
 0.590000   0.013936   -0.003978
 0.595000   0.013915   -0.004541
 0.600000   0.013891   -0.005100
 0.605000   0.013864   -0.005655
 0.610000   0.013834   -0.006202
 0.615000   0.013802   -0.006740
 0.620000   0.013767   -0.007270
 0.625000   0.013729   -0.007795
 0.630000   0.013689   -0.008317
 0.635000   0.013646   -0.008839
 0.640000   0.013600   -0.009359
 0.645000   0.013552   -0.009878
 0.650000   0.013502   -0.010402
 0.655000   0.013448   -0.010921
 0.660000   0.013392   -0.011421
 0.665000   0.013334   -0.011902
 0.670000   0.013273   -0.012359
 0.675000   0.013210   -0.012791
 0.680000   0.013145   -0.013216
 0.685000   0.013078   -0.013670
 0.690000   0.013009   -0.014178
 0.695000   0.012937   -0.014746
 0.700000   0.012861   -0.015371
 0.705000   0.012783   -0.016042
 0.710000   0.012701   -0.016783
 0.715000   0.012615   -0.017546
 0.720000   0.012525   -0.018225
 0.725000   0.012433   -0.018801
 0.730000   0.012337   -0.019271
 0.735000   0.012240   -0.019617
 0.740000   0.012141   -0.019834
 0.745000   0.012042   -0.019884
 0.750000   0.011942   -0.019729
 0.755000   0.011844   -0.019392
 0.760000   0.011748   -0.018898
 0.765000   0.011655   -0.018261
 0.770000   0.011566   -0.017476
 0.775000   0.011481   -0.016549
 0.780000   0.011400   -0.015569
 0.785000   0.011325   -0.014602
 0.790000   0.011254   -0.013662
 0.795000   0.011188   -0.012772
 0.800000   0.011127   -0.011941
 0.805000   0.011069   -0.011186
 0.810000   0.011015   -0.010547
 0.815000   0.010963   -0.010019
 0.820000   0.010915   -0.009567
 0.825000   0.010868   -0.009172
 0.830000   0.010823   -0.008814
 0.835000   0.010780   -0.008469
 0.840000   0.010738   -0.008123
 0.845000   0.010698   -0.007781
 0.850000   0.010660   -0.007455
 0.855000   0.010624   -0.007150
 0.860000   0.010589   -0.006872
 0.865000   0.010555   -0.006621
 0.870000   0.010523   -0.006425
 0.875000   0.010491   -0.006314
 0.880000   0.010459   -0.006296
 0.885000   0.010428   -0.006378
 0.890000   0.010396   -0.006568
 0.895000   0.010362   -0.006916
 0.900000   0.010327   -0.007449
 0.905000   0.010288   -0.008210
 0.910000   0.010244   -0.009303
 0.915000   0.010195   -0.010831
 0.920000   0.010136   -0.012946
 0.925000   0.010065   -0.016165
 0.930000   0.009974   -0.020789
 0.935000   0.009857   -0.027032
 0.940000   0.009704   -0.035581
 0.945000   0.009502   -0.047120
 0.950000   0.009233   -0.062251
 0.955000   0.008879   -0.082092
 0.960000   0.008412   -0.105461
 0.965000   0.007824   -0.129207
 0.970000   0.007120   -0.150421
 0.975000   0.006320   -0.165281
 0.980000   0.005467   -0.170436
 0.985000   0.004616   -0.164890
 0.990000   0.003818   -0.149462
 0.995000   0.003121   -0.127323
 1.000000   0.002545   -0.103168
201 psinorm vtor1(km/s) dvtor1/dpsiN
 0.000000   100.622216   501.748693
 0.005000   102.567752   276.465788
 0.010000   103.386874   143.961874
 0.015000   104.007371   113.078917
 0.020000   104.517663   94.703864
 0.025000   104.954410   82.230652
 0.030000   105.339970   72.789671
 0.035000   105.682306   64.208594
 0.040000   105.982055   56.350210
 0.045000   106.245808   49.368226
 0.050000   106.475738   42.629853
 0.055000   106.672107   35.946695
 0.060000   106.835205   29.570155
 0.065000   106.967808   23.553905
 0.070000   107.070744   17.817250
 0.075000   107.145981   12.443636
 0.080000   107.195180   7.372526
 0.085000   107.219706   2.514477
 0.090000   107.220325   -2.231071
 0.095000   107.197395   -6.826543
 0.100000   107.152059   -11.181672
 0.105000   107.085579   -15.421608
 0.110000   106.997843   -19.595842
 0.115000   106.889620   -23.577767
 0.120000   106.762066   -27.338368
 0.125000   106.616237   -31.046378
 0.130000   106.451602   -34.658275
 0.135000   106.269654   -38.131113
 0.140000   106.070291   -41.627247
 0.145000   105.853381   -45.079970
 0.150000   105.619491   -48.380500
 0.155000   105.369576   -51.543938
 0.160000   105.104052   -54.640614
 0.165000   104.823170   -57.645129
 0.170000   104.527600   -60.540950
 0.175000   104.217761   -63.327087
 0.180000   103.894330   -65.989660
 0.185000   103.557864   -68.512134
 0.190000   103.209208   -70.883677
 0.195000   102.849027   -73.164754
 0.200000   102.477561   -75.368450
 0.205000   102.095343   -77.412859
 0.210000   101.703432   -79.233991
 0.215000   101.303003   -80.815193
 0.220000   100.895280   -82.085112
 0.225000   100.482152   -82.971347
 0.230000   100.065567   -83.596762
 0.235000   99.646184   -84.032382
 0.240000   99.225243   -84.226268
 0.245000   98.803922   -84.202791
 0.250000   98.383215   -83.986307
 0.255000   97.964059   -83.497966
 0.260000   97.548235   -82.827050
 0.265000   97.135788   -82.083209
 0.270000   96.727403   -81.219290
 0.275000   96.323595   -80.261860
 0.280000   95.924785   -79.240442
 0.285000   95.531191   -78.185732
 0.290000   95.142927   -77.191470
 0.295000   94.759276   -76.281667
 0.300000   94.380111   -75.373122
 0.305000   94.005545   -74.416016
 0.310000   93.635950   -73.344742
 0.315000   93.272097   -72.089480
 0.320000   92.915056   -70.647041
 0.325000   92.565627   -69.051908
 0.330000   92.224537   -67.309142
 0.335000   91.892536   -65.435774
 0.340000   91.570179   -63.463353
 0.345000   91.257902   -61.372500
 0.350000   90.956454   -59.200667
 0.355000   90.665895   -57.002761
 0.360000   90.386426   -54.766572
 0.365000   90.118230   -52.501045
 0.370000   89.861416   -50.221154
 0.375000   89.616018   -47.927279
 0.380000   89.382143   -45.626604
 0.385000   89.159752   -43.324052
 0.390000   88.948902   -41.005513
 0.395000   88.749697   -38.660236
 0.400000   88.562300   -36.287772
 0.405000   88.386819   -33.893517
 0.410000   88.223365   -31.505292
 0.415000   88.071766   -29.153677
 0.420000   87.931828   -26.858197
 0.425000   87.803184   -24.656733
 0.430000   87.685261   -22.572629
 0.435000   87.577458   -20.633827
 0.440000   87.478923   -18.860115
 0.445000   87.388857   -17.189607
 0.450000   87.307026   -15.559361
 0.455000   87.233263   -13.960676
 0.460000   87.167420   -12.383712
 0.465000   87.109426   -10.837506
 0.470000   87.059045   -9.310154
 0.475000   87.016325   -7.745828
 0.480000   86.981586   -6.146931
 0.485000   86.954855   -4.552431
 0.490000   86.936062   -2.981857
 0.495000   86.925037   -1.456123
 0.500000   86.921501   0.005919
 0.505000   86.925096   1.389537
 0.510000   86.935396   2.655326
 0.515000   86.951649   3.744294
 0.520000   86.972839   4.610420
 0.525000   86.997753   5.227232
 0.530000   87.025111   5.553335
 0.535000   87.053287   5.578039
 0.540000   87.080892   5.294779
 0.545000   87.106235   4.628319
 0.550000   87.127175   3.488012
 0.555000   87.141115   1.765740
 0.560000   87.144832   -0.715073
 0.565000   87.133964   -4.021222
 0.570000   87.104620   -8.216904
 0.575000   87.051795   -13.469015
 0.580000   86.969930   -19.865605
 0.585000   86.853139   -27.458888
 0.590000   86.695341   -36.312256
 0.595000   86.490016   -46.207395
 0.600000   86.233267   -56.908925
 0.605000   85.920927   -68.348954
 0.610000   85.549778   -80.315005
 0.615000   85.117777   -92.574586
 0.620000   84.624032   -104.677558
 0.625000   84.071001   -116.403999
 0.630000   83.459992   -127.710616
 0.635000   82.793895   -138.339108
 0.640000   82.076601   -148.124383
 0.645000   81.312651   -156.961938
 0.650000   80.506981   -164.388852
 0.655000   79.668763   -170.777948
 0.660000   78.799202   -176.809744
 0.665000   77.900665   -182.426205
 0.670000   76.974940   -187.824207
 0.675000   76.022423   -193.270717
 0.680000   75.042233   -199.115849
 0.685000   74.031265   -205.740053
 0.690000   72.984832   -212.803909
 0.695000   71.903226   -219.460588
 0.700000   70.790226   -225.063907
 0.705000   69.652587   -229.091991
 0.710000   68.499306   -231.137010
 0.715000   67.341217   -231.206409
 0.720000   66.187242   -229.824709
 0.725000   65.042970   -227.358506
 0.730000   63.913657   -223.889417
 0.735000   62.804075   -219.508479
 0.740000   61.718572   -214.243150
 0.745000   60.661644   -208.239629
 0.750000   59.636176   -201.708838
 0.755000   58.644555   -194.714062
 0.760000   57.689035   -187.393939
 0.765000   56.770616   -180.001321
 0.770000   55.889022   -172.992590
 0.775000   55.040690   -166.764834
 0.780000   54.221374   -160.636155
 0.785000   53.434329   -153.787510
 0.790000   52.683499   -146.034399
 0.795000   51.973985   -137.243562
 0.800000   51.311063   -127.581768
 0.805000   50.698167   -117.283183
 0.810000   50.138231   -106.385065
 0.815000   49.634316   -95.444402
 0.820000   49.183787   -85.306578
 0.825000   48.781251   -76.513955
 0.830000   48.418648   -69.641495
 0.835000   48.084836   -65.303622
 0.840000   47.765612   -63.884099
 0.845000   47.445995   -65.854278
 0.850000   47.107069   -71.859624
 0.855000   46.727398   -82.386178
 0.860000   46.283207   -97.968893
 0.865000   45.747709   -119.568144
 0.870000   45.087526   -147.562042
 0.875000   44.272089   -181.981308
 0.880000   43.267713   -223.143310
 0.885000   42.040656   -270.831918
 0.890000   40.559393   -324.320893
 0.895000   38.797447   -383.422624
 0.900000   36.725167   -443.798501
 0.905000   34.359462   -500.152298
 0.910000   31.723644   -549.707896
 0.915000   28.862383   -588.144101
 0.920000   25.842203   -611.276127
 0.925000   22.749622   -616.158854
 0.930000   19.680615   -599.437472
 0.935000   16.755247   -559.972418
 0.940000   14.080890   -500.355211
 0.945000   11.751695   -424.240213
 0.950000   9.838488   -337.190130
 0.955000   8.379794   -245.856273
 0.960000   7.379926   -158.254988
 0.965000   6.797244   -81.727035
 0.970000   6.562655   -20.647873
 0.975000   6.590765   22.746601
 0.980000   6.790121   48.210135
 0.985000   7.072866   57.018302
 0.990000   7.360304   51.970613
 0.995000   7.592572   36.575665
 1.000000   7.726061   16.819697
201 psinorm vpol1(km/s) dvpol1/dpsiN
 0.000000   0.000004   3.996484
 0.005000   0.022008   4.805078
 0.010000   0.048055   5.603516
 0.015000   0.078043   6.371094
 0.020000   0.111766   7.075781
 0.025000   0.148801   7.676563
 0.030000   0.188531   8.125781
 0.035000   0.230059   8.450000
 0.040000   0.273031   8.701563
 0.045000   0.317074   8.905469
 0.050000   0.362086   9.085937
 0.055000   0.407934   9.268359
 0.060000   0.454770   9.479688
 0.065000   0.502730   9.712109
 0.070000   0.551891   9.926172
 0.075000   0.601992   10.103906
 0.080000   0.652930   10.235156
 0.085000   0.704344   10.291797
 0.090000   0.755848   10.260156
 0.095000   0.806945   10.151953
 0.100000   0.857367   9.992969
 0.105000   0.906875   9.782422
 0.110000   0.955191   9.522266
 0.115000   1.002098   9.233203
 0.120000   1.047523   8.947656
 0.125000   1.091574   8.701172
 0.130000   1.134535   8.494141
 0.135000   1.176516   8.327344
 0.140000   1.217809   8.207031
 0.145000   1.258586   8.114063
 0.150000   1.298949   8.023047
 0.155000   1.338816   7.894141
 0.160000   1.377891   7.715234
 0.165000   1.415969   7.494141
 0.170000   1.452832   7.232813
 0.175000   1.488297   6.920313
 0.180000   1.522035   6.559766
 0.185000   1.553895   6.183984
 0.190000   1.583875   5.802734
 0.195000   1.611922   5.408984
 0.200000   1.637965   5.017578
 0.205000   1.662098   4.622656
 0.210000   1.684191   4.253516
 0.215000   1.704633   3.920703
 0.220000   1.723398   3.610938
 0.225000   1.740742   3.310547
 0.230000   1.756504   3.006641
 0.235000   1.770809   2.707031
 0.240000   1.783574   2.398828
 0.245000   1.794797   2.084766
 0.250000   1.804422   1.769531
 0.255000   1.812492   1.454688
 0.260000   1.818969   1.136328
 0.265000   1.823855   0.820703
 0.270000   1.827176   0.507031
 0.275000   1.828926   0.186328
 0.280000   1.829039   -0.146094
 0.285000   1.827465   -0.491016
 0.290000   1.824129   -0.874219
 0.295000   1.818723   -1.318750
 0.300000   1.810941   -1.819531
 0.305000   1.800527   -2.382031
 0.310000   1.787121   -3.012109
 0.315000   1.770406   -3.703516
 0.320000   1.750086   -4.454297
 0.325000   1.725863   -5.231641
 0.330000   1.697770   -5.998047
 0.335000   1.665883   -6.734375
 0.340000   1.630426   -7.412500
 0.345000   1.591758   -8.016797
 0.350000   1.550258   -8.490234
 0.355000   1.506855   -8.828516
 0.360000   1.461973   -9.092578
 0.365000   1.415930   -9.298437
 0.370000   1.368988   -9.466797
 0.375000   1.321262   -9.616406
 0.380000   1.272824   -9.780078
 0.385000   1.223461   -10.030078
 0.390000   1.172523   -10.395703
 0.395000   1.119504   -10.826562
 0.400000   1.064258   -11.292578
 0.405000   1.006578   -11.749219
 0.410000   0.946766   -12.182812
 0.415000   0.884750   -12.596094
 0.420000   0.820805   -13.050000
 0.425000   0.754250   -13.701172
 0.430000   0.683793   -14.666406
 0.435000   0.607586   -16.131641
 0.440000   0.522477   -18.389062
 0.445000   0.423695   -21.221094
 0.450000   0.310266   -24.337109
 0.455000   0.180324   -27.790625
 0.460000   0.032359   -31.475000
 0.465000   -0.134426   -35.321484
 0.470000   -0.320855   -39.102344
 0.475000   -0.525449   -42.214453
 0.480000   -0.743000   -44.401172
 0.485000   -0.969461   -45.682422
 0.490000   -1.199824   -45.950000
 0.495000   -1.428961   -44.972266
 0.500000   -1.649547   -42.634766
 0.505000   -1.855309   -39.502344
 0.510000   -2.044570   -36.019531
 0.515000   -2.215504   -32.297656
 0.520000   -2.367547   -28.573047
 0.525000   -2.501234   -24.910156
 0.530000   -2.616648   -21.876953
 0.535000   -2.720004   -20.118750
 0.540000   -2.817836   -19.469141
 0.545000   -2.914695   -19.643359
 0.550000   -3.014270   -20.405469
 0.555000   -3.118750   -21.673047
 0.560000   -3.231000   -23.104688
 0.565000   -3.349797   -24.264453
 0.570000   -3.473645   -25.113281
 0.575000   -3.600930   -25.598438
 0.580000   -3.729629   -25.643750
 0.585000   -3.857367   -25.215234
 0.590000   -3.981781   -24.176953
 0.595000   -4.099137   -22.544531
 0.600000   -4.207227   -20.553516
 0.605000   -4.304672   -18.330469
 0.610000   -4.390531   -15.974609
 0.615000   -4.464418   -13.524219
 0.620000   -4.525773   -11.216797
 0.625000   -4.576586   -9.241016
 0.630000   -4.618184   -7.536719
 0.635000   -4.651953   -6.100781
 0.640000   -4.679191   -4.919922
 0.645000   -4.701152   -3.980469
 0.650000   -4.718996   -3.246875
 0.655000   -4.733621   -2.639062
 0.660000   -4.745387   -2.078125
 0.665000   -4.754402   -1.539844
 0.670000   -4.760785   -1.018750
 0.675000   -4.764590   -0.502344
 0.680000   -4.765809   0.013672
 0.685000   -4.764453   0.540625
 0.690000   -4.760402   1.133203
 0.695000   -4.753121   1.871094
 0.700000   -4.741691   2.850000
 0.705000   -4.724621   4.183594
 0.710000   -4.699855   5.860156
 0.715000   -4.666020   7.841016
 0.720000   -4.621445   10.082422
 0.725000   -4.565195   12.468750
 0.730000   -4.496758   14.896875
 0.735000   -4.416227   17.046484
 0.740000   -4.326293   18.594531
 0.745000   -4.230281   19.455078
 0.750000   -4.131742   19.610547
 0.755000   -4.034176   19.068750
 0.760000   -3.941055   17.760938
 0.765000   -3.856566   15.948047
 0.770000   -3.781574   14.092969
 0.775000   -3.715637   12.397266
 0.780000   -3.657602   10.988672
 0.785000   -3.605750   9.953906
 0.790000   -3.558063   9.390234
 0.795000   -3.511848   9.203906
 0.800000   -3.466023   9.076172
 0.805000   -3.421086   8.728906
 0.810000   -3.378734   7.965234
 0.815000   -3.341434   6.685156
 0.820000   -3.311883   4.864062
 0.825000   -3.292793   2.566797
 0.830000   -3.286215   0.045313
 0.835000   -3.292340   -2.388281
 0.840000   -3.310098   -4.508594
 0.845000   -3.337426   -6.157031
 0.850000   -3.371668   -7.250391
 0.855000   -3.409930   -7.878125
 0.860000   -3.450449   -8.183203
 0.865000   -3.491762   -8.225781
 0.870000   -3.532707   -8.092578
 0.875000   -3.572688   -7.854297
 0.880000   -3.611250   -7.572656
 0.885000   -3.648414   -7.271484
 0.890000   -3.683965   -6.890234
 0.895000   -3.717316   -6.362891
 0.900000   -3.747594   -5.647266
 0.905000   -3.773789   -4.726562
 0.910000   -3.794859   -3.642969
 0.915000   -3.810219   -2.480859
 0.920000   -3.819668   -1.283203
 0.925000   -3.823051   -0.088281
 0.930000   -3.820551   1.085156
 0.935000   -3.812199   2.325781
 0.940000   -3.797293   3.916016
 0.945000   -3.773039   6.268750
 0.950000   -3.734605   9.932422
 0.955000   -3.673715   15.815625
 0.960000   -3.576449   25.464844
 0.965000   -3.419066   42.614062
 0.970000   -3.150309   71.598437
 0.975000   -2.703082   117.251562
 0.980000   -1.977793   184.743750
 0.985000   -0.855645   271.391016
 0.990000   0.736117   355.703906
 0.995000   2.701395   392.594531
 1.000000   4.662063   391.672656
3 N Z A of ION SPECIES
 6.000000   6.000000   12.010700
 1.000000   1.000000   2.000000
 1.000000   1.000000   2.000000
