201 psinorm ne(10^20/m^3) dne/dpsiN
 0.000000   0.508801   -0.464772
 0.005000   0.506486   -0.461185
 0.010000   0.504189   -0.457613
 0.015000   0.501910   -0.454071
 0.020000   0.499648   -0.450557
 0.025000   0.497404   -0.447073
 0.030000   0.495178   -0.443618
 0.035000   0.492968   -0.440191
 0.040000   0.490776   -0.436792
 0.045000   0.488600   -0.433421
 0.050000   0.486441   -0.430078
 0.055000   0.484299   -0.426762
 0.060000   0.482174   -0.423473
 0.065000   0.480065   -0.420211
 0.070000   0.477972   -0.416975
 0.075000   0.475895   -0.413766
 0.080000   0.473834   -0.410583
 0.085000   0.471789   -0.407425
 0.090000   0.469760   -0.404293
 0.095000   0.467746   -0.401187
 0.100000   0.465748   -0.398105
 0.105000   0.463765   -0.395048
 0.110000   0.461797   -0.392016
 0.115000   0.459845   -0.389009
 0.120000   0.457907   -0.386025
 0.125000   0.455985   -0.383065
 0.130000   0.454077   -0.380129
 0.135000   0.452183   -0.377216
 0.140000   0.450305   -0.374326
 0.145000   0.448440   -0.371460
 0.150000   0.446590   -0.368616
 0.155000   0.444754   -0.365794
 0.160000   0.442932   -0.362995
 0.165000   0.441124   -0.360218
 0.170000   0.439330   -0.357463
 0.175000   0.437549   -0.354729
 0.180000   0.435783   -0.352017
 0.185000   0.434029   -0.349326
 0.190000   0.432289   -0.346657
 0.195000   0.430563   -0.344008
 0.200000   0.428849   -0.341379
 0.205000   0.427149   -0.338771
 0.210000   0.425461   -0.336184
 0.215000   0.423787   -0.333616
 0.220000   0.422125   -0.331069
 0.225000   0.420476   -0.328541
 0.230000   0.418840   -0.326032
 0.235000   0.417216   -0.323543
 0.240000   0.415604   -0.321073
 0.245000   0.414005   -0.318622
 0.250000   0.412418   -0.316189
 0.255000   0.410843   -0.313775
 0.260000   0.409281   -0.311380
 0.265000   0.407730   -0.309003
 0.270000   0.406190   -0.306643
 0.275000   0.404663   -0.304302
 0.280000   0.403147   -0.301979
 0.285000   0.401643   -0.299672
 0.290000   0.400151   -0.297384
 0.295000   0.398670   -0.295112
 0.300000   0.397200   -0.292858
 0.305000   0.395741   -0.290620
 0.310000   0.394293   -0.288399
 0.315000   0.392857   -0.286195
 0.320000   0.391431   -0.284007
 0.325000   0.390017   -0.281836
 0.330000   0.388613   -0.279680
 0.335000   0.387220   -0.277540
 0.340000   0.385838   -0.275417
 0.345000   0.384466   -0.273308
 0.350000   0.383105   -0.271216
 0.355000   0.381754   -0.269138
 0.360000   0.380413   -0.267076
 0.365000   0.379083   -0.265029
 0.370000   0.377763   -0.262997
 0.375000   0.376453   -0.260980
 0.380000   0.375153   -0.258977
 0.385000   0.373863   -0.256989
 0.390000   0.372583   -0.255015
 0.395000   0.371313   -0.253055
 0.400000   0.370053   -0.251109
 0.405000   0.368802   -0.249178
 0.410000   0.367561   -0.247260
 0.415000   0.366329   -0.245356
 0.420000   0.365107   -0.243465
 0.425000   0.363895   -0.241588
 0.430000   0.362692   -0.239724
 0.435000   0.361498   -0.237873
 0.440000   0.360313   -0.236036
 0.445000   0.359137   -0.234211
 0.450000   0.357971   -0.232399
 0.455000   0.356813   -0.230600
 0.460000   0.355665   -0.228813
 0.465000   0.354525   -0.227039
 0.470000   0.353394   -0.225277
 0.475000   0.352272   -0.223527
 0.480000   0.351159   -0.221790
 0.485000   0.350054   -0.220064
 0.490000   0.348958   -0.218350
 0.495000   0.347871   -0.216648
 0.500000   0.346792   -0.214958
 0.505000   0.345721   -0.213279
 0.510000   0.344659   -0.211612
 0.515000   0.343605   -0.209956
 0.520000   0.342560   -0.208311
 0.525000   0.341522   -0.206677
 0.530000   0.340493   -0.205055
 0.535000   0.339472   -0.203443
 0.540000   0.338458   -0.201842
 0.545000   0.337453   -0.200251
 0.550000   0.336456   -0.198671
 0.555000   0.335466   -0.197102
 0.560000   0.334485   -0.195543
 0.565000   0.333511   -0.193995
 0.570000   0.332545   -0.192456
 0.575000   0.331586   -0.190928
 0.580000   0.330636   -0.189409
 0.585000   0.329692   -0.187901
 0.590000   0.328757   -0.186402
 0.595000   0.327828   -0.184913
 0.600000   0.326907   -0.183434
 0.605000   0.325994   -0.181964
 0.610000   0.325088   -0.180504
 0.615000   0.324189   -0.179052
 0.620000   0.323297   -0.177611
 0.625000   0.322413   -0.176178
 0.630000   0.321535   -0.174754
 0.635000   0.320665   -0.173340
 0.640000   0.319802   -0.171934
 0.645000   0.318946   -0.170537
 0.650000   0.318097   -0.169149
 0.655000   0.317254   -0.167770
 0.660000   0.316419   -0.166399
 0.665000   0.315590   -0.165036
 0.670000   0.314769   -0.163682
 0.675000   0.313954   -0.162336
 0.680000   0.313145   -0.160999
 0.685000   0.312344   -0.159670
 0.690000   0.311549   -0.158348
 0.695000   0.310760   -0.157035
 0.700000   0.309978   -0.155730
 0.705000   0.309203   -0.154432
 0.710000   0.308434   -0.153142
 0.715000   0.307671   -0.151860
 0.720000   0.306915   -0.150586
 0.725000   0.306166   -0.149319
 0.730000   0.305422   -0.148060
 0.735000   0.304685   -0.146808
 0.740000   0.303954   -0.145563
 0.745000   0.303229   -0.144325
 0.750000   0.302511   -0.143095
 0.755000   0.301798   -0.141872
 0.760000   0.301092   -0.140656
 0.765000   0.300392   -0.139446
 0.770000   0.299698   -0.138244
 0.775000   0.299009   -0.137049
 0.780000   0.298327   -0.135860
 0.785000   0.297651   -0.134678
 0.790000   0.296980   -0.133502
 0.795000   0.296316   -0.132334
 0.800000   0.295657   -0.131171
 0.805000   0.295004   -0.130015
 0.810000   0.294357   -0.128866
 0.815000   0.293715   -0.127722
 0.820000   0.293080   -0.126585
 0.825000   0.292450   -0.125454
 0.830000   0.291825   -0.124330
 0.835000   0.291206   -0.123211
 0.840000   0.290593   -0.122098
 0.845000   0.289985   -0.120991
 0.850000   0.289383   -0.119890
 0.855000   0.288786   -0.118795
 0.860000   0.288195   -0.117705
 0.865000   0.287609   -0.116622
 0.870000   0.287029   -0.115543
 0.875000   0.286454   -0.114471
 0.880000   0.285884   -0.113403
 0.885000   0.285320   -0.112341
 0.890000   0.284761   -0.111283
 0.895000   0.284207   -0.110230
 0.900000   0.283659   -0.109179
 0.905000   0.283115   -0.108130
 0.910000   0.282577   -0.107085
 0.915000   0.282044   -0.106062
 0.920000   0.281517   -0.105137
 0.925000   0.280993   -0.104589
 0.930000   0.280471   -0.105347
 0.935000   0.279940   -0.110361
 0.940000   0.279367   -0.128637
 0.945000   0.278653   -0.186719
 0.950000   0.277500   -0.359184
 0.955000   0.275061   -0.836128
 0.960000   0.269139   -1.995982
 0.965000   0.255102   -4.156026
 0.970000   0.227578   -6.535002
 0.975000   0.189751   -7.183034
 0.980000   0.155748   -5.650699
 0.985000   0.133245   -3.621158
 0.990000   0.119536   -2.280407
 0.995000   0.110440   -1.598646
 1.000000   0.103550   -1.157534
201 psinorm te(KeV) dte/dpsiN
 0.000000   4.330201   -5.343245
 0.005000   4.303530   -5.325208
 0.010000   4.276949   -5.307134
 0.015000   4.250459   -5.288989
 0.020000   4.224059   -5.270774
 0.025000   4.197751   -5.252490
 0.030000   4.171534   -5.234139
 0.035000   4.145410   -5.215722
 0.040000   4.119377   -5.197240
 0.045000   4.093437   -5.178695
 0.050000   4.067590   -5.160088
 0.055000   4.041836   -5.141420
 0.060000   4.016176   -5.122693
 0.065000   3.990609   -5.103908
 0.070000   3.965137   -5.085067
 0.075000   3.939759   -5.066171
 0.080000   3.914475   -5.047221
 0.085000   3.889286   -5.028218
 0.090000   3.864193   -5.009164
 0.095000   3.839195   -4.990060
 0.100000   3.814292   -4.970908
 0.105000   3.789486   -4.951708
 0.110000   3.764775   -4.932462
 0.115000   3.740161   -4.913172
 0.120000   3.715644   -4.893838
 0.125000   3.691223   -4.874462
 0.130000   3.666899   -4.855046
 0.135000   3.642672   -4.835590
 0.140000   3.618543   -4.816095
 0.145000   3.594511   -4.796564
 0.150000   3.570577   -4.776997
 0.155000   3.546741   -4.757395
 0.160000   3.523003   -4.737760
 0.165000   3.499364   -4.718094
 0.170000   3.475822   -4.698396
 0.175000   3.452380   -4.678669
 0.180000   3.429036   -4.658913
 0.185000   3.405791   -4.639130
 0.190000   3.382645   -4.619322
 0.195000   3.359597   -4.599489
 0.200000   3.336650   -4.579632
 0.205000   3.313801   -4.559753
 0.210000   3.291052   -4.539853
 0.215000   3.268403   -4.519933
 0.220000   3.245853   -4.499994
 0.225000   3.223403   -4.480037
 0.230000   3.201052   -4.460064
 0.235000   3.178802   -4.440076
 0.240000   3.156652   -4.420073
 0.245000   3.134601   -4.400057
 0.250000   3.112651   -4.380030
 0.255000   3.090801   -4.359992
 0.260000   3.069051   -4.339944
 0.265000   3.047402   -4.319887
 0.270000   3.025852   -4.299823
 0.275000   3.004403   -4.279752
 0.280000   2.983055   -4.259677
 0.285000   2.961807   -4.239597
 0.290000   2.940659   -4.219514
 0.295000   2.919611   -4.199428
 0.300000   2.898665   -4.179342
 0.305000   2.877818   -4.159256
 0.310000   2.857072   -4.139171
 0.315000   2.836426   -4.119087
 0.320000   2.815881   -4.099007
 0.325000   2.795436   -4.078931
 0.330000   2.775092   -4.058861
 0.335000   2.754848   -4.038796
 0.340000   2.734704   -4.018739
 0.345000   2.714660   -3.998689
 0.350000   2.694717   -3.978649
 0.355000   2.674874   -3.958619
 0.360000   2.655131   -3.938599
 0.365000   2.635488   -3.918592
 0.370000   2.615945   -3.898598
 0.375000   2.596502   -3.878617
 0.380000   2.577159   -3.858652
 0.385000   2.557915   -3.838702
 0.390000   2.538772   -3.818769
 0.395000   2.519728   -3.798853
 0.400000   2.500783   -3.778956
 0.405000   2.481938   -3.759078
 0.410000   2.463192   -3.739220
 0.415000   2.444546   -3.719383
 0.420000   2.425998   -3.699569
 0.425000   2.407550   -3.679777
 0.430000   2.389201   -3.660009
 0.435000   2.370950   -3.640265
 0.440000   2.352798   -3.620547
 0.445000   2.334745   -3.600855
 0.450000   2.316790   -3.581189
 0.455000   2.298933   -3.561552
 0.460000   2.281174   -3.541943
 0.465000   2.263513   -3.522364
 0.470000   2.245950   -3.502815
 0.475000   2.228485   -3.483297
 0.480000   2.211117   -3.463810
 0.485000   2.193847   -3.444357
 0.490000   2.176674   -3.424936
 0.495000   2.159598   -3.405549
 0.500000   2.142618   -3.386197
 0.505000   2.125736   -3.366881
 0.510000   2.108950   -3.347601
 0.515000   2.092260   -3.328357
 0.520000   2.075666   -3.309151
 0.525000   2.059168   -3.289984
 0.530000   2.042766   -3.270855
 0.535000   2.026460   -3.251767
 0.540000   2.010248   -3.232718
 0.545000   1.994132   -3.213711
 0.550000   1.978111   -3.194745
 0.555000   1.962185   -3.175821
 0.560000   1.946353   -3.156940
 0.565000   1.930616   -3.138103
 0.570000   1.914972   -3.119311
 0.575000   1.899422   -3.100562
 0.580000   1.883966   -3.081860
 0.585000   1.868604   -3.063203
 0.590000   1.853334   -3.044593
 0.595000   1.838158   -3.026030
 0.600000   1.823074   -3.007515
 0.605000   1.808083   -2.989048
 0.610000   1.793184   -2.970631
 0.615000   1.778376   -2.952262
 0.620000   1.763661   -2.933944
 0.625000   1.749037   -2.915676
 0.630000   1.734504   -2.897459
 0.635000   1.720062   -2.879293
 0.640000   1.705711   -2.861180
 0.645000   1.691451   -2.843119
 0.650000   1.677280   -2.825112
 0.655000   1.663200   -2.807157
 0.660000   1.649209   -2.789257
 0.665000   1.635307   -2.771412
 0.670000   1.621494   -2.753621
 0.675000   1.607771   -2.735886
 0.680000   1.594136   -2.718207
 0.685000   1.580589   -2.700584
 0.690000   1.567130   -2.683017
 0.695000   1.553759   -2.665508
 0.700000   1.540475   -2.648057
 0.705000   1.527278   -2.630663
 0.710000   1.514168   -2.613328
 0.715000   1.501145   -2.596052
 0.720000   1.488208   -2.578835
 0.725000   1.475356   -2.561677
 0.730000   1.462591   -2.544579
 0.735000   1.449911   -2.527542
 0.740000   1.437315   -2.510566
 0.745000   1.424805   -2.493650
 0.750000   1.412379   -2.476796
 0.755000   1.400037   -2.460003
 0.760000   1.387779   -2.443273
 0.765000   1.375604   -2.426604
 0.770000   1.363513   -2.409999
 0.775000   1.351504   -2.393456
 0.780000   1.339578   -2.376977
 0.785000   1.327734   -2.360561
 0.790000   1.315973   -2.344209
 0.795000   1.304292   -2.327922
 0.800000   1.292693   -2.311698
 0.805000   1.281175   -2.295539
 0.810000   1.269738   -2.279445
 0.815000   1.258381   -2.263415
 0.820000   1.247104   -2.247451
 0.825000   1.235906   -2.231551
 0.830000   1.224788   -2.215715
 0.835000   1.213749   -2.199944
 0.840000   1.202789   -2.184235
 0.845000   1.191907   -2.168589
 0.850000   1.181103   -2.153001
 0.855000   1.170377   -2.137470
 0.860000   1.159728   -2.121991
 0.865000   1.149157   -2.106561
 0.870000   1.138663   -2.091175
 0.875000   1.128245   -2.075833
 0.880000   1.117904   -2.060550
 0.885000   1.107640   -2.045367
 0.890000   1.097451   -2.030392
 0.895000   1.087336   -2.015872
 0.900000   1.077292   -2.002333
 0.905000   1.067312   -1.990860
 0.910000   1.057383   -1.983621
 0.915000   1.047476   -1.984876
 0.920000   1.037535   -2.002849
 0.925000   1.027448   -2.053211
 0.930000   1.017002   -2.165428
 0.935000   1.005793   -2.394071
 0.940000   0.993062   -2.838158
 0.945000   0.977412   -3.671561
 0.950000   0.956346   -5.182325
 0.955000   0.925589   -7.795983
 0.960000   0.878386   -11.994125
 0.965000   0.805647   -17.935492
 0.970000   0.699031   -24.644206
 0.975000   0.559205   -29.400693
 0.980000   0.405024   -29.086080
 0.985000   0.268345   -23.399782
 0.990000   0.171027   -15.598723
 0.995000   0.112357   -9.117839
 1.000000   0.079848   -3.885779
201 psinorm ni(10^20/m^3) dni/dpsiN
 0.000000   0.311655   -0.516308
 0.005000   0.309330   -0.413524
 0.010000   0.307520   -0.330570
 0.015000   0.306025   -0.273071
 0.020000   0.304789   -0.225184
 0.025000   0.303773   -0.184872
 0.030000   0.302940   -0.151591
 0.035000   0.302257   -0.123629
 0.040000   0.301704   -0.099542
 0.045000   0.301262   -0.079447
 0.050000   0.300910   -0.062363
 0.055000   0.300638   -0.048366
 0.060000   0.300426   -0.037598
 0.065000   0.300262   -0.029241
 0.070000   0.300133   -0.023090
 0.075000   0.300031   -0.018767
 0.080000   0.299946   -0.016103
 0.085000   0.299870   -0.014982
 0.090000   0.299796   -0.015027
 0.095000   0.299720   -0.015999
 0.100000   0.299636   -0.017959
 0.105000   0.299540   -0.021253
 0.110000   0.299423   -0.025268
 0.115000   0.299287   -0.029391
 0.120000   0.299130   -0.034033
 0.125000   0.298947   -0.039113
 0.130000   0.298738   -0.044556
 0.135000   0.298502   -0.050291
 0.140000   0.298236   -0.056124
 0.145000   0.297940   -0.062098
 0.150000   0.297615   -0.068304
 0.155000   0.297257   -0.074595
 0.160000   0.296869   -0.080882
 0.165000   0.296448   -0.087128
 0.170000   0.295997   -0.093286
 0.175000   0.295516   -0.099329
 0.180000   0.295004   -0.105238
 0.185000   0.294463   -0.110995
 0.190000   0.293894   -0.116572
 0.195000   0.293298   -0.121944
 0.200000   0.292675   -0.127111
 0.205000   0.292026   -0.132073
 0.210000   0.291354   -0.137198
 0.215000   0.290654   -0.142213
 0.220000   0.289932   -0.146610
 0.225000   0.289188   -0.150667
 0.230000   0.288425   -0.154485
 0.235000   0.287643   -0.158021
 0.240000   0.286845   -0.161308
 0.245000   0.286030   -0.164604
 0.250000   0.285199   -0.168008
 0.255000   0.284350   -0.170974
 0.260000   0.283489   -0.173443
 0.265000   0.282616   -0.175779
 0.270000   0.281731   -0.177975
 0.275000   0.280836   -0.180253
 0.280000   0.279929   -0.182603
 0.285000   0.279010   -0.184592
 0.290000   0.278083   -0.186258
 0.295000   0.277148   -0.187832
 0.300000   0.276205   -0.189427
 0.305000   0.275253   -0.191171
 0.310000   0.274293   -0.192657
 0.315000   0.273327   -0.193765
 0.320000   0.272355   -0.194775
 0.325000   0.271379   -0.195814
 0.330000   0.270397   -0.196886
 0.335000   0.269410   -0.197683
 0.340000   0.268420   -0.198220
 0.345000   0.267428   -0.198683
 0.350000   0.266433   -0.199281
 0.355000   0.265435   -0.199831
 0.360000   0.264435   -0.200118
 0.365000   0.263434   -0.200346
 0.370000   0.262432   -0.200631
 0.375000   0.261428   -0.200960
 0.380000   0.260422   -0.201141
 0.385000   0.259416   -0.201178
 0.390000   0.258410   -0.201192
 0.395000   0.257404   -0.201252
 0.400000   0.256398   -0.201198
 0.405000   0.255392   -0.200939
 0.410000   0.254388   -0.200595
 0.415000   0.253386   -0.200286
 0.420000   0.252385   -0.199884
 0.425000   0.251387   -0.199268
 0.430000   0.250393   -0.198567
 0.435000   0.249402   -0.197879
 0.440000   0.248414   -0.197134
 0.445000   0.247430   -0.196240
 0.450000   0.246452   -0.195286
 0.455000   0.245478   -0.194359
 0.460000   0.244508   -0.193407
 0.465000   0.243544   -0.192328
 0.470000   0.242585   -0.191166
 0.475000   0.241632   -0.189991
 0.480000   0.240685   -0.188745
 0.485000   0.239744   -0.187325
 0.490000   0.238812   -0.185765
 0.495000   0.237887   -0.184149
 0.500000   0.236970   -0.182447
 0.505000   0.236062   -0.180561
 0.510000   0.235164   -0.178518
 0.515000   0.234277   -0.176409
 0.520000   0.233400   -0.174228
 0.525000   0.232535   -0.171896
 0.530000   0.231681   -0.169424
 0.535000   0.230841   -0.166891
 0.540000   0.230013   -0.164314
 0.545000   0.229197   -0.161614
 0.550000   0.228396   -0.158787
 0.555000   0.227610   -0.155902
 0.560000   0.226837   -0.152987
 0.565000   0.226080   -0.149965
 0.570000   0.225338   -0.146805
 0.575000   0.224612   -0.143561
 0.580000   0.223902   -0.140283
 0.585000   0.223209   -0.136910
 0.590000   0.222533   -0.133404
 0.595000   0.221875   -0.129831
 0.600000   0.221235   -0.126222
 0.605000   0.220613   -0.122555
 0.610000   0.220009   -0.118800
 0.615000   0.219425   -0.114976
 0.620000   0.218859   -0.111071
 0.625000   0.218314   -0.107063
 0.630000   0.217789   -0.102930
 0.635000   0.217285   -0.098673
 0.640000   0.216802   -0.094309
 0.645000   0.216341   -0.089843
 0.650000   0.215904   -0.085237
 0.655000   0.215489   -0.080544
 0.660000   0.215098   -0.075850
 0.665000   0.214731   -0.071132
 0.670000   0.214387   -0.066322
 0.675000   0.214067   -0.061318
 0.680000   0.213774   -0.055785
 0.685000   0.213510   -0.049542
 0.690000   0.213278   -0.042755
 0.695000   0.213082   -0.035473
 0.700000   0.212923   -0.027751
 0.705000   0.212805   -0.019694
 0.710000   0.212727   -0.011156
 0.715000   0.212693   -0.002411
 0.720000   0.212702   0.005955
 0.725000   0.212752   0.013816
 0.730000   0.212841   0.021088
 0.735000   0.212963   0.027581
 0.740000   0.213116   0.033098
 0.745000   0.213294   0.037295
 0.750000   0.213489   0.039943
 0.755000   0.213694   0.041144
 0.760000   0.213901   0.041029
 0.765000   0.214104   0.039743
 0.770000   0.214298   0.037317
 0.775000   0.214477   0.033969
 0.780000   0.214638   0.030386
 0.785000   0.214781   0.026861
 0.790000   0.214907   0.023349
 0.795000   0.215015   0.019990
 0.800000   0.215106   0.016860
 0.805000   0.215183   0.014146
 0.810000   0.215248   0.012011
 0.815000   0.215303   0.010171
 0.820000   0.215350   0.008249
 0.825000   0.215386   0.006092
 0.830000   0.215411   0.003621
 0.835000   0.215422   0.000792
 0.840000   0.215418   -0.002233
 0.845000   0.215400   -0.005315
 0.850000   0.215365   -0.008437
 0.855000   0.215315   -0.011520
 0.860000   0.215250   -0.014508
 0.865000   0.215170   -0.017223
 0.870000   0.215078   -0.019369
 0.875000   0.214977   -0.020921
 0.880000   0.214869   -0.022047
 0.885000   0.214756   -0.022806
 0.890000   0.214641   -0.023212
 0.895000   0.214524   -0.022877
 0.900000   0.214412   -0.021999
 0.905000   0.214304   -0.020900
 0.910000   0.214203   -0.019172
 0.915000   0.214112   -0.016352
 0.920000   0.214039   -0.011726
 0.925000   0.213995   -0.003200
 0.930000   0.214007   0.009640
 0.935000   0.214091   0.025688
 0.940000   0.214264   0.041787
 0.945000   0.214509   0.039770
 0.950000   0.214662   -0.043810
 0.955000   0.214071   -0.382091
 0.960000   0.210841   -1.349751
 0.965000   0.200574   -3.281343
 0.970000   0.178028   -5.428879
 0.975000   0.146285   -5.896812
 0.980000   0.119059   -4.290012
 0.985000   0.103385   -2.314947
 0.990000   0.095910   -1.142376
 0.995000   0.091961   -0.690574
 1.000000   0.089004   -0.492128
201 psinorm ti(KeV) dti/dpsiN
 0.000000   5.638098   0.003152
 0.005000   5.637195   -0.364309
 0.010000   5.634455   -0.736246
 0.015000   5.629833   -1.116618
 0.020000   5.623289   -1.504352
 0.025000   5.614789   -1.898271
 0.030000   5.604306   -2.297082
 0.035000   5.591818   -2.699391
 0.040000   5.577312   -3.103345
 0.045000   5.560785   -3.507475
 0.050000   5.542237   -3.910591
 0.055000   5.521679   -4.311142
 0.060000   5.499126   -4.707879
 0.065000   5.474600   -5.099910
 0.070000   5.448127   -5.486468
 0.075000   5.419736   -5.867364
 0.080000   5.389453   -6.241741
 0.085000   5.357318   -6.607871
 0.090000   5.323375   -6.964592
 0.095000   5.287672   -7.310902
 0.100000   5.250266   -7.645497
 0.105000   5.211217   -7.967471
 0.110000   5.170591   -8.276282
 0.115000   5.128454   -8.570874
 0.120000   5.084882   -8.850088
 0.125000   5.039954   -9.112740
 0.130000   4.993755   -9.356661
 0.135000   4.946387   -9.580487
 0.140000   4.897950   -9.784947
 0.145000   4.848537   -9.970044
 0.150000   4.798249   -10.135228
 0.155000   4.747185   -10.280567
 0.160000   4.695444   -10.405163
 0.165000   4.643134   -10.508853
 0.170000   4.590355   -10.593762
 0.175000   4.537196   -10.660412
 0.180000   4.483751   -10.708401
 0.185000   4.430112   -10.738619
 0.190000   4.376365   -10.751491
 0.195000   4.322597   -10.749251
 0.200000   4.268872   -10.736785
 0.205000   4.215229   -10.715975
 0.210000   4.161713   -10.686636
 0.215000   4.108363   -10.649665
 0.220000   4.055216   -10.606649
 0.225000   4.002296   -10.560516
 0.230000   3.949611   -10.508567
 0.235000   3.897211   -10.447470
 0.240000   3.845136   -10.377245
 0.245000   3.793438   -10.295555
 0.250000   3.742181   -10.200216
 0.255000   3.691436   -10.089689
 0.260000   3.641284   -9.960482
 0.265000   3.591831   -9.812906
 0.270000   3.543155   -9.650466
 0.275000   3.495327   -9.473859
 0.280000   3.448416   -9.283775
 0.285000   3.402489   -9.078409
 0.290000   3.357632   -8.860939
 0.295000   3.313879   -8.636422
 0.300000   3.271268   -8.406329
 0.305000   3.229816   -8.174249
 0.310000   3.189525   -7.944056
 0.315000   3.150376   -7.719413
 0.320000   3.112331   -7.505202
 0.325000   3.075324   -7.301838
 0.330000   3.039313   -7.106305
 0.335000   3.004261   -6.918115
 0.340000   2.970132   -6.736657
 0.345000   2.936894   -6.565810
 0.350000   2.904473   -6.401479
 0.355000   2.872879   -6.236711
 0.360000   2.842106   -6.073003
 0.365000   2.812149   -5.909825
 0.370000   2.783008   -5.745693
 0.375000   2.754692   -5.580078
 0.380000   2.727207   -5.404975
 0.385000   2.700642   -5.215759
 0.390000   2.675050   -5.018063
 0.395000   2.650462   -4.814885
 0.400000   2.626901   -4.608301
 0.405000   2.604379   -4.396417
 0.410000   2.582937   -4.182356
 0.415000   2.562555   -3.975719
 0.420000   2.543180   -3.779522
 0.425000   2.524760   -3.593909
 0.430000   2.507240   -3.419923
 0.435000   2.490561   -3.255315
 0.440000   2.474687   -3.101842
 0.445000   2.459542   -2.964997
 0.450000   2.445037   -2.843567
 0.455000   2.431107   -2.735177
 0.460000   2.417686   -2.639706
 0.465000   2.404710   -2.556837
 0.470000   2.392117   -2.487791
 0.475000   2.379832   -2.432733
 0.480000   2.367790   -2.388506
 0.485000   2.355947   -2.352069
 0.490000   2.344269   -2.321211
 0.495000   2.332735   -2.294189
 0.500000   2.321327   -2.269799
 0.505000   2.310037   -2.248268
 0.510000   2.298845   -2.230982
 0.515000   2.287727   -2.218643
 0.520000   2.276658   -2.211255
 0.525000   2.265614   -2.208706
 0.530000   2.254571   -2.210892
 0.535000   2.243505   -2.217345
 0.540000   2.232398   -2.227608
 0.545000   2.221229   -2.241496
 0.550000   2.209983   -2.258687
 0.555000   2.198642   -2.278886
 0.560000   2.187194   -2.301906
 0.565000   2.175623   -2.327059
 0.570000   2.163923   -2.353766
 0.575000   2.152086   -2.381885
 0.580000   2.140104   -2.411025
 0.585000   2.127975   -2.440782
 0.590000   2.115697   -2.470773
 0.595000   2.103268   -2.500773
 0.600000   2.090689   -2.530855
 0.605000   2.077959   -2.561046
 0.610000   2.065078   -2.591133
 0.615000   2.052048   -2.620846
 0.620000   2.038870   -2.650314
 0.625000   2.025545   -2.678916
 0.630000   2.012081   -2.705846
 0.635000   1.998486   -2.731046
 0.640000   1.984770   -2.754222
 0.645000   1.970944   -2.775083
 0.650000   1.957019   -2.794093
 0.655000   1.943003   -2.811767
 0.660000   1.928902   -2.828558
 0.665000   1.914717   -2.845058
 0.670000   1.900451   -2.861196
 0.675000   1.886105   -2.876612
 0.680000   1.871685   -2.892202
 0.685000   1.857183   -2.904661
 0.690000   1.842638   -2.909564
 0.695000   1.828088   -2.907783
 0.700000   1.813561   -2.900452
 0.705000   1.799083   -2.888098
 0.710000   1.784680   -2.871358
 0.715000   1.770370   -2.849741
 0.720000   1.756182   -2.822743
 0.725000   1.742142   -2.791119
 0.730000   1.728271   -2.755432
 0.735000   1.714588   -2.716087
 0.740000   1.701110   -2.673333
 0.745000   1.687855   -2.628555
 0.750000   1.674825   -2.584199
 0.755000   1.662013   -2.541306
 0.760000   1.649412   -2.500027
 0.765000   1.637012   -2.460612
 0.770000   1.624805   -2.423241
 0.775000   1.612780   -2.386699
 0.780000   1.600938   -2.348787
 0.785000   1.589292   -2.309141
 0.790000   1.577847   -2.268555
 0.795000   1.566607   -2.227711
 0.800000   1.555570   -2.187045
 0.805000   1.544736   -2.148347
 0.810000   1.534086   -2.116263
 0.815000   1.523573   -2.092947
 0.820000   1.513157   -2.077818
 0.825000   1.502795   -2.071108
 0.830000   1.492446   -2.073235
 0.835000   1.482063   -2.085047
 0.840000   1.471595   -2.105510
 0.845000   1.461008   -2.135758
 0.850000   1.450238   -2.179753
 0.855000   1.439210   -2.239792
 0.860000   1.427840   -2.318439
 0.865000   1.416026   -2.423352
 0.870000   1.403606   -2.547781
 0.875000   1.390548   -2.684223
 0.880000   1.376764   -2.837964
 0.885000   1.362168   -3.009127
 0.890000   1.346673   -3.198637
 0.895000   1.330182   -3.422247
 0.900000   1.312450   -3.680213
 0.905000   1.293380   -3.971749
 0.910000   1.272733   -4.313644
 0.915000   1.250244   -4.710659
 0.920000   1.225626   -5.165338
 0.925000   1.198590   -5.713918
 0.930000   1.168487   -6.329816
 0.935000   1.135292   -6.964853
 0.940000   1.098839   -7.625566
 0.945000   1.059036   -8.292230
 0.950000   1.015916   -8.938870
 0.955000   0.969648   -9.580145
 0.960000   0.920115   -10.166670
 0.965000   0.867981   -10.621890
 0.970000   0.813896   -10.937546
 0.975000   0.758605   -11.090154
 0.980000   0.702994   -11.057718
 0.985000   0.648028   -10.847514
 0.990000   0.594519   -10.438884
 0.995000   0.543639   -9.831495
 1.000000   0.496204   -9.142533
201 psinorm nb(10^20/m^3) dnb/dpsiN
 0.000000   0.100589   0.051522
 0.005000   0.100601   -0.046525
 0.010000   0.100123   -0.124740
 0.015000   0.099354   -0.177498
 0.020000   0.098348   -0.220646
 0.025000   0.097147   -0.256231
 0.030000   0.095786   -0.284803
 0.035000   0.094299   -0.308086
 0.040000   0.092705   -0.327537
 0.045000   0.091024   -0.343045
 0.050000   0.089275   -0.355594
 0.055000   0.087468   -0.365113
 0.060000   0.085624   -0.371466
 0.065000   0.083753   -0.375471
 0.070000   0.081869   -0.377337
 0.075000   0.079980   -0.377434
 0.080000   0.078095   -0.375924
 0.085000   0.076221   -0.372926
 0.090000   0.074365   -0.368817
 0.095000   0.072532   -0.363838
 0.100000   0.070727   -0.357927
 0.105000   0.068953   -0.350737
 0.110000   0.067220   -0.342886
 0.115000   0.065524   -0.334994
 0.120000   0.063870   -0.326651
 0.125000   0.062258   -0.317943
 0.130000   0.060690   -0.308947
 0.135000   0.059168   -0.299735
 0.140000   0.057693   -0.290502
 0.145000   0.056263   -0.281204
 0.150000   0.054881   -0.271750
 0.155000   0.053546   -0.262290
 0.160000   0.052258   -0.252911
 0.165000   0.051017   -0.243650
 0.170000   0.049821   -0.234549
 0.175000   0.048671   -0.225636
 0.180000   0.047565   -0.216933
 0.185000   0.046502   -0.208459
 0.190000   0.045480   -0.200242
 0.195000   0.044499   -0.192307
 0.200000   0.043557   -0.184648
 0.205000   0.042653   -0.177261
 0.210000   0.041785   -0.169776
 0.215000   0.040955   -0.162454
 0.220000   0.040160   -0.155796
 0.225000   0.039397   -0.149507
 0.230000   0.038665   -0.143496
 0.235000   0.037962   -0.137823
 0.240000   0.037287   -0.132454
 0.245000   0.036638   -0.127137
 0.250000   0.036016   -0.121775
 0.255000   0.035420   -0.116915
 0.260000   0.034846   -0.112636
 0.265000   0.034294   -0.108590
 0.270000   0.033760   -0.104772
 0.275000   0.033246   -0.100959
 0.280000   0.032751   -0.097159
 0.285000   0.032274   -0.093805
 0.290000   0.031813   -0.090858
 0.295000   0.031366   -0.088080
 0.300000   0.030932   -0.085348
 0.305000   0.030512   -0.082525
 0.310000   0.030107   -0.080011
 0.315000   0.029712   -0.077926
 0.320000   0.029328   -0.075966
 0.325000   0.028952   -0.073987
 0.330000   0.028588   -0.071984
 0.335000   0.028233   -0.070264
 0.340000   0.027885   -0.068815
 0.345000   0.027544   -0.067452
 0.350000   0.027211   -0.065973
 0.355000   0.026885   -0.064572
 0.360000   0.026565   -0.063468
 0.365000   0.026250   -0.062454
 0.370000   0.025940   -0.061411
 0.375000   0.025636   -0.060343
 0.380000   0.025337   -0.059433
 0.385000   0.025042   -0.058665
 0.390000   0.024750   -0.057904
 0.395000   0.024463   -0.057069
 0.400000   0.024180   -0.056312
 0.405000   0.023899   -0.055705
 0.410000   0.023622   -0.055121
 0.415000   0.023348   -0.054438
 0.420000   0.023078   -0.053779
 0.425000   0.022810   -0.053260
 0.430000   0.022545   -0.052753
 0.435000   0.022283   -0.052157
 0.440000   0.022024   -0.051559
 0.445000   0.021767   -0.051070
 0.450000   0.021513   -0.050605
 0.455000   0.021261   -0.050073
 0.460000   0.021012   -0.049526
 0.465000   0.020766   -0.049065
 0.470000   0.020522   -0.048634
 0.475000   0.020280   -0.048139
 0.480000   0.020040   -0.047622
 0.485000   0.019804   -0.047183
 0.490000   0.019569   -0.046781
 0.495000   0.019336   -0.046326
 0.500000   0.019105   -0.045841
 0.505000   0.018877   -0.045422
 0.510000   0.018651   -0.045042
 0.515000   0.018427   -0.044617
 0.520000   0.018205   -0.044154
 0.525000   0.017985   -0.043740
 0.530000   0.017768   -0.043367
 0.535000   0.017552   -0.042970
 0.540000   0.017338   -0.042539
 0.545000   0.017126   -0.042153
 0.550000   0.016916   -0.041821
 0.555000   0.016708   -0.041475
 0.560000   0.016502   -0.041088
 0.565000   0.016297   -0.040734
 0.570000   0.016094   -0.040443
 0.575000   0.015893   -0.040156
 0.580000   0.015693   -0.039827
 0.585000   0.015494   -0.039522
 0.590000   0.015297   -0.039286
 0.595000   0.015102   -0.039060
 0.600000   0.014907   -0.038823
 0.605000   0.014713   -0.038602
 0.610000   0.014521   -0.038430
 0.615000   0.014329   -0.038279
 0.620000   0.014138   -0.038136
 0.625000   0.013948   -0.038004
 0.630000   0.013758   -0.037905
 0.635000   0.013569   -0.037840
 0.640000   0.013380   -0.037790
 0.645000   0.013191   -0.037758
 0.650000   0.013002   -0.037752
 0.655000   0.012813   -0.037771
 0.660000   0.012624   -0.037803
 0.665000   0.012435   -0.037853
 0.670000   0.012246   -0.037932
 0.675000   0.012056   -0.038026
 0.680000   0.011866   -0.038125
 0.685000   0.011675   -0.038237
 0.690000   0.011483   -0.038373
 0.695000   0.011291   -0.038545
 0.700000   0.011098   -0.038725
 0.705000   0.010904   -0.038902
 0.710000   0.010709   -0.039087
 0.715000   0.010513   -0.039291
 0.720000   0.010316   -0.039527
 0.725000   0.010118   -0.039759
 0.730000   0.009918   -0.039971
 0.735000   0.009718   -0.040184
 0.740000   0.009516   -0.040396
 0.745000   0.009314   -0.040627
 0.750000   0.009110   -0.040851
 0.755000   0.008905   -0.041037
 0.760000   0.008700   -0.041209
 0.765000   0.008493   -0.041366
 0.770000   0.008286   -0.041510
 0.775000   0.008078   -0.041649
 0.780000   0.007870   -0.041767
 0.785000   0.007660   -0.041850
 0.790000   0.007451   -0.041912
 0.795000   0.007241   -0.041951
 0.800000   0.007032   -0.041966
 0.805000   0.006822   -0.041960
 0.810000   0.006612   -0.041933
 0.815000   0.006402   -0.041886
 0.820000   0.006193   -0.041821
 0.825000   0.005984   -0.041734
 0.830000   0.005776   -0.041622
 0.835000   0.005568   -0.041483
 0.840000   0.005361   -0.041315
 0.845000   0.005155   -0.041099
 0.850000   0.004950   -0.040843
 0.855000   0.004746   -0.040562
 0.860000   0.004544   -0.040245
 0.865000   0.004344   -0.039890
 0.870000   0.004145   -0.039499
 0.875000   0.003949   -0.039072
 0.880000   0.003755   -0.038605
 0.885000   0.003563   -0.038100
 0.890000   0.003374   -0.037557
 0.895000   0.003187   -0.036967
 0.900000   0.003004   -0.036320
 0.905000   0.002824   -0.035644
 0.910000   0.002648   -0.034954
 0.915000   0.002475   -0.034315
 0.920000   0.002304   -0.033859
 0.925000   0.002136   -0.033661
 0.930000   0.001968   -0.033740
 0.935000   0.001799   -0.034099
 0.940000   0.001627   -0.034716
 0.945000   0.001451   -0.035510
 0.950000   0.001272   -0.036216
 0.955000   0.001089   -0.036096
 0.960000   0.000911   -0.034356
 0.965000   0.000746   -0.030938
 0.970000   0.000601   -0.026470
 0.975000   0.000481   -0.021530
 0.980000   0.000386   -0.016973
 0.985000   0.000311   -0.014065
 0.990000   0.000245   -0.012824
 0.995000   0.000183   -0.012605
 1.000000   0.000119   -0.012852
201 psinorm pb(KPa) dpb/dpsiN
 0.000000   41.500672   -3.616950
 0.005000   41.390996   -40.253266
 0.010000   41.098139   -70.054172
 0.015000   40.690454   -90.847962
 0.020000   40.189659   -107.601751
 0.025000   39.614437   -120.955926
 0.030000   38.980100   -131.055643
 0.035000   38.303880   -139.006728
 0.040000   37.590033   -145.786389
 0.045000   36.846016   -151.051375
 0.050000   36.079519   -155.266300
 0.055000   35.293353   -158.308284
 0.060000   34.496436   -159.988676
 0.065000   33.693467   -160.743034
 0.070000   32.889006   -160.683674
 0.075000   32.086630   -159.951783
 0.080000   31.289488   -158.626565
 0.085000   30.500364   -156.763244
 0.090000   29.721856   -154.522068
 0.095000   28.955144   -151.989866
 0.100000   28.201957   -149.125851
 0.105000   27.463885   -145.747733
 0.110000   26.744480   -142.142721
 0.115000   26.042458   -138.600889
 0.120000   25.358471   -134.922634
 0.125000   24.693232   -131.122888
 0.130000   24.047242   -127.232670
 0.135000   23.420905   -123.295841
 0.140000   22.814283   -119.424366
 0.145000   22.226661   -115.552904
 0.150000   21.658754   -111.586549
 0.155000   21.110796   -107.620617
 0.160000   20.582548   -103.706752
 0.165000   20.073728   -99.856468
 0.170000   19.583983   -96.083800
 0.175000   19.112890   -92.397144
 0.180000   18.660012   -88.797611
 0.185000   18.224914   -85.299000
 0.190000   17.807022   -81.924392
 0.195000   17.405670   -78.677384
 0.200000   17.020248   -75.548289
 0.205000   16.650187   -72.536024
 0.210000   16.294888   -69.496107
 0.215000   15.955226   -66.530666
 0.220000   15.629581   -63.827678
 0.225000   15.316949   -61.257658
 0.230000   15.017005   -58.797719
 0.235000   14.728972   -56.495982
 0.240000   14.452045   -54.329482
 0.245000   14.185677   -52.188173
 0.250000   13.930163   -50.037455
 0.255000   13.685303   -48.085084
 0.260000   13.449312   -46.359128
 0.265000   13.221712   -44.726925
 0.270000   13.002043   -43.187546
 0.275000   12.789836   -41.671081
 0.280000   12.585332   -40.167708
 0.285000   12.388159   -38.819965
 0.290000   12.197133   -37.623301
 0.295000   12.011926   -36.491894
 0.300000   11.832214   -35.381864
 0.305000   11.658107   -34.241304
 0.310000   11.489801   -33.220404
 0.315000   11.325903   -32.364335
 0.320000   11.166157   -31.558359
 0.325000   11.010320   -30.747934
 0.330000   10.858678   -29.925834
 0.335000   10.711061   -29.212053
 0.340000   10.566557   -28.608239
 0.345000   10.424979   -28.039808
 0.350000   10.286159   -27.431244
 0.355000   10.150667   -26.854398
 0.360000   10.017615   -26.389729
 0.365000   9.886769   -25.960050
 0.370000   9.758015   -25.521392
 0.375000   9.631555   -25.076167
 0.380000   9.507253   -24.690508
 0.385000   9.384650   -24.358213
 0.390000   9.263671   -24.031083
 0.395000   9.144339   -23.679938
 0.400000   9.026872   -23.357412
 0.405000   8.910765   -23.089636
 0.410000   8.795975   -22.830710
 0.415000   8.682458   -22.538195
 0.420000   8.570593   -22.254633
 0.425000   8.459912   -22.020367
 0.430000   8.350390   -21.790413
 0.435000   8.242008   -21.529821
 0.440000   8.135091   -21.268643
 0.445000   8.029321   -21.046631
 0.450000   7.924625   -20.833716
 0.455000   7.820984   -20.601157
 0.460000   7.718614   -20.365652
 0.465000   7.617328   -20.158319
 0.470000   7.517030   -19.961625
 0.475000   7.417711   -19.744520
 0.480000   7.319585   -19.521654
 0.485000   7.222495   -19.326177
 0.490000   7.126323   -19.143509
 0.495000   7.031060   -18.944541
 0.500000   6.936878   -18.737192
 0.505000   6.843688   -18.551091
 0.510000   6.751367   -18.377666
 0.515000   6.659911   -18.189698
 0.520000   6.569470   -17.987915
 0.525000   6.480032   -17.798486
 0.530000   6.391485   -17.621684
 0.535000   6.303815   -17.440989
 0.540000   6.217075   -17.251037
 0.545000   6.131305   -17.072946
 0.550000   6.046346   -16.911616
 0.555000   5.962189   -16.746215
 0.560000   5.878884   -16.565870
 0.565000   5.796530   -16.395923
 0.570000   5.714925   -16.248142
 0.575000   5.634049   -16.103018
 0.580000   5.553894   -15.941637
 0.585000   5.474632   -15.785785
 0.590000   5.396037   -15.655178
 0.595000   5.318080   -15.530119
 0.600000   5.240735   -15.402661
 0.605000   5.164054   -15.278386
 0.610000   5.087951   -15.168448
 0.615000   5.012369   -15.067097
 0.620000   4.937281   -14.968670
 0.625000   4.862683   -14.873006
 0.630000   4.788550   -14.789699
 0.635000   4.714786   -14.718992
 0.640000   4.641361   -14.653637
 0.645000   4.568249   -14.593578
 0.650000   4.495425   -14.542664
 0.655000   4.422823   -14.500506
 0.660000   4.350420   -14.462923
 0.665000   4.278193   -14.430740
 0.670000   4.206112   -14.406089
 0.675000   4.134133   -14.386340
 0.680000   4.062249   -14.368689
 0.685000   3.990446   -14.354754
 0.690000   3.918701   -14.349356
 0.695000   3.846952   -14.355731
 0.700000   3.775144   -14.366249
 0.705000   3.703290   -14.377169
 0.710000   3.631372   -14.391302
 0.715000   3.559377   -14.411800
 0.720000   3.487254   -14.442935
 0.725000   3.414947   -14.473856
 0.730000   3.342516   -14.499118
 0.735000   3.269956   -14.524789
 0.740000   3.197268   -14.550035
 0.745000   3.124456   -14.581481
 0.750000   3.051453   -14.609854
 0.755000   2.978357   -14.625604
 0.760000   2.905197   -14.635828
 0.765000   2.831999   -14.640549
 0.770000   2.758792   -14.639744
 0.775000   2.685601   -14.637141
 0.780000   2.612420   -14.627739
 0.785000   2.539324   -14.607355
 0.790000   2.466347   -14.579951
 0.795000   2.393525   -14.544793
 0.800000   2.320899   -14.501153
 0.805000   2.248513   -14.448296
 0.810000   2.176416   -14.385605
 0.815000   2.104657   -14.314511
 0.820000   2.033271   -14.235802
 0.825000   1.962299   -14.148320
 0.830000   1.891787   -14.051279
 0.835000   1.821786   -13.943953
 0.840000   1.752348   -13.826567
 0.845000   1.683520   -13.689456
 0.850000   1.615453   -13.537998
 0.855000   1.548140   -13.381359
 0.860000   1.481640   -13.212894
 0.865000   1.416012   -13.032160
 0.870000   1.351318   -12.839378
 0.875000   1.287618   -12.634832
 0.880000   1.224970   -12.417943
 0.885000   1.163438   -12.189209
 0.890000   1.103078   -11.949818
 0.895000   1.043940   -11.696104
 0.900000   0.986117   -11.423210
 0.905000   0.929708   -11.144961
 0.910000   0.874667   -10.869292
 0.915000   0.821015   -10.606995
 0.920000   0.768597   -10.391077
 0.925000   0.717104   -10.242639
 0.930000   0.666171   -10.174445
 0.935000   0.615360   -10.198621
 0.940000   0.564185   -10.327263
 0.945000   0.512087   -10.565491
 0.950000   0.458530   -10.866818
 0.955000   0.403419   -11.043334
 0.960000   0.348096   -10.833017
 0.965000   0.295089   -10.129095
 0.970000   0.246805   -9.139763
 0.975000   0.203691   -8.265145
 0.980000   0.164154   -7.718202
 0.985000   0.126509   -7.279956
 0.990000   0.091354   -6.411888
 0.995000   0.062390   -5.226601
 1.000000   0.039088   -4.094239
201 psinorm ptot(KPa) dptot/dpsiN
 0.000000   106.406201   -126.050176
 0.005000   105.704759   -154.526716
 0.010000   104.860934   -177.974559
 0.015000   103.925013   -194.746874
 0.020000   102.913465   -208.380855
 0.025000   101.841205   -219.331805
 0.030000   100.720147   -227.692387
 0.035000   99.564281   -234.409331
 0.040000   98.376054   -240.322161
 0.045000   97.161059   -245.091447
 0.050000   95.925139   -249.088311
 0.055000   94.670176   -252.188179
 0.060000   93.403258   -254.207215
 0.065000   92.128104   -255.502094
 0.070000   90.848237   -256.161181
 0.075000   89.566492   -256.289468
 0.080000   88.285342   -255.944675
 0.085000   87.007046   -255.160646
 0.090000   85.733736   -254.056737
 0.095000   84.466478   -252.691794
 0.100000   83.206818   -251.021259
 0.105000   81.956266   -248.884365
 0.110000   80.717974   -246.511444
 0.115000   79.491151   -244.134192
 0.120000   78.276632   -241.579810
 0.125000   77.075353   -238.848717
 0.130000   75.888145   -235.953238
 0.135000   74.715821   -232.923305
 0.140000   73.558912   -229.858183
 0.145000   72.417239   -226.695270
 0.150000   71.291959   -223.343337
 0.155000   70.183805   -219.885926
 0.160000   69.093100   -216.363352
 0.165000   68.020172   -212.783726
 0.170000   66.965263   -209.168678
 0.175000   65.928485   -205.527883
 0.180000   64.909984   -201.859740
 0.185000   63.909888   -198.182079
 0.190000   62.928163   -194.519341
 0.195000   61.964694   -190.885481
 0.200000   61.019308   -187.296349
 0.205000   60.091731   -183.761338
 0.210000   59.181695   -180.160273
 0.215000   58.290128   -176.582384
 0.220000   57.415871   -173.190966
 0.225000   56.558218   -169.891253
 0.230000   55.716958   -166.654970
 0.235000   54.891669   -163.512208
 0.240000   54.081836   -160.443729
 0.245000   53.287231   -157.345017
 0.250000   52.508386   -154.177647
 0.255000   51.745455   -151.110547
 0.260000   50.997281   -148.153651
 0.265000   50.263918   -145.199279
 0.270000   49.545288   -142.264494
 0.275000   48.841274   -139.296463
 0.280000   48.152323   -136.288907
 0.285000   47.478384   -133.353303
 0.290000   46.818790   -130.503924
 0.295000   46.173345   -127.692729
 0.300000   45.541863   -124.889419
 0.305000   44.924451   -122.065937
 0.310000   44.321204   -119.369775
 0.315000   43.730753   -116.857347
 0.320000   43.152630   -114.451229
 0.325000   42.586241   -112.104758
 0.330000   42.031583   -109.796478
 0.335000   41.488276   -107.628891
 0.340000   40.955294   -105.601669
 0.345000   40.432260   -103.666505
 0.350000   39.918629   -101.738626
 0.355000   39.414873   -99.849657
 0.360000   38.920132   -98.076858
 0.365000   38.434105   -96.350364
 0.370000   37.956628   -94.624857
 0.375000   37.487856   -92.899833
 0.380000   37.027630   -91.197945
 0.385000   36.575877   -89.493635
 0.390000   36.132694   -87.769724
 0.395000   35.698179   -86.013641
 0.400000   35.272557   -84.280599
 0.405000   34.855373   -82.585210
 0.410000   34.446705   -80.900481
 0.415000   34.046369   -79.230228
 0.420000   33.654403   -77.624240
 0.425000   33.270126   -76.117897
 0.430000   32.893224   -74.675263
 0.435000   32.523374   -73.255074
 0.440000   32.160673   -71.891155
 0.445000   31.804462   -70.641821
 0.450000   31.454255   -69.474379
 0.455000   31.109718   -68.352652
 0.460000   30.770729   -67.289855
 0.465000   30.436820   -66.311062
 0.470000   30.107618   -65.404750
 0.475000   29.782772   -64.542491
 0.480000   29.462193   -63.723096
 0.485000   29.145541   -62.962728
 0.490000   28.832566   -62.238774
 0.495000   28.523154   -61.517964
 0.500000   28.217386   -60.801992
 0.505000   27.915134   -60.117649
 0.510000   27.616210   -59.462851
 0.515000   27.320505   -58.816197
 0.520000   27.028048   -58.177995
 0.525000   26.738725   -57.570744
 0.530000   26.452340   -56.994492
 0.535000   26.168780   -56.433430
 0.540000   25.888006   -55.880718
 0.545000   25.609973   -55.353822
 0.550000   25.334468   -54.856031
 0.555000   25.061413   -54.367691
 0.560000   24.790791   -53.878089
 0.565000   24.522632   -53.407137
 0.570000   24.256719   -52.963213
 0.575000   23.993000   -52.528252
 0.580000   23.731437   -52.083456
 0.585000   23.472165   -51.647028
 0.590000   23.214967   -51.235886
 0.595000   22.959806   -50.831810
 0.600000   22.706648   -50.428158
 0.605000   22.455525   -50.029906
 0.610000   22.206349   -49.646418
 0.615000   21.959061   -49.271747
 0.620000   21.713632   -48.900510
 0.625000   21.470055   -48.529718
 0.630000   21.228335   -48.165398
 0.635000   20.988401   -47.807771
 0.640000   20.750257   -47.449232
 0.645000   20.513909   -47.088885
 0.650000   20.279368   -46.731467
 0.655000   20.046594   -46.380017
 0.660000   19.815568   -46.034423
 0.665000   19.586250   -45.697117
 0.670000   19.358597   -45.368238
 0.675000   19.132568   -45.041417
 0.680000   18.908183   -44.709043
 0.685000   18.685477   -44.356587
 0.690000   18.464617   -43.977303
 0.695000   18.245704   -43.579369
 0.700000   18.028823   -43.161147
 0.705000   17.814093   -42.723795
 0.710000   17.601585   -42.269207
 0.715000   17.391401   -41.805395
 0.720000   17.183531   -41.348569
 0.725000   16.977915   -40.893366
 0.730000   16.774598   -40.437890
 0.735000   16.573536   -39.993333
 0.740000   16.374664   -39.563546
 0.745000   16.177901   -39.166976
 0.750000   15.982994   -38.807435
 0.755000   15.789826   -38.475919
 0.760000   15.598235   -38.176029
 0.765000   15.408066   -37.904680
 0.770000   15.219188   -37.661023
 0.775000   15.031456   -37.438948
 0.780000   14.844799   -37.210333
 0.785000   14.659353   -36.963375
 0.790000   14.475165   -36.705894
 0.795000   14.292294   -36.436767
 0.800000   14.110798   -36.155379
 0.805000   13.930740   -35.863865
 0.810000   13.752159   -35.575414
 0.815000   13.574986   -35.305400
 0.820000   13.399105   -35.060208
 0.825000   13.224384   -34.842518
 0.830000   13.050680   -34.654533
 0.835000   12.877838   -34.499212
 0.840000   12.705688   -34.369609
 0.845000   12.534142   -34.257342
 0.850000   12.363114   -34.181669
 0.855000   12.192326   -34.158361
 0.860000   12.021531   -34.188848
 0.865000   11.850437   -34.296924
 0.870000   11.678561   -34.452630
 0.875000   11.505911   -34.628654
 0.880000   11.332275   -34.846919
 0.885000   11.157442   -35.109662
 0.890000   10.981178   -35.422245
 0.895000   10.803219   -35.832268
 0.900000   10.622855   -36.341894
 0.905000   10.439800   -36.972722
 0.910000   10.253128   -37.796103
 0.915000   10.061839   -38.852085
 0.920000   9.864607   -40.210466
 0.925000   9.659735   -42.067901
 0.930000   9.443928   -44.490387
 0.935000   9.214831   -47.639927
 0.940000   8.967529   -52.206777
 0.945000   8.692763   -59.602808
 0.950000   8.371501   -72.951050
 0.955000   7.963252   -98.654872
 0.960000   7.384952   -146.139094
 0.965000   6.501861   -216.146153
 0.970000   5.223491   -273.304868
 0.975000   3.768813   -263.951714
 0.980000   2.583974   -194.490900
 0.985000   1.823904   -121.438722
 0.990000   1.369586   -73.515634
 0.995000   1.088747   -47.132084
 1.000000   0.898266   -29.060643
201 psinorm omeg(kRad/s) domeg/dpsiN
 0.000000   60.263517   0.033190
 0.005000   60.263145   -0.182135
 0.010000   60.261696   -0.454701
 0.015000   60.258598   -0.857377
 0.020000   60.253122   -1.418361
 0.025000   60.244414   -2.160351
 0.030000   60.231518   -3.099141
 0.035000   60.213423   -4.240018
 0.040000   60.189118   -5.561691
 0.045000   60.157806   -7.035468
 0.050000   60.118763   -8.634235
 0.055000   60.071463   -10.316105
 0.060000   60.015602   -12.037380
 0.065000   59.951089   -13.759565
 0.070000   59.878007   -15.407221
 0.075000   59.797017   -17.001498
 0.080000   59.707992   -18.610607
 0.085000   59.610911   -20.222482
 0.090000   59.505767   -21.849114
 0.095000   59.392420   -23.516359
 0.100000   59.270603   -25.221177
 0.105000   59.140208   -26.976784
 0.110000   59.000835   -28.790307
 0.115000   58.852305   -30.626537
 0.120000   58.694570   -32.467255
 0.125000   58.527633   -34.300080
 0.130000   58.351569   -36.080823
 0.135000   58.166824   -37.789844
 0.140000   57.973671   -39.460960
 0.145000   57.772215   -41.098305
 0.150000   57.562688   -42.693057
 0.155000   57.345284   -44.253657
 0.160000   57.120151   -45.774051
 0.165000   56.887544   -47.258664
 0.170000   56.647565   -48.729507
 0.175000   56.400249   -50.176866
 0.180000   56.145796   -51.587216
 0.185000   55.884377   -52.965819
 0.190000   55.616138   -54.305752
 0.195000   55.341319   -55.567809
 0.200000   55.060460   -56.710740
 0.205000   54.774212   -57.705693
 0.210000   54.483403   -58.531619
 0.215000   54.188895   -59.184572
 0.220000   53.891557   -59.643758
 0.225000   53.592458   -59.876505
 0.230000   53.292792   -59.976398
 0.235000   52.992694   -60.002521
 0.240000   52.692767   -59.904236
 0.245000   52.393651   -59.671158
 0.250000   52.096055   -59.267963
 0.255000   51.800972   -58.612807
 0.260000   51.509927   -57.829039
 0.265000   51.222681   -57.028028
 0.270000   50.939647   -56.158738
 0.275000   50.661094   -55.249568
 0.280000   50.387151   -54.323791
 0.285000   50.117856   -53.373908
 0.290000   49.853412   -52.519740
 0.295000   49.592659   -51.820316
 0.300000   49.335209   -51.187827
 0.305000   49.080781   -50.596830
 0.310000   48.829241   -50.013865
 0.315000   48.580642   -49.403152
 0.320000   48.335209   -48.759846
 0.325000   48.093043   -48.091593
 0.330000   47.854293   -47.394882
 0.335000   47.619095   -46.672250
 0.340000   47.387571   -45.926263
 0.345000   47.159832   -45.160338
 0.350000   46.935967   -44.378432
 0.355000   46.716048   -43.581223
 0.360000   46.500155   -42.768179
 0.365000   46.288366   -41.939645
 0.370000   46.080759   -41.094376
 0.375000   45.877422   -40.227606
 0.380000   45.678483   -39.324458
 0.385000   45.484178   -38.378719
 0.390000   45.294695   -37.398371
 0.395000   45.110194   -36.388957
 0.400000   44.930806   -35.355796
 0.405000   44.756636   -34.295789
 0.410000   44.587848   -33.248782
 0.415000   44.424148   -32.308257
 0.420000   44.264765   -31.537871
 0.425000   44.108769   -30.956757
 0.430000   43.955198   -30.560400
 0.435000   43.803165   -30.396099
 0.440000   43.651237   -30.435414
 0.445000   43.498811   -30.504079
 0.450000   43.346196   -30.539008
 0.455000   43.193421   -30.551501
 0.460000   43.040681   -30.511334
 0.465000   42.888308   -30.452119
 0.470000   42.736160   -30.342653
 0.475000   42.584881   -30.030735
 0.480000   42.435852   -29.522051
 0.485000   42.289661   -28.906068
 0.490000   42.146792   -28.206965
 0.495000   42.007591   -27.460366
 0.500000   41.872188   -26.687914
 0.505000   41.740712   -25.937148
 0.510000   41.612817   -25.305783
 0.515000   41.487654   -24.858553
 0.520000   41.364231   -24.619655
 0.525000   41.241458   -24.603047
 0.530000   41.118201   -24.814754
 0.535000   40.993310   -25.266582
 0.540000   40.865535   -25.968069
 0.545000   40.733629   -26.919420
 0.550000   40.596341   -28.121057
 0.555000   40.452419   -29.570515
 0.560000   40.300635   -31.262029
 0.565000   40.139798   -33.200505
 0.570000   39.968630   -35.385817
 0.575000   39.785940   -37.805984
 0.580000   39.590571   -40.453641
 0.585000   39.381404   -43.319876
 0.590000   39.157372   -46.389986
 0.595000   38.917504   -49.605756
 0.600000   38.661314   -52.896561
 0.605000   38.388538   -56.216907
 0.610000   38.099145   -59.520844
 0.615000   37.793330   -62.764453
 0.620000   37.471501   -65.850398
 0.625000   37.134826   -68.777892
 0.630000   36.783722   -71.582359
 0.635000   36.419002   -74.212532
 0.640000   36.041596   -76.651218
 0.645000   35.652490   -78.890544
 0.650000   35.252691   -80.898724
 0.655000   34.843503   -82.836784
 0.660000   34.424323   -84.889008
 0.665000   33.994613   -87.053976
 0.670000   33.553783   -89.342134
 0.675000   33.101192   -91.748975
 0.680000   32.636294   -94.359381
 0.685000   32.157598   -96.875624
 0.690000   31.667537   -98.823189
 0.695000   31.169366   -100.163092
 0.700000   30.665906   -100.941278
 0.705000   30.159953   -101.168384
 0.710000   29.654223   -100.882573
 0.715000   29.151127   -100.022107
 0.720000   28.654001   -98.517352
 0.725000   28.165954   -96.429602
 0.730000   27.689705   -93.817519
 0.735000   27.227779   -90.731729
 0.740000   26.782388   -87.242577
 0.745000   26.355353   -83.534534
 0.750000   25.947043   -79.831390
 0.755000   25.557039   -76.214058
 0.760000   25.184902   -72.689178
 0.765000   24.830147   -69.260197
 0.770000   24.492300   -65.974994
 0.775000   24.170397   -62.788763
 0.780000   23.864413   -59.522778
 0.785000   23.575169   -56.227875
 0.790000   23.302134   -53.111758
 0.795000   23.044052   -50.319528
 0.800000   22.798939   -47.988414
 0.805000   22.564168   -46.257780
 0.810000   22.336361   -45.289214
 0.815000   22.111276   -45.193094
 0.820000   21.884430   -46.009683
 0.825000   21.651179   -47.762982
 0.830000   21.406800   -50.463290
 0.835000   21.146546   -54.083598
 0.840000   20.865964   -58.562480
 0.845000   20.560921   -63.935065
 0.850000   20.226613   -70.315640
 0.855000   19.857765   -77.797137
 0.860000   19.448642   -86.489233
 0.865000   18.992872   -96.730530
 0.870000   18.481337   -108.235291
 0.875000   17.910519   -120.494916
 0.880000   17.276388   -133.379771
 0.885000   16.576722   -146.468532
 0.890000   15.811702   -159.241306
 0.895000   14.984309   -171.612506
 0.900000   14.095577   -182.251172
 0.905000   13.161797   -189.807672
 0.910000   12.197501   -194.130083
 0.915000   11.220496   -194.643909
 0.920000   10.251061   -190.983112
 0.925000   9.310665   -183.095796
 0.930000   8.420103   -170.905765
 0.935000   7.601607   -155.161940
 0.940000   6.868484   -137.459306
 0.945000   6.227014   -119.203093
 0.950000   5.676453   -101.717871
 0.955000   5.209836   -85.859758
 0.960000   4.817856   -72.558603
 0.965000   4.484250   -62.436339
 0.970000   4.193492   -55.237219
 0.975000   3.931877   -50.542686
 0.980000   3.688065   -47.828819
 0.985000   3.453589   -46.316840
 0.990000   3.224897   -45.518755
 0.995000   2.998402   -45.213862
 1.000000   2.772758   -45.043472
201 psinorm omegp(kRad/s) domegp/dpsiN
 0.000000   -0.000862   148.651522
 0.005000   0.588960   87.277483
 0.010000   0.871913   53.043550
 0.015000   1.119396   47.952973
 0.020000   1.351442   45.355979
 0.025000   1.572956   43.069556
 0.030000   1.782138   40.512039
 0.035000   1.978076   38.297169
 0.040000   2.165110   36.529555
 0.045000   2.343371   34.984069
 0.050000   2.514950   33.920657
 0.055000   2.682578   33.499446
 0.060000   2.849945   33.549260
 0.065000   3.018071   33.621398
 0.070000   3.186159   33.548089
 0.075000   3.353552   33.157468
 0.080000   3.517733   32.228211
 0.085000   3.675834   30.820430
 0.090000   3.825938   28.859241
 0.095000   3.964426   26.596241
 0.100000   4.091900   24.366917
 0.105000   4.208095   22.189803
 0.110000   4.313798   20.238434
 0.115000   4.410480   18.473479
 0.120000   4.498533   17.097697
 0.125000   4.581457   16.230796
 0.130000   4.660841   15.684192
 0.135000   4.738298   15.263071
 0.140000   4.813472   14.857205
 0.145000   4.886870   14.397607
 0.150000   4.957448   13.690860
 0.155000   5.023779   12.739393
 0.160000   5.084842   11.573235
 0.165000   5.139511   10.310440
 0.170000   5.187946   8.858380
 0.175000   5.228095   7.321866
 0.180000   5.261165   5.774910
 0.185000   5.285844   4.229289
 0.190000   5.303457   2.863436
 0.195000   5.314479   1.540187
 0.200000   5.318859   0.437787
 0.205000   5.318857   -0.516234
 0.210000   5.313697   -1.313161
 0.215000   5.305725   -1.879588
 0.220000   5.294901   -2.530405
 0.225000   5.280421   -3.103853
 0.230000   5.263863   -3.734603
 0.235000   5.243075   -4.582164
 0.240000   5.218041   -5.467564
 0.245000   5.188399   -6.586107
 0.250000   5.152180   -7.846769
 0.255000   5.109932   -9.166518
 0.260000   5.060515   -10.694948
 0.265000   5.002982   -12.186538
 0.270000   4.938649   -13.686550
 0.275000   4.866117   -15.331927
 0.280000   4.785330   -16.852546
 0.285000   4.697591   -18.381874
 0.290000   4.601511   -20.017596
 0.295000   4.497415   -21.529645
 0.300000   4.386215   -23.051184
 0.305000   4.266903   -24.636406
 0.310000   4.139851   -26.137519
 0.315000   4.005528   -27.670005
 0.320000   3.863151   -29.243603
 0.325000   3.713092   -30.650372
 0.330000   3.556647   -31.890904
 0.335000   3.394183   -32.916880
 0.340000   3.227478   -33.576956
 0.345000   3.058413   -33.968412
 0.350000   2.887794   -34.049050
 0.355000   2.717923   -33.870677
 0.360000   2.549087   -33.740602
 0.365000   2.380517   -33.718624
 0.370000   2.211901   -33.743441
 0.375000   2.043083   -33.941012
 0.380000   1.872491   -34.443334
 0.385000   1.698649   -35.135593
 0.390000   1.521135   -35.873638
 0.395000   1.339913   -36.642167
 0.400000   1.154713   -37.565007
 0.405000   0.964263   -39.025919
 0.410000   0.764454   -42.283190
 0.415000   0.541431   -47.665075
 0.420000   0.287803   -54.574718
 0.425000   -0.004316   -62.982333
 0.430000   -0.342020   -72.661641
 0.435000   -0.730933   -83.498519
 0.440000   -1.177005   -95.533942
 0.445000   -1.686272   -106.627741
 0.450000   -2.243282   -115.227880
 0.455000   -2.838551   -121.538309
 0.460000   -3.458666   -124.874002
 0.465000   -4.087291   -124.636329
 0.470000   -4.705029   -120.003871
 0.475000   -5.287330   -111.456192
 0.480000   -5.819591   -100.474902
 0.485000   -6.292079   -88.118031
 0.490000   -6.700771   -75.204880
 0.495000   -7.044127   -61.960558
 0.500000   -7.320377   -49.511274
 0.505000   -7.539240   -39.604873
 0.510000   -7.716425   -32.226578
 0.515000   -7.861506   -26.776909
 0.520000   -7.984194   -23.212023
 0.525000   -8.093626   -21.104205
 0.530000   -8.195237   -19.848275
 0.535000   -8.292109   -19.009647
 0.540000   -8.385333   -18.259837
 0.545000   -8.474707   -17.429600
 0.550000   -8.559629   -16.499857
 0.555000   -8.639706   -15.587643
 0.560000   -8.715505   -14.458544
 0.565000   -8.784291   -12.908093
 0.570000   -8.844586   -11.171482
 0.575000   -8.896006   -9.271328
 0.580000   -8.937300   -7.147645
 0.585000   -8.967483   -4.898957
 0.590000   -8.986289   -2.715386
 0.595000   -8.994636   -0.593009
 0.600000   -8.992219   1.456351
 0.605000   -8.980073   3.262232
 0.610000   -8.959597   4.804916
 0.615000   -8.932024   6.137801
 0.620000   -8.898219   7.289651
 0.625000   -8.859127   8.188367
 0.630000   -8.816335   8.946933
 0.635000   -8.769658   9.690343
 0.640000   -8.719432   10.358328
 0.645000   -8.666075   10.961567
 0.650000   -8.609816   11.567451
 0.655000   -8.550400   12.167242
 0.660000   -8.488144   12.672443
 0.665000   -8.423676   13.120409
 0.670000   -8.356940   13.592659
 0.675000   -8.287749   14.206691
 0.680000   -8.214873   15.059878
 0.685000   -8.137150   16.228301
 0.690000   -8.052590   17.739270
 0.695000   -7.959758   19.481999
 0.700000   -7.857770   21.481648
 0.705000   -7.744941   23.606296
 0.710000   -7.621707   25.380546
 0.715000   -7.491136   26.519267
 0.720000   -7.356514   26.959069
 0.725000   -7.221545   26.594775
 0.730000   -7.090566   25.306157
 0.735000   -6.968483   23.011088
 0.740000   -6.860456   19.940125
 0.745000   -6.769082   16.475242
 0.750000   -6.695703   12.869570
 0.755000   -6.640387   9.386965
 0.760000   -6.601833   6.269653
 0.765000   -6.577690   3.685837
 0.770000   -6.564975   1.507516
 0.775000   -6.562615   -0.580387
 0.780000   -6.570779   -2.863925
 0.785000   -6.591254   -5.685923
 0.790000   -6.627638   -9.641992
 0.795000   -6.687674   -14.822061
 0.800000   -6.775859   -20.869588
 0.805000   -6.896370   -27.550233
 0.810000   -7.051361   -34.334005
 0.815000   -7.239710   -40.479077
 0.820000   -7.456152   -45.070779
 0.825000   -7.690418   -47.209695
 0.830000   -7.928249   -46.757656
 0.835000   -8.157994   -44.179160
 0.840000   -8.370040   -39.954768
 0.845000   -8.557542   -34.598920
 0.850000   -8.716030   -28.475032
 0.855000   -8.842292   -21.761235
 0.860000   -8.933642   -14.353536
 0.865000   -8.985828   -6.015329
 0.870000   -8.993795   3.506552
 0.875000   -8.950762   14.522905
 0.880000   -8.848566   27.227346
 0.885000   -8.678489   41.115571
 0.890000   -8.437411   55.073132
 0.895000   -8.127757   67.882950
 0.900000   -7.758581   78.335808
 0.905000   -7.344399   85.493523
 0.910000   -6.903646   89.410754
 0.915000   -6.450292   91.063697
 0.920000   -5.993009   91.526260
 0.925000   -5.535029   91.538926
 0.930000   -5.077620   91.033943
 0.935000   -4.624690   89.516571
 0.940000   -4.182454   81.944326
 0.945000   -3.805246   58.277366
 0.950000   -3.599680   12.169284
 0.955000   -3.683554   -52.910092
 0.960000   -4.128781   -115.888168
 0.965000   -4.842435   -137.345175
 0.970000   -5.502233   -68.112302
 0.975000   -5.523558   110.447419
 0.980000   -4.397759   348.785059
 0.985000   -2.035708   548.721505
 0.990000   1.089456   616.255108
 0.995000   4.126843   519.155491
 1.000000   6.281011   342.511693
201 psinorm omgvb(kRad/s) domgvb/dpsiN
 0.000000   60.262655   148.684712
 0.005000   60.852105   87.095348
 0.010000   61.133608   52.588849
 0.015000   61.377993   47.095596
 0.020000   61.604564   43.937618
 0.025000   61.817369   40.909205
 0.030000   62.013656   37.412898
 0.035000   62.191498   34.057151
 0.040000   62.354228   30.967864
 0.045000   62.501177   27.948600
 0.050000   62.633714   25.286423
 0.055000   62.754041   23.183341
 0.060000   62.865547   21.511880
 0.065000   62.969160   19.861833
 0.070000   63.064165   18.140868
 0.075000   63.150569   16.155969
 0.080000   63.225725   13.617604
 0.085000   63.286745   10.597948
 0.090000   63.331705   7.010127
 0.095000   63.356846   3.079881
 0.100000   63.362503   -0.854260
 0.105000   63.348303   -4.786981
 0.110000   63.314634   -8.551874
 0.115000   63.262785   -12.153058
 0.120000   63.193103   -15.369558
 0.125000   63.109089   -18.069283
 0.130000   63.012410   -20.396631
 0.135000   62.905123   -22.526773
 0.140000   62.787142   -24.603755
 0.145000   62.659085   -26.700698
 0.150000   62.520135   -29.002197
 0.155000   62.369063   -31.514265
 0.160000   62.204993   -34.200815
 0.165000   62.027055   -36.948224
 0.170000   61.835511   -39.871127
 0.175000   61.628344   -42.855000
 0.180000   61.406961   -45.812306
 0.185000   61.170221   -48.736530
 0.190000   60.919595   -51.442316
 0.195000   60.655798   -54.027622
 0.200000   60.379319   -56.272953
 0.205000   60.093068   -58.221926
 0.210000   59.797100   -59.844780
 0.215000   59.494620   -61.064160
 0.220000   59.186458   -62.174163
 0.225000   58.872879   -62.980357
 0.230000   58.556655   -63.711001
 0.235000   58.235769   -64.584686
 0.240000   57.910808   -65.371801
 0.245000   57.582051   -66.257265
 0.250000   57.248235   -67.114732
 0.255000   56.910903   -67.779326
 0.260000   56.570442   -68.523987
 0.265000   56.225664   -69.214566
 0.270000   55.878296   -69.845288
 0.275000   55.527211   -70.581495
 0.280000   55.172481   -71.176337
 0.285000   54.815447   -71.755783
 0.290000   54.454923   -72.537336
 0.295000   54.090074   -73.349961
 0.300000   53.721424   -74.239011
 0.305000   53.347684   -75.233236
 0.310000   52.969091   -76.151384
 0.315000   52.586170   -77.073157
 0.320000   52.198360   -78.003449
 0.325000   51.806135   -78.741965
 0.330000   51.410940   -79.285786
 0.335000   51.013278   -79.589131
 0.340000   50.615049   -79.503219
 0.345000   50.218245   -79.128750
 0.350000   49.823761   -78.427482
 0.355000   49.433971   -77.451900
 0.360000   49.049242   -76.508781
 0.365000   48.668883   -75.658269
 0.370000   48.292660   -74.837817
 0.375000   47.920505   -74.168619
 0.380000   47.550974   -73.767792
 0.385000   47.182827   -73.514312
 0.390000   46.815830   -73.272010
 0.395000   46.450107   -73.031124
 0.400000   46.085519   -72.920803
 0.405000   45.720899   -73.321708
 0.410000   45.352302   -75.531972
 0.415000   44.965579   -79.973331
 0.420000   44.552569   -86.112589
 0.425000   44.104453   -93.939090
 0.430000   43.613178   -103.222041
 0.435000   43.072233   -113.894619
 0.440000   42.474232   -125.969356
 0.445000   41.812539   -137.131821
 0.450000   41.102913   -145.766888
 0.455000   40.354870   -152.089810
 0.460000   39.582015   -155.385336
 0.465000   38.801017   -155.088449
 0.470000   38.031131   -150.346523
 0.475000   37.297552   -141.486927
 0.480000   36.616262   -129.996953
 0.485000   35.997582   -117.024099
 0.490000   35.446021   -103.411845
 0.495000   34.963464   -89.420924
 0.500000   34.551811   -76.199187
 0.505000   34.201472   -65.542021
 0.510000   33.896391   -57.532361
 0.515000   33.626148   -51.635462
 0.520000   33.380037   -47.831678
 0.525000   33.147831   -45.707252
 0.530000   32.922964   -44.663029
 0.535000   32.701201   -44.276229
 0.540000   32.480202   -44.227906
 0.545000   32.258922   -44.349019
 0.550000   32.036712   -44.620914
 0.555000   31.812713   -45.158158
 0.560000   31.585130   -45.720572
 0.565000   31.355507   -46.108598
 0.570000   31.124044   -46.557299
 0.575000   30.889934   -47.077312
 0.580000   30.653271   -47.601286
 0.585000   30.413921   -48.218834
 0.590000   30.171083   -49.105371
 0.595000   29.922868   -50.198764
 0.600000   29.669095   -51.440209
 0.605000   29.408465   -52.954675
 0.610000   29.139548   -54.715927
 0.615000   28.861306   -56.626652
 0.620000   28.573282   -58.560747
 0.625000   28.275699   -60.589524
 0.630000   27.967386   -62.635426
 0.635000   27.649344   -64.522189
 0.640000   27.322164   -66.292890
 0.645000   26.986416   -67.928977
 0.650000   26.642875   -69.331274
 0.655000   26.293103   -70.669542
 0.660000   25.936179   -72.216565
 0.665000   25.570937   -73.933567
 0.670000   25.196844   -75.749475
 0.675000   24.813442   -77.542283
 0.680000   24.421421   -79.299504
 0.685000   24.020447   -80.647323
 0.690000   23.614948   -81.083919
 0.695000   23.209608   -80.681093
 0.700000   22.808137   -79.459630
 0.705000   22.415012   -77.562088
 0.710000   22.032516   -75.502027
 0.715000   21.659992   -73.502840
 0.720000   21.297487   -71.558284
 0.725000   20.944409   -69.834827
 0.730000   20.599139   -68.511362
 0.735000   20.259295   -67.720641
 0.740000   19.921933   -67.302452
 0.745000   19.586271   -67.059292
 0.750000   19.251340   -66.961820
 0.755000   18.916652   -66.827093
 0.760000   18.583069   -66.419526
 0.765000   18.252457   -65.574361
 0.770000   17.927325   -64.467478
 0.775000   17.607782   -63.369151
 0.780000   17.293634   -62.386703
 0.785000   16.983915   -61.913798
 0.790000   16.674496   -62.753751
 0.795000   16.356378   -65.141589
 0.800000   16.023080   -68.858002
 0.805000   15.667798   -73.808013
 0.810000   15.285000   -79.623219
 0.815000   14.871566   -85.672171
 0.820000   14.428278   -91.080462
 0.825000   13.960761   -94.972677
 0.830000   13.478551   -97.220946
 0.835000   12.988552   -98.262758
 0.840000   12.495924   -98.517248
 0.845000   12.003379   -98.533985
 0.850000   11.510584   -98.790672
 0.855000   11.015472   -99.558373
 0.860000   10.515000   -100.842769
 0.865000   10.007045   -102.745859
 0.870000   9.487541   -104.728739
 0.875000   8.959757   -105.972011
 0.880000   8.427821   -106.152425
 0.885000   7.898233   -105.352960
 0.890000   7.374292   -104.168174
 0.895000   6.856551   -103.729556
 0.900000   6.336996   -103.915364
 0.905000   5.817398   -104.314149
 0.910000   5.293855   -104.719329
 0.915000   4.770204   -103.580212
 0.920000   4.258053   -99.456852
 0.925000   3.775636   -91.556870
 0.930000   3.342484   -79.871822
 0.935000   2.976918   -65.645369
 0.940000   2.686030   -55.514980
 0.945000   2.421768   -60.925727
 0.950000   2.076773   -89.548587
 0.955000   1.526282   -138.769850
 0.960000   0.689074   -188.446771
 0.965000   -0.358186   -199.781513
 0.970000   -1.308741   -123.349522
 0.975000   -1.591681   59.904733
 0.980000   -0.709693   300.956241
 0.985000   1.417881   502.404666
 0.990000   4.314353   570.736353
 0.995000   7.125245   473.941629
 1.000000   9.053770   297.468222
201 psinorm omgpp(kRad/s) domgpp/dpsiN
 0.000000   -0.058313   -29.080875
 0.005000   -0.235877   -41.944695
 0.010000   -0.477760   -48.943599
 0.015000   -0.725313   -49.994452
 0.020000   -0.977704   -50.859581
 0.025000   -1.233909   -51.508014
 0.030000   -1.492785   -51.947124
 0.035000   -1.753380   -52.168523
 0.040000   -2.014470   -52.150847
 0.045000   -2.274888   -51.905589
 0.050000   -2.533526   -51.406839
 0.055000   -2.788957   -50.674543
 0.060000   -3.040271   -49.934110
 0.065000   -3.288298   -49.181222
 0.070000   -3.532083   -48.290943
 0.075000   -3.771207   -47.304397
 0.080000   -4.005127   -46.173636
 0.085000   -4.232944   -44.879896
 0.090000   -4.453926   -43.533314
 0.095000   -4.668277   -42.097307
 0.100000   -4.874899   -40.492241
 0.105000   -5.073199   -38.765039
 0.110000   -5.262550   -36.902787
 0.115000   -5.442227   -34.851922
 0.120000   -5.611069   -32.699362
 0.125000   -5.769221   -30.436865
 0.130000   -5.915438   -28.001309
 0.135000   -6.049234   -25.482471
 0.140000   -6.170262   -22.904002
 0.145000   -6.278274   -20.079454
 0.150000   -6.371057   -17.487963
 0.155000   -6.453154   -15.165909
 0.160000   -6.522716   -12.660532
 0.165000   -6.579759   -10.164301
 0.170000   -6.624359   -7.687260
 0.175000   -6.656631   -4.993200
 0.180000   -6.674291   -2.656864
 0.185000   -6.683200   -0.762235
 0.190000   -6.681913   1.186354
 0.195000   -6.671337   2.925953
 0.200000   -6.652654   4.421735
 0.205000   -6.627119   5.573198
 0.210000   -6.596922   6.384416
 0.215000   -6.563275   7.158256
 0.220000   -6.525339   7.994926
 0.225000   -6.483326   8.807817
 0.230000   -6.437261   9.632357
 0.235000   -6.387002   10.086253
 0.240000   -6.336399   11.112591
 0.245000   -6.275876   13.230867
 0.250000   -6.204090   15.357085
 0.255000   -6.122305   17.348180
 0.260000   -6.030608   19.292761
 0.265000   -5.929378   21.180840
 0.270000   -5.818800   23.196144
 0.275000   -5.697416   25.129451
 0.280000   -5.567505   26.719662
 0.285000   -5.430220   28.107580
 0.290000   -5.286429   29.308996
 0.295000   -5.137130   30.531292
 0.300000   -4.981116   31.319320
 0.305000   -4.823937   30.996676
 0.310000   -4.671150   30.179731
 0.315000   -4.522139   29.341900
 0.320000   -4.377731   28.381044
 0.325000   -4.238329   27.241255
 0.330000   -4.105318   25.864048
 0.335000   -3.979688   24.806584
 0.340000   -3.857252   24.144973
 0.345000   -3.738239   23.524790
 0.350000   -3.622004   23.032796
 0.355000   -3.507911   22.461757
 0.360000   -3.397387   21.804321
 0.365000   -3.289867   22.030419
 0.370000   -3.177083   22.825109
 0.375000   -3.061616   23.457867
 0.380000   -2.942504   24.213685
 0.385000   -2.819480   24.989399
 0.390000   -2.692610   25.937247
 0.395000   -2.560107   26.550305
 0.400000   -2.427107   26.496284
 0.405000   -2.295144   26.138526
 0.410000   -2.165722   25.480496
 0.415000   -2.040339   24.596181
 0.420000   -1.919760   23.876298
 0.425000   -1.801576   22.221684
 0.430000   -1.697543   19.991398
 0.435000   -1.601662   18.371782
 0.440000   -1.513825   16.775472
 0.445000   -1.433908   15.202776
 0.450000   -1.361797   13.896612
 0.455000   -1.294941   12.138271
 0.460000   -1.240415   10.105250
 0.465000   -1.193889   8.507339
 0.470000   -1.155341   6.926445
 0.475000   -1.124625   5.388752
 0.480000   -1.101454   3.872117
 0.485000   -1.085903   2.763853
 0.490000   -1.073815   2.097995
 0.495000   -1.064923   1.444618
 0.500000   -1.059369   0.753915
 0.505000   -1.057384   0.007050
 0.510000   -1.059299   -0.829309
 0.515000   -1.065677   -1.702423
 0.520000   -1.076323   -2.525537
 0.525000   -1.090933   -3.295691
 0.530000   -1.109280   -4.018639
 0.535000   -1.131119   -4.691523
 0.540000   -1.156195   -5.337846
 0.545000   -1.184498   -5.916777
 0.550000   -1.215363   -6.411319
 0.555000   -1.248611   -6.876726
 0.560000   -1.284130   -7.311685
 0.565000   -1.321728   -7.708286
 0.570000   -1.361213   -8.078698
 0.575000   -1.402515   -8.392311
 0.580000   -1.445136   -8.621800
 0.585000   -1.488733   -8.798998
 0.590000   -1.533126   -8.938392
 0.595000   -1.578117   -9.042822
 0.600000   -1.623554   -9.132855
 0.605000   -1.669445   -9.219072
 0.610000   -1.715745   -9.282914
 0.615000   -1.762274   -9.332052
 0.620000   -1.809065   -9.381518
 0.625000   -1.856089   -9.421511
 0.630000   -1.903281   -9.495390
 0.635000   -1.951043   -9.590027
 0.640000   -1.999181   -9.507679
 0.645000   -2.046120   -9.328091
 0.650000   -2.092462   -9.218217
 0.655000   -2.138302   -9.128492
 0.660000   -2.183747   -9.137129
 0.665000   -2.229674   -9.389213
 0.670000   -2.277639   -9.677306
 0.675000   -2.326447   -10.138177
 0.680000   -2.379021   -10.900324
 0.685000   -2.435450   -11.640525
 0.690000   -2.495426   -12.457773
 0.695000   -2.560028   -13.806065
 0.700000   -2.633486   -14.063873
 0.705000   -2.700666   -13.383734
 0.710000   -2.767324   -13.155066
 0.715000   -2.832217   -12.650394
 0.720000   -2.893828   -11.879787
 0.725000   -2.951015   -11.050322
 0.730000   -3.004331   -8.753589
 0.735000   -3.038551   -5.570256
 0.740000   -3.060033   -2.925429
 0.745000   -3.067805   -0.112229
 0.750000   -3.061156   2.804156
 0.755000   -3.039763   6.536764
 0.760000   -2.995788   9.640675
 0.765000   -2.943357   11.360447
 0.770000   -2.882184   12.941146
 0.775000   -2.813945   14.172462
 0.780000   -2.740459   15.036819
 0.785000   -2.663577   16.223599
 0.790000   -2.578223   16.068966
 0.795000   -2.502887   14.507511
 0.800000   -2.433148   13.296464
 0.805000   -2.369923   11.898279
 0.810000   -2.314165   10.402968
 0.815000   -2.265893   9.138903
 0.820000   -2.222776   8.430659
 0.825000   -2.181586   8.133866
 0.830000   -2.141437   7.875092
 0.835000   -2.102836   7.465961
 0.840000   -2.066778   6.809238
 0.845000   -2.034743   5.592051
 0.850000   -2.010857   3.634517
 0.855000   -1.998398   1.334487
 0.860000   -1.997512   -1.215958
 0.865000   -2.010558   -4.135823
 0.870000   -2.038871   -7.261969
 0.875000   -2.083177   -11.245009
 0.880000   -2.151321   -15.043502
 0.885000   -2.233612   -17.331003
 0.890000   -2.324631   -19.961789
 0.895000   -2.433230   -23.848923
 0.900000   -2.563120   -28.562577
 0.905000   -2.718856   -36.021964
 0.910000   -2.923340   -46.251537
 0.915000   -3.181371   -55.054440
 0.920000   -3.473884   -64.372305
 0.925000   -3.825094   -77.343054
 0.930000   -4.247315   -93.655260
 0.935000   -4.761647   -119.035700
 0.940000   -5.437672   -157.797605
 0.945000   -6.339623   -202.277588
 0.950000   -7.460448   -260.724935
 0.955000   -8.946872   -340.954153
 0.960000   -10.869989   -427.429339
 0.965000   -13.221166   -503.668591
 0.970000   -15.906675   -540.251907
 0.975000   -18.623685   -475.198750
 0.980000   -20.658662   -309.546810
 0.985000   -21.719153   -86.118525
 0.990000   -21.519848   169.489038
 0.995000   -20.024263   400.280774
 1.000000   -17.517040   602.608260
201 psinorm omgeb(kRad/s) domgeb/dpsiN
 0.000000   60.204342   119.603837
 0.005000   60.616228   45.150653
 0.010000   60.655848   3.645250
 0.015000   60.652680   -2.898856
 0.020000   60.626860   -6.921963
 0.025000   60.583461   -10.598809
 0.030000   60.520871   -14.534226
 0.035000   60.438118   -18.111372
 0.040000   60.339758   -21.182983
 0.045000   60.226289   -23.956989
 0.050000   60.100188   -26.120417
 0.055000   59.965084   -27.491202
 0.060000   59.825276   -28.422230
 0.065000   59.680862   -29.319388
 0.070000   59.532082   -30.150075
 0.075000   59.379361   -31.148427
 0.080000   59.220598   -32.556032
 0.085000   59.053801   -34.281947
 0.090000   58.877778   -36.523187
 0.095000   58.688569   -39.017426
 0.100000   58.487604   -41.346501
 0.105000   58.275104   -43.552021
 0.110000   58.052084   -45.454661
 0.115000   57.820558   -47.004980
 0.120000   57.582034   -48.068920
 0.125000   57.339868   -48.506148
 0.130000   57.096972   -48.397940
 0.135000   56.855889   -48.009244
 0.140000   56.616880   -47.507757
 0.145000   56.380811   -46.780152
 0.150000   56.149079   -46.490160
 0.155000   55.915910   -46.680173
 0.160000   55.682277   -46.861347
 0.165000   55.447296   -47.112525
 0.170000   55.211152   -47.558387
 0.175000   54.971712   -47.848200
 0.180000   54.732670   -48.469170
 0.185000   54.487021   -49.498764
 0.190000   54.237682   -50.255962
 0.195000   53.984461   -51.101670
 0.200000   53.726665   -51.851218
 0.205000   53.465949   -52.648728
 0.210000   53.200178   -53.460364
 0.215000   52.931345   -53.905904
 0.220000   52.661119   -54.179237
 0.225000   52.389553   -54.172540
 0.230000   52.119393   -54.078644
 0.235000   51.848767   -54.498432
 0.240000   51.574409   -54.259210
 0.245000   51.306174   -53.026398
 0.250000   51.044145   -51.757647
 0.255000   50.788598   -50.431146
 0.260000   50.539834   -49.231226
 0.265000   50.296286   -48.033726
 0.270000   50.059496   -46.649144
 0.275000   49.829794   -45.452045
 0.280000   49.604976   -44.456675
 0.285000   49.385228   -43.648203
 0.290000   49.168494   -43.228339
 0.295000   48.952944   -42.818670
 0.300000   48.740307   -42.919691
 0.305000   48.523747   -44.236561
 0.310000   48.297942   -45.971653
 0.315000   48.064031   -47.731257
 0.320000   47.820629   -49.622405
 0.325000   47.567807   -51.500711
 0.330000   47.305622   -53.421739
 0.335000   47.033589   -54.782547
 0.340000   46.757797   -55.358246
 0.345000   46.480007   -55.603960
 0.350000   46.201757   -55.394686
 0.355000   45.926060   -54.990143
 0.360000   45.651856   -54.704459
 0.365000   45.379015   -53.627850
 0.370000   45.115577   -52.012709
 0.375000   44.858888   -50.710752
 0.380000   44.608469   -49.554106
 0.385000   44.363347   -48.524913
 0.390000   44.123220   -47.334762
 0.395000   43.890000   -46.480819
 0.400000   43.658412   -46.424518
 0.405000   43.425754   -47.183181
 0.410000   43.186580   -50.051475
 0.415000   42.925240   -55.377150
 0.420000   42.632809   -62.236291
 0.425000   42.302877   -71.717405
 0.430000   41.915635   -83.230643
 0.435000   41.470570   -95.522836
 0.440000   40.960406   -109.193884
 0.445000   40.378631   -121.929045
 0.450000   39.741116   -131.870276
 0.455000   39.059929   -139.951539
 0.460000   38.341601   -145.280086
 0.465000   37.607128   -146.581110
 0.470000   36.875790   -143.420079
 0.475000   36.172927   -136.098175
 0.480000   35.514808   -126.124836
 0.485000   34.911679   -114.260246
 0.490000   34.372205   -101.313849
 0.495000   33.898540   -87.976306
 0.500000   33.492442   -75.445273
 0.505000   33.144087   -65.534971
 0.510000   32.837093   -58.361670
 0.515000   32.560471   -53.337885
 0.520000   32.303714   -50.357215
 0.525000   32.056899   -49.002943
 0.530000   31.813684   -48.681667
 0.535000   31.570082   -48.967752
 0.540000   31.324007   -49.565753
 0.545000   31.074424   -50.265796
 0.550000   30.821349   -51.032232
 0.555000   30.564102   -52.034884
 0.560000   30.301000   -53.032257
 0.565000   30.033780   -53.816884
 0.570000   29.762831   -54.635998
 0.575000   29.487420   -55.469623
 0.580000   29.208135   -56.223086
 0.585000   28.925189   -57.017832
 0.590000   28.637957   -58.043764
 0.595000   28.344751   -59.241586
 0.600000   28.045541   -60.573064
 0.605000   27.739020   -62.173747
 0.610000   27.423803   -63.998842
 0.615000   27.099032   -65.958704
 0.620000   26.764216   -67.942265
 0.625000   26.419609   -70.011035
 0.630000   26.064106   -72.130817
 0.635000   25.698301   -74.112217
 0.640000   25.322984   -75.800569
 0.645000   24.940295   -77.257068
 0.650000   24.550413   -78.549491
 0.655000   24.154801   -79.798034
 0.660000   23.752433   -81.353694
 0.665000   23.341264   -83.322780
 0.670000   22.919205   -85.426781
 0.675000   22.486996   -87.680460
 0.680000   22.042400   -90.199827
 0.685000   21.584998   -92.287848
 0.690000   21.119522   -93.541691
 0.695000   20.649581   -94.487158
 0.700000   20.174650   -93.523504
 0.705000   19.714346   -90.945821
 0.710000   19.265192   -88.657093
 0.715000   18.827775   -86.153234
 0.720000   18.403660   -83.438071
 0.725000   17.993394   -80.885149
 0.730000   17.594808   -77.264950
 0.735000   17.220744   -73.290897
 0.740000   16.861899   -70.227881
 0.745000   16.518466   -67.171521
 0.750000   16.190184   -64.157664
 0.755000   15.876889   -60.290328
 0.760000   15.587281   -56.778850
 0.765000   15.309100   -54.213914
 0.770000   15.045142   -51.526332
 0.775000   14.793837   -49.196689
 0.780000   14.553175   -47.349885
 0.785000   14.320338   -45.690199
 0.790000   14.096273   -46.684785
 0.795000   13.853490   -50.634078
 0.800000   13.589932   -55.561538
 0.805000   13.297875   -61.909734
 0.810000   12.970835   -69.220251
 0.815000   12.605673   -76.533268
 0.820000   12.205502   -82.649804
 0.825000   11.779175   -86.838810
 0.830000   11.337114   -89.345854
 0.835000   10.885716   -90.796798
 0.840000   10.429146   -91.708010
 0.845000   9.968636   -92.941933
 0.850000   9.499726   -95.156155
 0.855000   9.017074   -98.223886
 0.860000   8.517488   -102.058728
 0.865000   7.996487   -106.881682
 0.870000   7.448671   -111.990708
 0.875000   6.876580   -117.217020
 0.880000   6.276501   -121.195928
 0.885000   5.664621   -122.683963
 0.890000   5.049661   -124.129963
 0.895000   4.423321   -127.578479
 0.900000   3.773876   -132.477941
 0.905000   3.098542   -140.336113
 0.910000   2.370515   -150.970866
 0.915000   1.588833   -158.634652
 0.920000   0.784169   -163.829157
 0.925000   -0.049459   -168.899924
 0.930000   -0.904831   -173.527082
 0.935000   -1.784729   -184.681069
 0.940000   -2.751641   -213.312585
 0.945000   -3.917855   -263.203315
 0.950000   -5.383675   -350.273522
 0.955000   -7.420590   -479.724003
 0.960000   -10.180915   -615.876111
 0.965000   -13.579352   -703.450104
 0.970000   -17.215416   -663.601429
 0.975000   -20.215366   -415.294018
 0.980000   -21.368356   -8.590569
 0.985000   -20.301272   416.286141
 0.990000   -17.205494   740.225391
 0.995000   -12.899018   874.222403
 1.000000   -8.463270   900.076482
201 psinorm er(kV/m) der/dpsiN
 0.000000   0.994537   1081.678690
 0.005000   5.370645   668.764255
 0.010000   7.682180   410.725199
 0.015000   9.477897   328.855735
 0.020000   10.970737   281.369219
 0.025000   12.291589   251.457745
 0.030000   13.485314   228.339493
 0.035000   14.574984   209.560339
 0.040000   15.580918   193.574118
 0.045000   16.510725   180.861003
 0.050000   17.389528   171.154439
 0.055000   18.222269   160.829651
 0.060000   18.997824   150.080574
 0.065000   19.723075   143.181767
 0.070000   20.429642   138.314659
 0.075000   21.106222   129.285541
 0.080000   21.722498   123.635745
 0.085000   22.342579   119.679926
 0.090000   22.919297   110.579697
 0.095000   23.448376   107.581687
 0.100000   23.995114   100.247461
 0.105000   24.450851   95.746137
 0.110000   24.952575   91.520116
 0.115000   25.366052   86.446195
 0.120000   25.817037   82.474873
 0.125000   26.190800   78.741474
 0.130000   26.604452   75.016296
 0.135000   26.940963   72.648242
 0.140000   27.330934   68.772623
 0.145000   27.628690   67.546296
 0.150000   28.006397   63.163027
 0.155000   28.260320   60.001145
 0.160000   28.606409   60.000370
 0.165000   28.860324   54.277557
 0.170000   29.149184   55.123853
 0.175000   29.411562   48.874677
 0.180000   29.637931   49.678185
 0.185000   29.908344   43.347297
 0.190000   30.071404   40.940317
 0.195000   30.317747   42.050569
 0.200000   30.491910   35.061513
 0.205000   30.668362   37.478506
 0.210000   30.866695   30.273054
 0.215000   30.971093   28.514193
 0.220000   31.151837   30.750882
 0.225000   31.278602   23.798518
 0.230000   31.389822   26.403873
 0.235000   31.542640   21.450100
 0.240000   31.604323   18.210985
 0.245000   31.724750   23.757317
 0.250000   31.841896   16.951805
 0.255000   31.894268   17.065390
 0.260000   32.012550   20.532868
 0.265000   32.099597   14.736922
 0.270000   32.159919   16.748967
 0.275000   32.267087   17.243958
 0.280000   32.332359   13.006328
 0.285000   32.397150   15.859513
 0.290000   32.490954   13.887962
 0.295000   32.536030   10.486137
 0.300000   32.595815   13.316968
 0.305000   32.669199   9.236455
 0.310000   32.688180   5.086687
 0.315000   32.720066   6.755202
 0.320000   32.755732   2.157742
 0.325000   32.741644   -1.804535
 0.330000   32.737686   -0.677356
 0.335000   32.734870   -4.453647
 0.340000   32.693150   -7.460039
 0.345000   32.660270   -5.785738
 0.350000   32.635292   -7.613227
 0.355000   32.584137   -9.988695
 0.360000   32.535405   -8.644046
 0.365000   32.497697   -8.783253
 0.370000   32.447573   -10.406990
 0.375000   32.393627   -9.078386
 0.380000   32.356789   -8.138791
 0.385000   32.312239   -10.160814
 0.390000   32.255181   -9.537818
 0.395000   32.216861   -8.057890
 0.400000   32.174602   -10.668084
 0.405000   32.110180   -12.014024
 0.410000   32.054462   -12.973633
 0.415000   31.980444   -19.089765
 0.420000   31.863564   -25.461001
 0.425000   31.725834   -31.902236
 0.430000   31.544542   -41.714644
 0.435000   31.308687   -52.633526
 0.440000   31.018207   -63.302434
 0.445000   30.675663   -73.344893
 0.450000   30.284758   -82.734059
 0.455000   29.848322   -89.851965
 0.460000   29.386238   -93.980797
 0.465000   28.908514   -96.654987
 0.470000   28.419688   -95.456516
 0.475000   27.953949   -89.914208
 0.480000   27.520546   -83.100657
 0.485000   27.122943   -75.213474
 0.490000   26.768411   -65.635994
 0.495000   26.466583   -55.338654
 0.500000   26.215025   -46.721594
 0.505000   25.999367   -39.579358
 0.510000   25.819231   -33.732194
 0.515000   25.662045   -30.477842
 0.520000   25.514453   -28.917513
 0.525000   25.372870   -27.896297
 0.530000   25.235490   -27.708052
 0.535000   25.095789   -28.860538
 0.540000   24.946884   -29.726871
 0.545000   24.798520   -30.012087
 0.550000   24.646763   -31.304854
 0.555000   24.485472   -32.784365
 0.560000   24.318920   -33.514104
 0.565000   24.150331   -34.214610
 0.570000   23.976774   -35.784206
 0.575000   23.792489   -36.774136
 0.580000   23.609032   -37.046474
 0.585000   23.422024   -38.334015
 0.590000   23.225692   -39.831681
 0.595000   23.023707   -40.698900
 0.600000   22.818703   -41.729693
 0.605000   22.606410   -43.996177
 0.610000   22.378741   -45.804073
 0.615000   22.148370   -46.958292
 0.620000   21.909159   -49.118853
 0.625000   21.657181   -51.560379
 0.630000   21.393555   -53.260892
 0.635000   21.124572   -54.647622
 0.640000   20.847079   -57.005292
 0.645000   20.554519   -58.615425
 0.650000   20.260924   -59.198874
 0.655000   19.962530   -60.559236
 0.660000   19.655332   -62.710992
 0.665000   19.335420   -64.411687
 0.670000   19.011215   -65.755818
 0.675000   18.677862   -68.371957
 0.680000   18.327496   -71.048555
 0.685000   17.967377   -72.493007
 0.690000   17.602565   -73.431148
 0.695000   17.233065   -75.309825
 0.700000   16.849467   -74.759049
 0.705000   16.485475   -71.935019
 0.710000   16.130117   -70.496194
 0.715000   15.780513   -69.241263
 0.720000   15.437704   -66.874613
 0.725000   15.111767   -64.263492
 0.730000   14.795069   -62.006990
 0.735000   14.491697   -59.182111
 0.740000   14.203248   -56.142574
 0.745000   13.930271   -53.371417
 0.750000   13.669534   -51.885423
 0.755000   13.411417   -48.804337
 0.760000   13.181491   -45.064404
 0.765000   12.960773   -43.229302
 0.770000   12.749198   -41.684538
 0.775000   12.543927   -39.614158
 0.780000   12.353056   -37.555842
 0.785000   12.168369   -36.651547
 0.790000   11.986541   -37.942500
 0.795000   11.788944   -41.025851
 0.800000   11.576282   -45.005939
 0.805000   11.338885   -51.044505
 0.810000   11.065837   -57.524949
 0.815000   10.763635   -63.390236
 0.820000   10.431935   -68.691117
 0.825000   10.076724   -72.914142
 0.830000   9.702793   -75.169489
 0.835000   9.325029   -76.059731
 0.840000   8.942196   -77.137975
 0.845000   8.553649   -78.672785
 0.850000   8.155468   -80.560845
 0.855000   7.748041   -83.001849
 0.860000   7.325450   -86.696266
 0.865000   6.881078   -91.198979
 0.870000   6.413460   -95.484811
 0.875000   5.926230   -99.920357
 0.880000   5.414256   -103.882995
 0.885000   4.887400   -105.419684
 0.890000   4.360060   -106.414390
 0.895000   3.823256   -109.442168
 0.900000   3.265638   -114.381624
 0.905000   2.679440   -121.327796
 0.910000   2.052360   -130.108339
 0.915000   1.378357   -137.005519
 0.920000   0.682305   -142.165183
 0.925000   -0.043295   -146.537873
 0.930000   -0.783074   -150.154439
 0.935000   -1.544840   -160.726742
 0.940000   -2.390341   -186.612905
 0.945000   -3.410969   -229.072687
 0.950000   -4.681068   -303.695190
 0.955000   -6.447921   -423.298659
 0.960000   -8.914055   -549.709412
 0.965000   -11.945015   -624.328731
 0.970000   -15.157342   -586.587958
 0.975000   -17.810894   -399.720403
 0.980000   -19.154546   -51.730747
 0.985000   -18.328202   357.958614
 0.990000   -15.574960   661.911324
 0.995000   -11.709088   792.347374
 1.000000   -7.651486   830.693468
201 psinorm ommvb() dommvb/dpsiN
 0.000000   63.737545   23166.922300
 0.005000   157.190958   14214.442786
 0.010000   205.881973   9225.924683
 0.015000   249.450205   8125.153108
 0.020000   287.133504   6812.340617
 0.025000   317.573611   5554.892033
 0.030000   342.682425   4658.020742
 0.035000   364.153819   4182.259096
 0.040000   384.505016   3797.825902
 0.045000   402.132078   3367.338214
 0.050000   418.178398   3091.517021
 0.055000   433.047248   2641.187326
 0.060000   444.590271   2188.892112
 0.065000   454.936169   1915.007380
 0.070000   463.740345   1624.372737
 0.075000   471.179896   1350.525393
 0.080000   477.245599   1150.962810
 0.085000   482.689524   978.515035
 0.090000   487.030749   692.973954
 0.095000   489.619264   500.385443
 0.100000   492.034604   379.719633
 0.105000   493.416460   179.757494
 0.110000   493.832179   35.912910
 0.115000   493.775589   -93.294619
 0.120000   492.899232   -298.391601
 0.125000   490.791673   -464.026573
 0.130000   488.258967   -533.562145
 0.135000   485.456052   -591.450063
 0.140000   482.344466   -634.796295
 0.145000   479.108089   -779.023926
 0.150000   474.554227   -950.237422
 0.155000   469.605715   -1031.617623
 0.160000   464.238051   -1111.208877
 0.165000   458.493626   -1181.835139
 0.170000   452.419699   -1243.018043
 0.175000   446.063446   -1299.676982
 0.180000   439.422929   -1443.064378
 0.185000   431.632802   -1522.761204
 0.190000   424.195317   -1458.830705
 0.195000   417.044495   -1438.741652
 0.200000   409.807901   -1450.528552
 0.205000   402.539209   -1453.659158
 0.210000   395.271309   -1453.376534
 0.215000   388.005444   -1451.064196
 0.220000   380.760667   -1452.732950
 0.225000   373.478114   -1546.727778
 0.230000   365.293389   -1660.654876
 0.235000   356.871566   -1506.808758
 0.240000   350.225302   -1312.405123
 0.245000   343.747514   -1277.946206
 0.250000   337.445840   -1242.528174
 0.255000   331.322233   -1204.511429
 0.260000   325.400725   -1355.261885
 0.265000   317.769614   -1331.636796
 0.270000   312.084358   -1051.806231
 0.275000   307.251552   -949.795737
 0.280000   302.586400   -926.091940
 0.285000   297.990632   -979.915325
 0.290000   292.787247   -1074.257217
 0.295000   287.248060   -937.335831
 0.300000   283.413889   -747.368651
 0.305000   279.774373   -710.354360
 0.310000   276.310345   -733.671875
 0.315000   272.437655   -798.591337
 0.320000   268.324432   -676.748236
 0.325000   265.670172   -519.742394
 0.330000   263.127008   -496.454933
 0.335000   260.705623   -551.884740
 0.340000   257.608160   -545.160568
 0.345000   255.254017   -401.091591
 0.350000   253.597244   -319.371253
 0.355000   252.060305   -312.880217
 0.360000   250.468442   -377.525962
 0.365000   248.285045   -316.543689
 0.370000   247.303005   -186.223637
 0.375000   246.422809   -166.066188
 0.380000   245.642343   -221.185681
 0.385000   244.210952   -206.883276
 0.390000   243.573511   -101.179093
 0.395000   243.199161   -68.864519
 0.400000   242.884865   -102.958650
 0.405000   242.169575   -118.647489
 0.410000   241.698391   -57.572478
 0.415000   241.593850   -22.051108
 0.420000   241.477880   -55.816628
 0.425000   241.035683   -102.131702
 0.430000   240.456563   -76.174204
 0.435000   240.273941   -42.497223
 0.440000   240.031590   -76.455684
 0.445000   239.509385   -135.307097
 0.450000   238.678519   -110.813910
 0.455000   238.401245   -59.150554
 0.460000   238.087014   -81.791375
 0.465000   237.583332   -137.133327
 0.470000   236.715681   -113.606038
 0.475000   236.447271   -48.236627
 0.480000   236.233314   -46.071378
 0.485000   235.986558   -85.709853
 0.490000   235.376216   -56.321840
 0.495000   235.423339   16.471337
 0.500000   235.540929   24.656857
 0.505000   235.669908   -23.545240
 0.510000   235.305477   -9.579458
 0.515000   235.574113   53.608856
 0.520000   235.841565   52.285035
 0.525000   236.096964   -27.706625
 0.530000   235.564499   -19.158248
 0.535000   235.905381   67.742369
 0.540000   236.241923   65.874091
 0.545000   236.564122   9.732246
 0.550000   236.339245   5.977504
 0.555000   236.623897   65.980241
 0.560000   236.999048   75.749786
 0.565000   237.381395   42.322272
 0.570000   237.422270   38.563242
 0.575000   237.767027   88.041599
 0.580000   238.302686   109.421763
 0.585000   238.861245   96.398325
 0.590000   239.266670   90.030447
 0.595000   239.761549   139.368442
 0.600000   240.660354   184.211771
 0.605000   241.603667   187.344357
 0.610000   242.533797   172.174323
 0.615000   243.325410   205.046562
 0.620000   244.584263   260.643752
 0.625000   245.931848   279.694510
 0.630000   247.381208   297.603844
 0.635000   248.907886   329.071609
 0.640000   250.671924   372.981793
 0.645000   252.637704   408.240869
 0.650000   254.754333   439.993180
 0.655000   257.037636   478.692866
 0.660000   259.541262   517.512754
 0.665000   262.212764   548.725010
 0.670000   265.028512   579.513997
 0.675000   268.007904   619.997256
 0.680000   271.228484   670.612619
 0.685000   274.714030   714.841984
 0.690000   278.376904   756.501139
 0.695000   282.279041   806.034283
 0.700000   286.437247   874.998260
 0.705000   291.029024   957.907911
 0.710000   296.016326   1008.051591
 0.715000   301.109540   1048.853348
 0.720000   306.504860   1110.913029
 0.725000   312.218670   1180.368403
 0.730000   318.308544   1283.624556
 0.735000   325.054915   1343.655708
 0.740000   331.745101   1370.575849
 0.745000   338.760674   1435.245165
 0.750000   346.097552   1498.314612
 0.755000   353.743820   1579.097354
 0.760000   361.888526   1650.470225
 0.765000   370.248522   1689.771520
 0.770000   378.786241   1746.368206
 0.775000   387.712204   1825.463722
 0.780000   397.040878   1904.873144
 0.785000   406.760936   1984.885313
 0.790000   416.889731   2054.742516
 0.795000   427.308361   2113.359936
 0.800000   438.023331   2186.939698
 0.805000   449.177758   2277.502189
 0.810000   460.798353   2372.616657
 0.815000   472.903925   2472.070530
 0.820000   485.519058   2561.511656
 0.825000   498.519041   2639.917074
 0.830000   511.918229   2756.314688
 0.835000   526.082188   2901.189531
 0.840000   540.930124   3040.215663
 0.845000   556.484345   3181.912241
 0.850000   572.749246   3326.872661
 0.855000   589.753071   3479.340377
 0.860000   607.542650   3644.430953
 0.865000   626.197381   3716.399191
 0.870000   644.706642   3871.768263
 0.875000   664.915063   4164.443277
 0.880000   686.351075   4414.114060
 0.885000   709.056204   4686.021029
 0.890000   733.211285   4986.900597
 0.895000   758.925210   5319.841497
 0.900000   786.409700   5702.582341
 0.905000   815.951033   6154.104903
 0.910000   847.950749   6808.940844
 0.915000   884.040442   8051.896492
 0.920000   928.469714   10202.287950
 0.925000   986.063321   13333.964612
 0.930000   1061.809360   17722.058071
 0.935000   1163.283902   23923.375506
 0.940000   1301.043115   32791.185534
 0.945000   1491.195757   45101.855307
 0.950000   1752.061668   59446.098604
 0.955000   2085.656743   69432.752096
 0.960000   2446.389189   69870.840860
 0.965000   2784.365152   66052.713673
 0.970000   3106.916326   75826.445091
 0.975000   3542.629603   103794.975152
 0.980000   4144.866078   131659.610957
 0.985000   4859.225712   135334.680178
 0.990000   5498.212879   76182.234111
 0.995000   5621.048054   218454.433011
 1.000000   7682.757209   606229.229327
201 psinorm ommpp() dommpp/dpsiN
 0.000000   -3.533204   -23047.318463
 0.005000   -96.574730   -14169.292133
 0.010000   -145.226125   -9222.279433
 0.015000   -188.797525   -8128.051964
 0.020000   -226.506645   -6819.262581
 0.025000   -256.990150   -5565.490843
 0.030000   -282.161553   -4672.554968
 0.035000   -303.715700   -4200.370468
 0.040000   -324.165258   -3819.008885
 0.045000   -341.905789   -3391.295203
 0.050000   -358.078210   -3117.637437
 0.055000   -373.082163   -2668.678528
 0.060000   -384.764995   -2217.314342
 0.065000   -395.255307   -1944.326768
 0.070000   -404.208263   -1654.522812
 0.075000   -411.800535   -1381.673820
 0.080000   -418.025001   -1183.518842
 0.085000   -423.635723   -1012.796983
 0.090000   -428.152971   -729.497141
 0.095000   -430.930695   -539.402868
 0.100000   -433.547000   -421.066134
 0.105000   -435.141356   -223.309515
 0.110000   -435.780095   -81.367571
 0.115000   -435.955032   46.289639
 0.120000   -435.317198   250.322681
 0.125000   -433.451805   415.520426
 0.130000   -431.161994   485.164206
 0.135000   -428.600163   543.440819
 0.140000   -425.727586   587.288538
 0.145000   -422.727278   732.243774
 0.150000   -418.405148   903.747261
 0.155000   -413.689805   984.937449
 0.160000   -408.555774   1064.347530
 0.165000   -403.046330   1134.722614
 0.170000   -397.208548   1195.459656
 0.175000   -391.091733   1251.828782
 0.180000   -384.690260   1394.595208
 0.185000   -377.145781   1473.262440
 0.190000   -369.957635   1408.574743
 0.195000   -363.060034   1387.639982
 0.200000   -356.081236   1398.677334
 0.205000   -349.073260   1401.010430
 0.210000   -342.071131   1399.916170
 0.215000   -335.074099   1397.158293
 0.220000   -328.099548   1398.553714
 0.225000   -321.088561   1492.555238
 0.230000   -313.173996   1606.576232
 0.235000   -305.022799   1452.310326
 0.240000   -298.650893   1258.145913
 0.245000   -292.441340   1224.919808
 0.250000   -286.401695   1190.770527
 0.255000   -280.533635   1154.080284
 0.260000   -274.860892   1306.030659
 0.265000   -267.473328   1283.603070
 0.270000   -262.024861   1005.157087
 0.275000   -257.421757   904.343693
 0.280000   -252.981424   881.635265
 0.285000   -248.605405   936.267122
 0.290000   -243.618753   1031.028878
 0.295000   -238.295116   894.517161
 0.300000   -234.673581   704.448960
 0.305000   -231.250626   666.117799
 0.310000   -228.012403   687.700221
 0.315000   -224.373624   750.860080
 0.320000   -220.503803   627.125830
 0.325000   -218.102366   468.241684
 0.330000   -215.821386   443.033195
 0.335000   -213.672034   497.102193
 0.340000   -210.850364   489.802322
 0.345000   -208.774011   345.487631
 0.350000   -207.395487   263.976567
 0.355000   -206.134245   257.890074
 0.360000   -204.816587   322.821503
 0.365000   -202.906030   262.915839
 0.370000   -202.187428   134.210928
 0.375000   -201.563921   115.355436
 0.380000   -201.033874   171.631575
 0.385000   -199.847605   158.358363
 0.390000   -199.450290   53.844331
 0.395000   -199.309161   22.383701
 0.400000   -199.226453   56.534132
 0.405000   -198.743820   71.464308
 0.410000   -198.511810   7.521003
 0.415000   -198.668610   -33.326042
 0.420000   -198.845071   -6.419663
 0.425000   -198.732807   30.414297
 0.430000   -198.540928   -7.056438
 0.435000   -198.803371   -53.025613
 0.440000   -199.071184   -32.738201
 0.445000   -199.130753   13.378052
 0.450000   -198.937403   -21.056365
 0.455000   -199.341317   -80.800984
 0.460000   -199.745413   -63.488711
 0.465000   -199.976204   -9.447783
 0.470000   -199.839891   -29.814041
 0.475000   -200.274344   -87.861548
 0.480000   -200.718506   -80.053458
 0.485000   -201.074879   -28.550393
 0.490000   -201.004010   -44.992010
 0.495000   -201.524799   -104.447643
 0.500000   -202.048487   -100.102129
 0.505000   -202.525820   -41.989731
 0.510000   -202.468384   -48.782212
 0.515000   -203.013642   -106.946741
 0.520000   -203.537852   -102.642250
 0.525000   -204.040065   -21.296318
 0.530000   -203.750815   -29.523419
 0.535000   -204.335299   -116.710121
 0.540000   -204.917916   -115.439844
 0.545000   -205.489698   -59.998042
 0.550000   -205.517896   -57.009737
 0.555000   -206.059795   -118.015125
 0.560000   -206.698048   -128.782044
 0.565000   -207.347615   -96.139156
 0.570000   -207.659439   -93.199239
 0.575000   -208.279608   -143.511222
 0.580000   -209.094551   -165.644850
 0.585000   -209.936056   -153.416157
 0.590000   -210.628713   -148.074210
 0.595000   -211.416798   -198.610028
 0.600000   -212.614813   -244.784836
 0.605000   -213.864647   -249.518104
 0.610000   -215.109994   -236.173165
 0.615000   -216.226378   -271.005266
 0.620000   -217.820047   -328.586017
 0.625000   -219.512239   -349.705545
 0.630000   -221.317102   -369.734661
 0.635000   -223.209585   -403.183826
 0.640000   -225.348941   -448.782362
 0.645000   -227.697409   -485.497937
 0.650000   -230.203920   -518.542671
 0.655000   -232.882835   -558.490901
 0.660000   -235.788829   -598.866448
 0.665000   -238.871500   -632.047790
 0.670000   -242.109307   -664.940778
 0.675000   -245.520908   -707.677716
 0.680000   -249.186084   -760.812446
 0.685000   -253.129032   -807.129832
 0.690000   -257.257382   -850.042830
 0.695000   -261.629460   -900.521441
 0.700000   -266.262597   -968.521764
 0.705000   -271.314678   -1048.853732
 0.710000   -276.751134   -1096.708684
 0.715000   -282.281765   -1135.006581
 0.720000   -288.101200   -1194.351101
 0.725000   -294.225276   -1261.253552
 0.730000   -300.713735   -1360.889506
 0.735000   -307.834171   -1416.946605
 0.740000   -314.883201   -1440.803730
 0.745000   -322.242208   -1502.416685
 0.750000   -329.907368   -1562.472276
 0.755000   -337.866931   -1639.387683
 0.760000   -346.301245   -1707.249075
 0.765000   -354.939422   -1743.985434
 0.770000   -363.741100   -1797.894538
 0.775000   -372.918367   -1874.660411
 0.780000   -382.487704   -1952.223029
 0.785000   -392.440598   -2030.575512
 0.790000   -402.793459   -2101.427300
 0.795000   -413.454871   -2163.994013
 0.800000   -424.433399   -2242.501236
 0.805000   -435.879883   -2339.411923
 0.810000   -447.827518   -2441.836908
 0.815000   -460.298252   -2548.603798
 0.820000   -473.313556   -2644.161460
 0.825000   -486.739867   -2726.755884
 0.830000   -500.581115   -2845.660543
 0.835000   -515.196472   -2991.986328
 0.840000   -530.500978   -3131.923673
 0.845000   -546.515709   -3274.854174
 0.850000   -563.249520   -3422.028816
 0.855000   -580.735997   -3577.564263
 0.860000   -599.025163   -3746.489681
 0.865000   -618.200894   -3823.280873
 0.870000   -637.257971   -3983.758971
 0.875000   -658.038483   -4281.660297
 0.880000   -680.074574   -4535.309987
 0.885000   -703.391583   -4808.704992
 0.890000   -728.161624   -5111.030560
 0.895000   -754.501889   -5447.419976
 0.900000   -782.635824   -5835.060281
 0.905000   -812.852492   -6294.441016
 0.910000   -845.580234   -6959.911710
 0.915000   -882.451609   -8210.531143
 0.920000   -927.685546   -10366.117106
 0.925000   -986.112780   -13502.864537
 0.930000   -1062.714191   -17895.585152
 0.935000   -1165.068631   -24108.056575
 0.940000   -1303.794757   -33004.498119
 0.945000   -1495.113613   -45365.058622
 0.950000   -1757.445343   -59796.372126
 0.955000   -2093.077334   -69912.476100
 0.960000   -2456.570104   -70486.716970
 0.965000   -2797.944504   -66756.163778
 0.970000   -3124.131742   -76490.046520
 0.975000   -3562.844969   -104210.269169
 0.980000   -4166.234433   -131668.201525
 0.985000   -4879.526984   -134918.394037
 0.990000   -5515.418374   -75442.008721
 0.995000   -5633.947071   -217580.210609
 1.000000   -7691.220480   -605329.152845
201 psinorm omevb() domevb/dpsiN
 0.000000   29.581694   143.876496
 0.005000   30.134763   77.351115
 0.010000   30.355205   39.754706
 0.015000   30.532310   33.100486
 0.020000   30.686210   28.966673
 0.025000   30.821977   25.178539
 0.030000   30.937996   21.131260
 0.035000   31.033290   17.441689
 0.040000   31.112413   14.257097
 0.045000   31.175861   11.369565
 0.050000   31.226108   9.092074
 0.055000   31.266781   7.606698
 0.060000   31.302175   6.560563
 0.065000   31.332387   5.547788
 0.070000   31.357653   4.600985
 0.075000   31.378397   3.486024
 0.080000   31.392513   1.961331
 0.085000   31.398010   0.117854
 0.090000   31.393692   -2.241411
 0.095000   31.375596   -4.854129
 0.100000   31.345151   -7.302129
 0.105000   31.302575   -9.627010
 0.110000   31.248880   -11.649440
 0.115000   31.186080   -13.319967
 0.120000   31.115681   -14.504524
 0.125000   31.041035   -15.062770
 0.130000   30.965053   -15.075972
 0.135000   30.890275   -14.809071
 0.140000   30.816962   -14.429752
 0.145000   30.745978   -13.824680
 0.150000   30.678716   -13.657580
 0.155000   30.609402   -13.970832
 0.160000   30.539007   -14.275586
 0.165000   30.466646   -14.650673
 0.170000   30.392501   -15.220769
 0.175000   30.314439   -15.635128
 0.180000   30.236149   -16.380950
 0.185000   30.150629   -17.535694
 0.190000   30.060792   -18.418329
 0.195000   29.966446   -19.389754
 0.200000   29.866895   -20.265292
 0.205000   29.763793   -21.189055
 0.210000   29.655004   -22.127198
 0.215000   29.542521   -22.699493
 0.220000   29.428009   -23.099820
 0.225000   29.311523   -23.220347
 0.230000   29.195806   -23.253896
 0.235000   29.078984   -23.801344
 0.240000   28.957792   -23.689988
 0.245000   28.842084   -22.585241
 0.250000   28.731940   -21.444744
 0.255000   28.627636   -20.246679
 0.260000   28.529473   -19.175369
 0.265000   28.435883   -18.106646
 0.270000   28.348407   -16.850999
 0.275000   28.267373   -15.782985
 0.280000   28.190577   -14.916844
 0.285000   28.118204   -14.237736
 0.290000   28.048200   -13.947364
 0.295000   27.978731   -13.667306
 0.300000   27.911526   -13.898051
 0.305000   27.839750   -15.344749
 0.310000   27.758079   -17.209768
 0.315000   27.667652   -19.099388
 0.320000   27.567085   -21.120635
 0.325000   27.456446   -23.129114
 0.330000   27.335794   -25.180384
 0.335000   27.204642   -26.671495
 0.340000   27.069079   -27.377550
 0.345000   26.930867   -27.753666
 0.350000   26.791542   -27.674834
 0.355000   26.654118   -27.400765
 0.360000   26.517535   -27.245580
 0.365000   26.381663   -26.299488
 0.370000   26.254540   -24.814875
 0.375000   26.133514   -23.643451
 0.380000   26.018105   -22.617336
 0.385000   25.907341   -21.718664
 0.390000   25.800919   -20.659018
 0.395000   25.700750   -19.935558
 0.400000   25.601563   -20.009711
 0.405000   25.500653   -20.898792
 0.410000   25.392575   -23.897462
 0.415000   25.261679   -29.353464
 0.420000   25.099041   -36.342877
 0.425000   24.898250   -45.954201
 0.430000   24.639499   -57.597582
 0.435000   24.322274   -70.019844
 0.440000   23.939300   -83.820880
 0.445000   23.484065   -96.685942
 0.450000   22.972441   -106.756983
 0.455000   22.416495   -114.967956
 0.460000   21.822761   -120.426110
 0.465000   21.212234   -121.856629
 0.470000   20.604195   -118.824977
 0.475000   20.023985   -111.632330
 0.480000   19.487872   -101.788120
 0.485000   19.006103   -90.052525
 0.490000   18.587346   -77.234983
 0.495000   18.233754   -64.026150
 0.500000   17.947085   -51.623676
 0.505000   17.717517   -41.841777
 0.510000   17.528667   -34.796718
 0.515000   17.369550   -29.901007
 0.520000   17.229657   -27.048239
 0.525000   17.099067   -25.821690
 0.530000   16.971440   -25.627955
 0.535000   16.842788   -26.041392
 0.540000   16.711026   -26.766552
 0.545000   16.575122   -27.593556
 0.550000   16.435091   -28.486748
 0.555000   16.290255   -29.615948
 0.560000   16.138931   -30.739655
 0.565000   15.982858   -31.650398
 0.570000   15.822427   -32.595404
 0.575000   15.656904   -33.554694
 0.580000   15.486880   -34.433588
 0.585000   15.312568   -35.353528
 0.590000   15.133345   -36.504412
 0.595000   14.947524   -37.826940
 0.600000   14.755075   -39.282871
 0.605000   14.554695   -41.007752
 0.610000   14.344998   -42.956785
 0.615000   14.125127   -45.040321
 0.620000   13.894595   -47.147287
 0.625000   13.653655   -49.339189
 0.630000   13.401203   -51.581825
 0.635000   13.137836   -53.685799
 0.640000   12.864345   -55.496439
 0.645000   12.582872   -57.074937
 0.650000   12.293596   -58.489064
 0.655000   11.997981   -59.859016
 0.660000   11.695005   -61.535782
 0.665000   11.382624   -63.625669
 0.670000   11.058749   -65.850163
 0.675000   10.724122   -68.224022
 0.680000   10.376508   -70.863252
 0.685000   10.015489   -73.070816
 0.690000   9.645800   -74.443880
 0.695000   9.271051   -75.508240
 0.700000   8.890718   -74.663148
 0.705000   8.524419   -72.203695
 0.710000   8.168681   -70.032858
 0.715000   7.824090   -67.646550
 0.720000   7.492215   -65.048595
 0.725000   7.173605   -62.612534
 0.730000   6.866090   -59.108846
 0.735000   6.582516   -55.250949
 0.740000   6.313581   -52.303734
 0.745000   6.059479   -49.362815
 0.750000   5.819952   -46.464037
 0.755000   5.594838   -42.711415
 0.760000   5.392838   -39.314282
 0.765000   5.201696   -36.863318
 0.770000   5.024205   -34.289333
 0.775000   4.858802   -32.072909
 0.780000   4.703476   -30.338940
 0.785000   4.555413   -28.791701
 0.790000   4.415559   -29.898337
 0.795000   4.256429   -33.959276
 0.800000   4.075966   -38.997965
 0.805000   3.866450   -45.456952
 0.810000   3.621397   -52.877794
 0.815000   3.337672   -60.300628
 0.820000   3.018390   -66.526406
 0.825000   2.672408   -70.823986
 0.830000   2.310151   -73.438791
 0.835000   1.938020   -74.996475
 0.840000   1.560186   -76.013112
 0.845000   1.177889   -77.350741
 0.850000   0.786678   -79.666430
 0.855000   0.381224   -82.832797
 0.860000   -0.041650   -86.762924
 0.865000   -0.486405   -91.677771
 0.870000   -0.958427   -96.876679
 0.875000   -1.455172   -102.195722
 0.880000   -1.980384   -106.282805
 0.885000   -2.518000   -107.923412
 0.890000   -3.059619   -109.628722
 0.895000   -3.614287   -113.572309
 0.900000   -4.195342   -119.462711
 0.905000   -4.808914   -129.323066
 0.910000   -5.488572   -143.981458
 0.915000   -6.248729   -159.660416
 0.920000   -7.085176   -180.704883
 0.925000   -8.055777   -217.002103
 0.930000   -9.255197   -283.198551
 0.935000   -10.887763   -416.417726
 0.940000   -13.419375   -689.237719
 0.945000   -17.780140   -1231.522553
 0.950000   -25.734600   -2305.445319
 0.955000   -40.834593   -4307.750211
 0.960000   -68.812102   -7378.524616
 0.965000   -114.619839   -9928.078142
 0.970000   -168.092884   -7818.173216
 0.975000   -192.801572   -42.284085
 0.980000   -168.515725   7123.433449
 0.985000   -121.567237   9031.454307
 0.990000   -78.201182   7447.973041
 0.995000   -47.087507   5072.647779
 1.000000   -27.474704   2772.473368
201 psinorm omepp() domepp/dpsiN
 0.000000   30.622647   -24.272659
 0.005000   30.481465   -32.200462
 0.010000   30.300643   -36.109456
 0.015000   30.120370   -35.999342
 0.020000   29.940649   -35.888637
 0.025000   29.761484   -35.777348
 0.030000   29.582876   -35.665486
 0.035000   29.404829   -35.553061
 0.040000   29.227345   -35.440080
 0.045000   29.050428   -35.326554
 0.050000   28.874080   -35.212491
 0.055000   28.698303   -35.097901
 0.060000   28.523101   -34.982793
 0.065000   28.348475   -34.867176
 0.070000   28.174429   -34.751059
 0.075000   28.000964   -34.634452
 0.080000   27.828084   -34.517363
 0.085000   27.655791   -34.399801
 0.090000   27.484086   -34.281776
 0.095000   27.312973   -34.163297
 0.100000   27.142453   -34.044372
 0.105000   26.972529   -33.925010
 0.110000   26.803203   -33.805221
 0.115000   26.634477   -33.685014
 0.120000   26.466353   -33.564396
 0.125000   26.298833   -33.443378
 0.130000   26.131919   -33.321967
 0.135000   25.965614   -33.200173
 0.140000   25.799918   -33.078005
 0.145000   25.634833   -32.955471
 0.150000   25.470363   -32.832580
 0.155000   25.306508   -32.709341
 0.160000   25.143270   -32.585762
 0.165000   24.980650   -32.461851
 0.170000   24.818651   -32.337619
 0.175000   24.657274   -32.213072
 0.180000   24.496520   -32.088220
 0.185000   24.336392   -31.963071
 0.190000   24.176890   -31.837633
 0.195000   24.018015   -31.711915
 0.200000   23.859770   -31.585926
 0.205000   23.702156   -31.459673
 0.210000   23.545174   -31.333165
 0.215000   23.388824   -31.206411
 0.220000   23.233110   -31.079417
 0.225000   23.078030   -30.952194
 0.230000   22.923588   -30.824748
 0.235000   22.769783   -30.697088
 0.240000   22.616617   -30.569222
 0.245000   22.464091   -30.441158
 0.250000   22.312205   -30.312903
 0.255000   22.160962   -30.184467
 0.260000   22.010361   -30.055857
 0.265000   21.860403   -29.927080
 0.270000   21.711090   -29.798145
 0.275000   21.562422   -29.669060
 0.280000   21.414399   -29.539831
 0.285000   21.267023   -29.410467
 0.290000   21.120294   -29.280975
 0.295000   20.974213   -29.151364
 0.300000   20.828781   -29.021640
 0.305000   20.683997   -28.891811
 0.310000   20.539863   -28.761885
 0.315000   20.396378   -28.631869
 0.320000   20.253544   -28.501770
 0.325000   20.111360   -28.371597
 0.330000   19.969828   -28.241355
 0.335000   19.828947   -28.111052
 0.340000   19.688718   -27.980696
 0.345000   19.549140   -27.850294
 0.350000   19.410215   -27.719852
 0.355000   19.271941   -27.589378
 0.360000   19.134321   -27.458879
 0.365000   18.997353   -27.328362
 0.370000   18.861037   -27.197834
 0.375000   18.725374   -27.067301
 0.380000   18.590364   -26.936770
 0.385000   18.456007   -26.806249
 0.390000   18.322302   -26.675744
 0.395000   18.189249   -26.545261
 0.400000   18.056849   -26.414807
 0.405000   17.925101   -26.284389
 0.410000   17.794005   -26.154013
 0.415000   17.663561   -26.023686
 0.420000   17.533768   -25.893414
 0.425000   17.404627   -25.763204
 0.430000   17.276136   -25.633061
 0.435000   17.148296   -25.502993
 0.440000   17.021106   -25.373004
 0.445000   16.894566   -25.243102
 0.450000   16.768675   -25.113293
 0.455000   16.643433   -24.983582
 0.460000   16.518840   -24.853976
 0.465000   16.394894   -24.724481
 0.470000   16.271595   -24.595102
 0.475000   16.148942   -24.465845
 0.480000   16.026936   -24.336716
 0.485000   15.905575   -24.207721
 0.490000   15.784859   -24.078866
 0.495000   15.664787   -23.950156
 0.500000   15.545357   -23.821597
 0.505000   15.426571   -23.693193
 0.510000   15.308426   -23.564952
 0.515000   15.190921   -23.436878
 0.520000   15.074057   -23.308976
 0.525000   14.957831   -23.181253
 0.530000   14.842244   -23.053712
 0.535000   14.727294   -22.926360
 0.540000   14.612981   -22.799201
 0.545000   14.499302   -22.672241
 0.550000   14.386258   -22.545484
 0.555000   14.273847   -22.418936
 0.560000   14.162069   -22.292602
 0.565000   14.050921   -22.166486
 0.570000   13.940404   -22.040594
 0.575000   13.830515   -21.914929
 0.580000   13.721255   -21.789498
 0.585000   13.612621   -21.664304
 0.590000   13.504612   -21.539352
 0.595000   13.397227   -21.414647
 0.600000   13.290465   -21.290193
 0.605000   13.184325   -21.165995
 0.610000   13.078805   -21.042057
 0.615000   12.973904   -20.918383
 0.620000   12.869621   -20.794978
 0.625000   12.765955   -20.671846
 0.630000   12.662903   -20.548991
 0.635000   12.560465   -20.426418
 0.640000   12.458639   -20.304130
 0.645000   12.357424   -20.182131
 0.650000   12.256817   -20.060426
 0.655000   12.156819   -19.939019
 0.660000   12.057427   -19.817912
 0.665000   11.958640   -19.697111
 0.670000   11.860456   -19.576619
 0.675000   11.762874   -19.456439
 0.680000   11.665892   -19.336575
 0.685000   11.569508   -19.217032
 0.690000   11.473721   -19.097811
 0.695000   11.378530   -18.978918
 0.700000   11.283932   -18.860355
 0.705000   11.189927   -18.742126
 0.710000   11.096511   -18.624235
 0.715000   11.003684   -18.506683
 0.720000   10.911444   -18.389476
 0.725000   10.819789   -18.272615
 0.730000   10.728718   -18.156105
 0.735000   10.638228   -18.039948
 0.740000   10.548319   -17.924147
 0.745000   10.458987   -17.808706
 0.750000   10.370232   -17.693627
 0.755000   10.282051   -17.578913
 0.760000   10.194442   -17.464569
 0.765000   10.107405   -17.350596
 0.770000   10.020936   -17.236998
 0.775000   9.935035   -17.123780
 0.780000   9.849699   -17.010945
 0.785000   9.764926   -16.898498
 0.790000   9.680714   -16.786447
 0.795000   9.597061   -16.674801
 0.800000   9.513966   -16.563573
 0.805000   9.431425   -16.452782
 0.810000   9.349438   -16.342457
 0.815000   9.268001   -16.232641
 0.820000   9.187111   -16.123398
 0.825000   9.106767   -16.014824
 0.830000   9.026963   -15.907063
 0.835000   8.947696   -15.800323
 0.840000   8.868960   -15.694898
 0.845000   8.790747   -15.591193
 0.850000   8.713048   -15.489725
 0.855000   8.635850   -15.391088
 0.860000   8.559137   -15.295803
 0.865000   8.482892   -15.203911
 0.870000   8.407098   -15.114029
 0.875000   8.331752   -15.021298
 0.880000   8.256885   -14.913122
 0.885000   8.182620   -14.760551
 0.890000   8.109280   -14.501241
 0.895000   8.037608   -14.006170
 0.900000   7.969218   -13.015230
 0.905000   7.907456   -11.013048
 0.910000   7.859087   -6.989408
 0.915000   7.837562   1.025764
 0.920000   7.869345   16.875726
 0.925000   8.006319   48.102178
 0.930000   8.350367   109.671469
 0.935000   9.103034   231.736657
 0.940000   10.667733   475.925134
 0.945000   13.862285   968.319238
 0.950000   20.350926   1955.171797
 0.955000   33.414003   3828.026208
 0.960000   58.631188   6762.648505
 0.965000   101.040488   9224.628037
 0.970000   150.877468   7154.571787
 0.975000   172.586206   -373.009932
 0.980000   147.147369   -7132.024018
 0.985000   101.265966   -8615.168166
 0.990000   60.995687   -6707.747650
 0.995000   34.188489   -4198.425376
 1.000000   19.011433   -1872.396886
201 psinorm kpol(km/s/T) dkpol/dpsiN
 0.000000   -0.000851   150.940155
 0.005000   0.603729   90.891779
 0.010000   0.908067   57.617130
 0.015000   1.179900   53.063961
 0.020000   1.438707   50.911663
 0.025000   1.689017   48.987248
 0.030000   1.928579   46.693645
 0.035000   2.155953   44.675894
 0.040000   2.375338   43.079763
 0.045000   2.586751   41.697379
 0.050000   2.792312   40.810477
 0.055000   2.994856   40.603623
 0.060000   3.198348   40.915419
 0.065000   3.404010   41.255635
 0.070000   3.610904   41.417483
 0.075000   3.818185   41.207526
 0.080000   4.022980   40.378489
 0.085000   4.221970   38.978015
 0.090000   4.412760   36.908008
 0.095000   4.591050   34.461462
 0.100000   4.757374   32.024786
 0.105000   4.911298   29.616553
 0.110000   5.053540   27.440238
 0.115000   5.185700   25.461620
 0.120000   5.308156   23.924514
 0.125000   5.424945   22.968800
 0.130000   5.537844   22.382164
 0.135000   5.648767   21.946732
 0.140000   5.757311   21.524710
 0.145000   5.864014   21.027224
 0.150000   5.967584   20.230052
 0.155000   6.066314   19.133622
 0.160000   6.158920   17.764317
 0.165000   6.243958   16.263173
 0.170000   6.321552   14.522817
 0.175000   6.389186   12.662168
 0.180000   6.448173   10.769718
 0.185000   6.496883   8.868913
 0.190000   6.536862   7.175395
 0.195000   6.568637   5.521894
 0.200000   6.592081   4.127024
 0.205000   6.609907   2.909530
 0.210000   6.621177   1.882735
 0.215000   6.628734   1.132303
 0.220000   6.632500   0.275557
 0.225000   6.631490   -0.489377
 0.230000   6.627606   -1.332977
 0.235000   6.618160   -2.452371
 0.240000   6.603082   -3.628698
 0.245000   6.581873   -5.105791
 0.250000   6.552024   -6.775433
 0.255000   6.514119   -8.532909
 0.260000   6.466695   -10.562120
 0.265000   6.408498   -12.559983
 0.270000   6.341095   -14.583068
 0.275000   6.262667   -16.800561
 0.280000   6.173090   -18.873215
 0.285000   6.073935   -20.971171
 0.290000   5.963378   -23.216496
 0.295000   5.841770   -25.316308
 0.300000   5.710215   -27.439383
 0.305000   5.567376   -29.655654
 0.310000   5.413658   -31.777035
 0.315000   5.249606   -33.950141
 0.320000   5.074157   -36.188268
 0.325000   4.887723   -38.221134
 0.330000   4.691946   -40.043181
 0.335000   4.487291   -41.588381
 0.340000   4.276062   -42.659329
 0.345000   4.060698   -43.377237
 0.350000   3.842289   -43.679944
 0.355000   3.623899   -43.639034
 0.360000   3.405899   -43.660374
 0.365000   3.187295   -43.822387
 0.370000   2.967675   -44.047685
 0.375000   2.746818   -44.504853
 0.380000   2.522627   -45.371970
 0.385000   2.293098   -46.500081
 0.390000   2.057626   -47.695129
 0.395000   1.816147   -48.935471
 0.400000   1.568271   -50.391739
 0.405000   1.312230   -52.588402
 0.410000   1.042387   -57.248698
 0.415000   0.739743   -64.839297
 0.420000   0.393994   -74.566310
 0.425000   -0.005921   -86.404532
 0.430000   -0.470051   -100.058658
 0.435000   -1.006507   -115.384465
 0.440000   -1.623896   -132.450880
 0.445000   -2.331016   -148.307240
 0.450000   -3.106968   -160.793288
 0.455000   -3.938949   -170.164415
 0.460000   -4.808612   -175.445773
 0.465000   -5.693406   -175.769135
 0.470000   -6.566304   -169.946352
 0.475000   -7.392870   -158.609098
 0.480000   -8.152395   -143.794750
 0.485000   -8.830818   -126.955050
 0.490000   -9.421945   -109.234739
 0.495000   -9.923165   -90.952177
 0.500000   -10.331467   -73.684769
 0.505000   -10.660013   -59.916260
 0.510000   -10.930630   -49.659369
 0.515000   -11.156606   -42.084577
 0.520000   -11.351475   -37.143068
 0.525000   -11.528037   -34.252852
 0.530000   -11.694004   -32.567769
 0.535000   -11.853715   -31.464764
 0.540000   -12.008651   -30.480736
 0.545000   -12.158522   -29.379662
 0.550000   -12.302448   -28.130393
 0.555000   -12.439826   -26.893689
 0.560000   -12.571385   -25.336778
 0.565000   -12.693194   -23.168715
 0.570000   -12.803072   -20.714683
 0.575000   -12.900341   -18.006253
 0.580000   -12.983135   -14.964051
 0.585000   -13.049981   -11.725344
 0.590000   -13.100388   -8.557196
 0.595000   -13.135553   -5.463344
 0.600000   -13.155022   -2.466797
 0.605000   -13.160221   0.192417
 0.610000   -13.153097   2.481588
 0.615000   -13.135405   4.470215
 0.620000   -13.108395   6.198182
 0.625000   -13.073423   7.567933
 0.630000   -13.032716   8.738133
 0.635000   -12.986042   9.883550
 0.640000   -12.933880   10.925526
 0.645000   -12.876787   11.880974
 0.650000   -12.815071   12.841551
 0.655000   -12.748371   13.793519
 0.660000   -12.677135   14.613553
 0.665000   -12.602236   15.353414
 0.670000   -12.523601   16.128121
 0.675000   -12.440954   17.118017
 0.680000   -12.352421   18.478983
 0.685000   -12.256165   20.320788
 0.690000   -12.149213   22.682150
 0.695000   -12.029343   25.409082
 0.700000   -11.895122   28.541558
 0.705000   -11.743928   31.875651
 0.710000   -11.576366   34.689648
 0.715000   -11.397031   36.553982
 0.720000   -11.210826   37.362330
 0.725000   -11.023408   36.940260
 0.730000   -10.841424   35.100769
 0.735000   -10.672400   31.713756
 0.740000   -10.524286   27.117122
 0.745000   -10.401229   21.887066
 0.750000   -10.305415   16.416249
 0.755000   -10.237066   11.111094
 0.760000   -10.194304   6.341842
 0.765000   -10.173648   2.371785
 0.770000   -10.170586   -0.985387
 0.775000   -10.183502   -4.217728
 0.780000   -10.212764   -7.774127
 0.785000   -10.261243   -12.188208
 0.790000   -10.334646   -18.389212
 0.795000   -10.445135   -26.532915
 0.800000   -10.599975   -36.079318
 0.805000   -10.805928   -46.662486
 0.810000   -11.066600   -57.454022
 0.815000   -11.380469   -67.293426
 0.820000   -11.739534   -74.734705
 0.825000   -12.127816   -78.336440
 0.830000   -12.522899   -77.856162
 0.835000   -12.906377   -74.009116
 0.840000   -13.262990   -67.535606
 0.845000   -13.581733   -59.228258
 0.850000   -13.855272   -49.657621
 0.855000   -14.078310   -39.105374
 0.860000   -14.246326   -27.396207
 0.865000   -14.352272   -14.136945
 0.870000   -14.387695   1.080688
 0.875000   -14.341465   18.760483
 0.880000   -14.200091   39.236863
 0.885000   -13.949096   61.717607
 0.890000   -13.582915   84.413332
 0.895000   -13.104963   105.357369
 0.900000   -12.529341   122.591367
 0.905000   -11.879049   134.573487
 0.910000   -11.183606   141.354304
 0.915000   -10.465506   144.486427
 0.920000   -9.738742   145.698980
 0.925000   -9.008516   146.184123
 0.930000   -8.276900   145.822089
 0.935000   -7.550295   143.800946
 0.940000   -6.838891   131.857181
 0.945000   -6.231724   93.471686
 0.950000   -5.904174   18.066981
 0.955000   -6.051054   -88.870274
 0.960000   -6.792877   -192.815594
 0.965000   -7.979210   -228.734930
 0.970000   -9.080226   -115.002473
 0.975000   -9.129234   180.075872
 0.980000   -7.279467   575.457583
 0.985000   -3.374659   908.816877
 0.990000   1.808701   1023.611649
 0.995000   6.861458   864.978022
 1.000000   10.458481   573.831423
201 psinorm omghb() domghb/dpsiN
 0.000000   -0.000073   0.038662
 0.005000   0.000016   -0.003162
 0.010000   -0.000105   0.010904
 0.015000   0.000125   0.056622
 0.020000   0.000462   0.075405
 0.025000   0.000879   0.092454
 0.030000   0.001386   0.116133
 0.035000   0.002040   0.138192
 0.040000   0.002768   0.152596
 0.045000   0.003566   0.155220
 0.050000   0.004320   0.147766
 0.055000   0.005044   0.139914
 0.060000   0.005719   0.129432
 0.065000   0.006338   0.128476
 0.070000   0.007004   0.152830
 0.075000   0.007866   0.178628
 0.080000   0.008790   0.200454
 0.085000   0.009871   0.230438
 0.090000   0.011095   0.258256
 0.095000   0.012453   0.286015
 0.100000   0.013955   0.312150
 0.105000   0.015575   0.313315
 0.110000   0.017088   0.282218
 0.115000   0.018397   0.253991
 0.120000   0.019628   0.224060
 0.125000   0.020638   0.179314
 0.130000   0.021421   0.127612
 0.135000   0.021914   0.118159
 0.140000   0.022603   0.121544
 0.145000   0.023129   0.123433
 0.150000   0.023837   0.133061
 0.155000   0.024460   0.143690
 0.160000   0.025274   0.172940
 0.165000   0.026189   0.211460
 0.170000   0.027389   0.228413
 0.175000   0.028473   0.217117
 0.180000   0.029560   0.237029
 0.185000   0.030844   0.232651
 0.190000   0.031886   0.254301
 0.195000   0.033387   0.306291
 0.200000   0.034949   0.286834
 0.205000   0.036255   0.252116
 0.210000   0.037470   0.213259
 0.215000   0.038388   0.213400
 0.220000   0.039604   0.255551
 0.225000   0.040943   0.178529
 0.230000   0.041390   0.122621
 0.235000   0.042169   0.101445
 0.240000   0.042404   0.046643
 0.245000   0.042636   0.030868
 0.250000   0.042713   -0.019514
 0.255000   0.042441   -0.108955
 0.260000   0.041623   -0.115312
 0.265000   0.041288   -0.087796
 0.270000   0.040745   -0.079537
 0.275000   0.040492   -0.054438
 0.280000   0.040201   -0.100285
 0.285000   0.039489   -0.019403
 0.290000   0.040007   0.093002
 0.295000   0.040419   0.132689
 0.300000   0.041334   0.245364
 0.305000   0.042873   0.335545
 0.310000   0.044689   0.410505
 0.315000   0.046978   0.551546
 0.320000   0.050205   0.560027
 0.325000   0.052578   0.463638
 0.330000   0.054841   0.421688
 0.335000   0.056795   0.316522
 0.340000   0.058006   0.327759
 0.345000   0.060073   0.190353
 0.350000   0.059910   -0.033802
 0.355000   0.059735   -0.040018
 0.360000   0.059509   -0.068349
 0.365000   0.059051   -0.105469
 0.370000   0.058455   -0.074720
 0.375000   0.058304   -0.211359
 0.380000   0.056341   -0.288620
 0.385000   0.055418   -0.131227
 0.390000   0.055029   -0.054382
 0.395000   0.054874   0.014571
 0.400000   0.055175   0.077923
 0.405000   0.055653   0.423912
 0.410000   0.059414   1.057621
 0.415000   0.066229   1.589740
 0.420000   0.075311   2.266978
 0.425000   0.088899   2.921120
 0.430000   0.104522   3.092338
 0.435000   0.119823   3.219523
 0.440000   0.136718   3.372117
 0.445000   0.153544   3.172362
 0.450000   0.168441   2.850125
 0.455000   0.182045   2.072542
 0.460000   0.189167   0.897031
 0.465000   0.191015   -0.055475
 0.470000   0.188612   -0.980663
 0.475000   0.181209   -1.923944
 0.480000   0.169372   -2.937717
 0.485000   0.151832   -3.458070
 0.490000   0.134792   -3.361898
 0.495000   0.118213   -3.171566
 0.500000   0.103076   -2.774449
 0.505000   0.090468   -2.285984
 0.510000   0.080216   -1.796415
 0.515000   0.072504   -1.059016
 0.520000   0.069626   -0.401460
 0.525000   0.068489   -0.120267
 0.530000   0.068423   0.046945
 0.535000   0.068959   0.183479
 0.540000   0.070258   0.280197
 0.545000   0.071761   0.298166
 0.550000   0.073240   0.323533
 0.555000   0.074996   0.346349
 0.560000   0.076703   0.315196
 0.565000   0.078148   0.300461
 0.570000   0.079708   0.325026
 0.575000   0.081398   0.307971
 0.580000   0.082788   0.290596
 0.585000   0.084304   0.340370
 0.590000   0.086191   0.400783
 0.595000   0.088312   0.448804
 0.600000   0.090679   0.505072
 0.605000   0.093363   0.587076
 0.610000   0.096550   0.640811
 0.615000   0.099771   0.688726
 0.620000   0.103437   0.724430
 0.625000   0.107015   0.721384
 0.630000   0.110651   0.684289
 0.635000   0.113858   0.605300
 0.640000   0.116704   0.569333
 0.645000   0.119551   0.578425
 0.650000   0.122489   0.514104
 0.655000   0.124693   0.474441
 0.660000   0.127233   0.558108
 0.665000   0.130274   0.675729
 0.670000   0.133990   0.793575
 0.675000   0.138209   1.068245
 0.680000   0.144673   0.983218
 0.685000   0.148042   0.437732
 0.690000   0.149050   0.148790
 0.695000   0.149529   -0.005999
 0.700000   0.148990   -0.262541
 0.705000   0.146904   -0.316523
 0.710000   0.145825   -0.616642
 0.715000   0.140738   -1.108209
 0.720000   0.134743   -1.047519
 0.725000   0.130262   -0.905188
 0.730000   0.125691   -0.926374
 0.735000   0.120999   -0.956049
 0.740000   0.116130   -1.089473
 0.745000   0.110104   -1.086511
 0.750000   0.105265   -0.964006
 0.755000   0.100464   -0.950289
 0.760000   0.095762   -0.957348
 0.765000   0.090890   -1.079099
 0.770000   0.084971   -1.058799
 0.775000   0.080302   -0.581472
 0.780000   0.079157   -0.201880
 0.785000   0.078284   0.091830
 0.790000   0.080075   0.643220
 0.795000   0.084716   1.203366
 0.800000   0.092109   1.979737
 0.805000   0.104513   2.731748
 0.810000   0.119426   2.696640
 0.815000   0.131480   2.232382
 0.820000   0.141750   1.801858
 0.825000   0.149498   1.281112
 0.830000   0.154561   0.709583
 0.835000   0.156594   0.380315
 0.840000   0.158364   0.442800
 0.845000   0.161022   0.659376
 0.850000   0.164958   0.948585
 0.855000   0.170508   1.283547
 0.860000   0.177793   1.881046
 0.865000   0.189318   1.915959
 0.870000   0.196953   1.527788
 0.875000   0.204596   1.445767
 0.880000   0.211411   1.175693
 0.885000   0.216353   0.807958
 0.890000   0.219490   1.543003
 0.895000   0.231783   1.634848
 0.900000   0.235839   1.644387
 0.905000   0.248227   2.752933
 0.910000   0.263368   3.033215
 0.915000   0.278559   2.813413
 0.920000   0.291502   4.383160
 0.925000   0.322391   2.353281
 0.930000   0.315035   0.453694
 0.935000   0.326928   5.076733
 0.940000   0.365802   12.793816
 0.945000   0.454866   25.343688
 0.950000   0.619239   46.403872
 0.955000   0.918905   55.018719
 0.960000   1.169426   41.456224
 0.965000   1.333467   8.042349
 0.970000   1.249850   -52.659387
 0.975000   0.806873   -120.341157
 0.980000   0.046438   -159.128709
 0.985000   -0.784414   -153.662743
 0.990000   -1.490189   -98.318594
 0.995000   -1.767600   -16.611800
 1.000000   -1.656307   61.128993
201 psinorm nz1(10^20/m^3) dnz1/dpsiN
 0.000000   0.016093   0.000002
 0.005000   0.016092   -0.000189
 0.010000   0.016091   -0.000384
 0.015000   0.016089   -0.000584
 0.020000   0.016085   -0.000788
 0.025000   0.016081   -0.000995
 0.030000   0.016075   -0.001204
 0.035000   0.016069   -0.001413
 0.040000   0.016061   -0.001619
 0.045000   0.016052   -0.001821
 0.050000   0.016043   -0.002020
 0.055000   0.016032   -0.002214
 0.060000   0.016021   -0.002401
 0.065000   0.016008   -0.002583
 0.070000   0.015995   -0.002758
 0.075000   0.015981   -0.002927
 0.080000   0.015966   -0.003093
 0.085000   0.015950   -0.003253
 0.090000   0.015933   -0.003408
 0.095000   0.015916   -0.003558
 0.100000   0.015898   -0.003703
 0.105000   0.015879   -0.003843
 0.110000   0.015859   -0.003977
 0.115000   0.015839   -0.004104
 0.120000   0.015818   -0.004223
 0.125000   0.015797   -0.004335
 0.130000   0.015775   -0.004438
 0.135000   0.015752   -0.004532
 0.140000   0.015729   -0.004617
 0.145000   0.015706   -0.004693
 0.150000   0.015682   -0.004760
 0.155000   0.015658   -0.004818
 0.160000   0.015634   -0.004867
 0.165000   0.015610   -0.004907
 0.170000   0.015585   -0.004938
 0.175000   0.015560   -0.004961
 0.180000   0.015536   -0.004974
 0.185000   0.015511   -0.004979
 0.190000   0.015486   -0.004974
 0.195000   0.015461   -0.004959
 0.200000   0.015436   -0.004937
 0.205000   0.015412   -0.004906
 0.210000   0.015387   -0.004868
 0.215000   0.015363   -0.004825
 0.220000   0.015339   -0.004777
 0.225000   0.015315   -0.004728
 0.230000   0.015292   -0.004675
 0.235000   0.015268   -0.004617
 0.240000   0.015245   -0.004552
 0.245000   0.015223   -0.004480
 0.250000   0.015201   -0.004401
 0.255000   0.015179   -0.004315
 0.260000   0.015158   -0.004217
 0.265000   0.015137   -0.004106
 0.270000   0.015116   -0.003983
 0.275000   0.015097   -0.003848
 0.280000   0.015078   -0.003703
 0.285000   0.015060   -0.003546
 0.290000   0.015043   -0.003378
 0.295000   0.015026   -0.003200
 0.300000   0.015011   -0.003014
 0.305000   0.014996   -0.002821
 0.310000   0.014982   -0.002622
 0.315000   0.014970   -0.002417
 0.320000   0.014958   -0.002211
 0.325000   0.014948   -0.002006
 0.330000   0.014938   -0.001802
 0.335000   0.014930   -0.001599
 0.340000   0.014922   -0.001397
 0.345000   0.014916   -0.001196
 0.350000   0.014910   -0.000994
 0.355000   0.014906   -0.000789
 0.360000   0.014902   -0.000582
 0.365000   0.014900   -0.000372
 0.370000   0.014899   -0.000159
 0.375000   0.014898   0.000054
 0.380000   0.014899   0.000266
 0.385000   0.014901   0.000476
 0.390000   0.014904   0.000680
 0.395000   0.014908   0.000878
 0.400000   0.014913   0.001067
 0.405000   0.014918   0.001244
 0.410000   0.014925   0.001409
 0.415000   0.014932   0.001561
 0.420000   0.014941   0.001700
 0.425000   0.014949   0.001823
 0.430000   0.014959   0.001933
 0.435000   0.014969   0.002027
 0.440000   0.014979   0.002110
 0.445000   0.014990   0.002183
 0.450000   0.015001   0.002249
 0.455000   0.015012   0.002305
 0.460000   0.015024   0.002353
 0.465000   0.015036   0.002392
 0.470000   0.015048   0.002421
 0.475000   0.015060   0.002434
 0.480000   0.015072   0.002430
 0.485000   0.015084   0.002407
 0.490000   0.015096   0.002366
 0.495000   0.015108   0.002304
 0.500000   0.015119   0.002222
 0.505000   0.015130   0.002117
 0.510000   0.015141   0.001991
 0.515000   0.015150   0.001845
 0.520000   0.015159   0.001679
 0.525000   0.015167   0.001493
 0.530000   0.015174   0.001290
 0.535000   0.015180   0.001070
 0.540000   0.015185   0.000835
 0.545000   0.015188   0.000586
 0.550000   0.015191   0.000323
 0.555000   0.015191   0.000046
 0.560000   0.015191   -0.000245
 0.565000   0.015189   -0.000549
 0.570000   0.015185   -0.000868
 0.575000   0.015180   -0.001202
 0.580000   0.015173   -0.001550
 0.585000   0.015165   -0.001911
 0.590000   0.015154   -0.002285
 0.595000   0.015142   -0.002670
 0.600000   0.015128   -0.003065
 0.605000   0.015111   -0.003468
 0.610000   0.015093   -0.003879
 0.615000   0.015073   -0.004300
 0.620000   0.015050   -0.004734
 0.625000   0.015025   -0.005185
 0.630000   0.014998   -0.005653
 0.635000   0.014969   -0.006138
 0.640000   0.014937   -0.006639
 0.645000   0.014902   -0.007156
 0.650000   0.014865   -0.007693
 0.655000   0.014825   -0.008243
 0.660000   0.014783   -0.008791
 0.665000   0.014737   -0.009342
 0.670000   0.014689   -0.009905
 0.675000   0.014638   -0.010499
 0.680000   0.014584   -0.011181
 0.685000   0.014527   -0.011982
 0.690000   0.014465   -0.012870
 0.695000   0.014398   -0.013836
 0.700000   0.014326   -0.014876
 0.705000   0.014249   -0.015973
 0.710000   0.014166   -0.017150
 0.715000   0.014078   -0.018360
 0.720000   0.013983   -0.019502
 0.725000   0.013883   -0.020563
 0.730000   0.013777   -0.021529
 0.735000   0.013667   -0.022367
 0.740000   0.013554   -0.023044
 0.745000   0.013437   -0.023499
 0.750000   0.013319   -0.023698
 0.755000   0.013200   -0.023663
 0.760000   0.013082   -0.023413
 0.765000   0.012966   -0.022970
 0.770000   0.012852   -0.022342
 0.775000   0.012742   -0.021561
 0.780000   0.012637   -0.020746
 0.785000   0.012535   -0.019948
 0.790000   0.012437   -0.019157
 0.795000   0.012343   -0.018395
 0.800000   0.012253   -0.017678
 0.805000   0.012167   -0.017034
 0.810000   0.012083   -0.016491
 0.815000   0.012002   -0.016001
 0.820000   0.011923   -0.015502
 0.825000   0.011847   -0.014969
 0.830000   0.011773   -0.014388
 0.835000   0.011703   -0.013753
 0.840000   0.011636   -0.013092
 0.845000   0.011572   -0.012429
 0.850000   0.011511   -0.011768
 0.855000   0.011454   -0.011119
 0.860000   0.011400   -0.010492
 0.865000   0.011349   -0.009918
 0.870000   0.011301   -0.009446
 0.875000   0.011255   -0.009080
 0.880000   0.011210   -0.008792
 0.885000   0.011167   -0.008573
 0.890000   0.011124   -0.008419
 0.895000   0.011083   -0.008398
 0.900000   0.011040   -0.008477
 0.905000   0.010998   -0.008598
 0.910000   0.010954   -0.008827
 0.915000   0.010910   -0.009233
 0.920000   0.010862   -0.009925
 0.925000   0.010810   -0.011288
 0.930000   0.010749   -0.013541
 0.935000   0.010675   -0.016992
 0.940000   0.010579   -0.022618
 0.945000   0.010449   -0.031830
 0.950000   0.010261   -0.046526
 0.955000   0.009983   -0.069657
 0.960000   0.009564   -0.101979
 0.965000   0.008964   -0.140624
 0.970000   0.008158   -0.179942
 0.975000   0.007164   -0.210782
 0.980000   0.006050   -0.223952
 0.985000   0.004925   -0.215358
 0.990000   0.003897   -0.187534
 0.995000   0.003049   -0.149245
 1.000000   0.002404   -0.108759
201 psinorm vtor1(km/s) dvtor1/dpsiN
 0.000000   105.531790   522.800861
 0.005000   107.559086   288.117475
 0.010000   108.412965   150.121195
 0.015000   109.060298   118.041005
 0.020000   109.593375   99.043689
 0.025000   110.050735   86.259986
 0.030000   110.455975   76.689385
 0.035000   110.817629   68.088795
 0.040000   111.136863   60.312727
 0.045000   111.420756   53.518324
 0.050000   111.672046   47.063816
 0.055000   111.891394   40.741818
 0.060000   112.079464   34.795886
 0.065000   112.239353   29.266009
 0.070000   112.372124   23.996686
 0.075000   112.479320   18.999455
 0.080000   112.562119   14.238807
 0.085000   112.621708   9.602403
 0.090000   112.658143   4.975934
 0.095000   112.671467   0.392061
 0.100000   112.662063   -4.111570
 0.105000   112.630352   -8.674982
 0.110000   112.575314   -13.319089
 0.115000   112.497161   -17.919717
 0.120000   112.396116   -22.446434
 0.125000   112.272696   -26.974898
 0.130000   112.126368   -31.389074
 0.135000   111.958806   -35.552904
 0.140000   111.770838   -39.628116
 0.145000   111.562524   -43.668482
 0.150000   111.334154   -47.583380
 0.155000   111.086691   -51.363602
 0.160000   110.820518   -55.083632
 0.165000   110.535854   -58.724825
 0.170000   110.233269   -62.292274
 0.175000   109.912932   -65.815227
 0.180000   109.575117   -69.276914
 0.185000   109.220162   -72.645739
 0.190000   108.848660   -75.904663
 0.195000   108.461116   -79.023031
 0.200000   108.058429   -81.906119
 0.205000   107.642055   -84.468868
 0.210000   107.213741   -86.686016
 0.215000   106.775194   -88.572776
 0.220000   106.328013   -90.062453
 0.225000   105.874570   -91.073229
 0.230000   105.417281   -91.821272
 0.235000   104.956357   -92.418778
 0.240000   104.493093   -92.745081
 0.245000   104.028906   -92.784563
 0.250000   103.565247   -92.494864
 0.255000   103.103958   -91.687679
 0.260000   102.648370   -90.587430
 0.265000   102.198083   -89.444212
 0.270000   101.753928   -88.157829
 0.275000   101.316505   -86.770044
 0.280000   100.886228   -85.326209
 0.285000   100.463243   -83.832435
 0.290000   100.047904   -82.525486
 0.295000   99.637988   -81.504321
 0.300000   99.232860   -80.600928
 0.305000   98.831979   -79.777740
 0.310000   98.435083   -78.957172
 0.315000   98.042407   -78.067293
 0.320000   97.654410   -77.114208
 0.325000   97.271265   -76.099398
 0.330000   96.893416   -75.005044
 0.335000   96.521215   -73.847370
 0.340000   96.154942   -72.645725
 0.345000   95.794757   -71.396799
 0.350000   95.440974   -70.093263
 0.355000   95.093825   -68.749693
 0.360000   94.753477   -67.371031
 0.365000   94.420114   -65.953746
 0.370000   94.093940   -64.487636
 0.375000   93.775238   -62.969041
 0.380000   93.464250   -61.370149
 0.385000   93.161537   -59.674162
 0.390000   92.867508   -57.898052
 0.395000   92.582556   -56.051036
 0.400000   92.306998   -54.148039
 0.405000   92.041076   -52.181798
 0.410000   91.785180   -50.232756
 0.415000   91.538748   -48.492525
 0.420000   91.300254   -47.096454
 0.425000   91.067784   -46.085241
 0.430000   90.839402   -45.448343
 0.435000   90.613300   -45.288640
 0.440000   90.386516   -45.548247
 0.445000   90.157818   -45.865434
 0.450000   89.927861   -46.111038
 0.455000   89.696707   -46.310569
 0.460000   89.464755   -46.396184
 0.465000   89.232745   -46.439873
 0.470000   89.000357   -46.381072
 0.475000   88.768935   -45.894183
 0.480000   88.541415   -44.990676
 0.485000   88.319028   -43.864473
 0.490000   88.102770   -42.557945
 0.495000   87.893449   -41.139770
 0.500000   87.691372   -39.669890
 0.505000   87.496750   -38.240467
 0.510000   87.308968   -37.047180
 0.515000   87.126278   -36.242246
 0.520000   86.946545   -35.873791
 0.525000   86.767540   -35.964827
 0.530000   86.586897   -36.537881
 0.535000   86.402161   -37.619652
 0.540000   86.210701   -39.227445
 0.545000   86.009887   -41.366714
 0.550000   85.797033   -44.039403
 0.555000   85.569493   -47.241873
 0.560000   85.324615   -50.966940
 0.565000   85.059823   -55.221316
 0.570000   84.772402   -60.009334
 0.575000   84.459730   -65.311046
 0.580000   84.119291   -71.105229
 0.585000   83.748678   -77.378772
 0.590000   83.345503   -84.104802
 0.595000   82.907630   -91.154518
 0.600000   82.433958   -98.381485
 0.605000   81.923815   -105.690197
 0.610000   81.377056   -112.980391
 0.615000   80.794011   -120.160176
 0.620000   80.175454   -127.017833
 0.625000   79.523833   -133.553262
 0.630000   78.839922   -139.841880
 0.635000   78.125414   -145.767369
 0.640000   77.382248   -151.297480
 0.645000   76.612439   -156.412732
 0.650000   75.818121   -161.039410
 0.655000   75.002045   -165.526554
 0.660000   74.162855   -170.269734
 0.665000   73.299347   -175.266534
 0.670000   72.410190   -180.540374
 0.675000   71.493944   -186.080854
 0.680000   70.549381   -192.076464
 0.685000   69.573179   -197.880900
 0.690000   68.570572   -202.464131
 0.695000   67.548538   -205.741986
 0.700000   66.513153   -207.806711
 0.705000   65.470471   -208.677850
 0.710000   64.426374   -208.434764
 0.715000   63.386123   -206.939197
 0.720000   62.356982   -204.036511
 0.725000   61.345758   -199.853045
 0.730000   60.358452   -194.515141
 0.735000   59.400607   -188.129294
 0.740000   58.477159   -180.843523
 0.745000   57.592171   -173.060612
 0.750000   56.746553   -165.268000
 0.755000   55.939491   -157.642945
 0.760000   55.170123   -150.200142
 0.765000   54.437490   -142.947890
 0.770000   53.740644   -135.993507
 0.775000   53.077555   -129.237600
 0.780000   52.448268   -122.288554
 0.785000   51.854669   -115.258799
 0.790000   51.295680   -108.604305
 0.795000   50.768626   -102.647001
 0.800000   50.269210   -97.691030
 0.805000   49.791716   -94.048764
 0.810000   49.328723   -92.080642
 0.815000   48.870909   -92.035275
 0.820000   48.408370   -94.009772
 0.825000   47.930812   -98.062457
 0.830000   47.427745   -104.223150
 0.835000   46.888580   -112.438422
 0.840000   46.303361   -122.578951
 0.845000   45.662791   -134.728784
 0.850000   44.956073   -149.147275
 0.855000   44.171318   -166.049735
 0.860000   43.295576   -185.687486
 0.865000   42.314443   -208.823659
 0.870000   41.207339   -234.831272
 0.875000   39.966130   -262.584451
 0.880000   38.581495   -291.798803
 0.885000   37.048142   -321.535656
 0.890000   35.366138   -350.633984
 0.895000   33.541803   -378.900063
 0.900000   31.577138   -403.346240
 0.905000   29.508340   -420.935133
 0.910000   27.367786   -431.303479
 0.915000   25.195305   -433.138408
 0.920000   23.036402   -425.589997
 0.925000   20.939405   -408.512964
 0.930000   18.951272   -381.706229
 0.935000   17.122343   -346.827937
 0.940000   15.482993   -307.450220
 0.945000   14.047841   -266.730757
 0.950000   12.815686   -227.657765
 0.955000   11.771263   -192.170905
 0.960000   10.893976   -162.386130
 0.965000   10.147402   -139.729555
 0.970000   9.496681   -123.643823
 0.975000   8.910964   -113.199792
 0.980000   8.364683   -107.224704
 0.985000   7.838717   -103.961798
 0.990000   7.325065   -102.308680
 0.995000   6.815630   -101.769463
 1.000000   6.307370   -101.534321
201 psinorm vpol1(km/s) dvpol1/dpsiN
 0.000000   -0.000006   5.573047
 0.005000   0.029922   6.398047
 0.010000   0.063975   7.202734
 0.015000   0.101949   7.940430
 0.020000   0.143379   8.583984
 0.025000   0.187789   9.112305
 0.030000   0.234502   9.494922
 0.035000   0.282738   9.782812
 0.040000   0.332330   10.036133
 0.045000   0.383100   10.277539
 0.050000   0.435105   10.542188
 0.055000   0.488521   10.863477
 0.060000   0.543740   11.256836
 0.065000   0.601090   11.661719
 0.070000   0.660357   12.010156
 0.075000   0.721191   12.269141
 0.080000   0.783049   12.408984
 0.085000   0.845281   12.394336
 0.090000   0.906992   12.200195
 0.095000   0.967283   11.895898
 0.100000   1.025951   11.547266
 0.105000   1.082756   11.167578
 0.110000   1.137627   10.791211
 0.115000   1.190668   10.436133
 0.120000   1.241988   10.156445
 0.125000   1.292232   9.990039
 0.130000   1.341889   9.896094
 0.135000   1.391193   9.838867
 0.140000   1.440277   9.779883
 0.145000   1.488992   9.682813
 0.150000   1.537105   9.511328
 0.155000   1.584105   9.246875
 0.160000   1.629574   8.906250
 0.165000   1.673168   8.498828
 0.170000   1.714562   8.029687
 0.175000   1.753465   7.495898
 0.180000   1.789521   6.928516
 0.185000   1.822750   6.368555
 0.190000   1.853207   5.829102
 0.195000   1.881041   5.314453
 0.200000   1.906352   4.830859
 0.205000   1.929350   4.398242
 0.210000   1.950334   4.035352
 0.215000   1.969703   3.717578
 0.220000   1.987510   3.403711
 0.225000   2.003740   3.076172
 0.230000   2.018271   2.718945
 0.235000   2.030930   2.315625
 0.240000   2.041428   1.846875
 0.245000   2.049398   1.302344
 0.250000   2.054451   0.688086
 0.255000   2.056279   0.014453
 0.260000   2.054596   -0.710156
 0.265000   2.049178   -1.467383
 0.270000   2.039922   -2.250781
 0.275000   2.026670   -3.053906
 0.280000   2.009383   -3.867578
 0.285000   1.987994   -4.696289
 0.290000   1.962420   -5.535938
 0.295000   1.932635   -6.380859
 0.300000   1.898611   -7.231055
 0.305000   1.860324   -8.086914
 0.310000   1.817742   -8.956445
 0.315000   1.770760   -9.837695
 0.320000   1.719365   -10.721875
 0.325000   1.663541   -11.575586
 0.330000   1.603609   -12.350000
 0.335000   1.540041   -13.008984
 0.340000   1.473520   -13.537500
 0.345000   1.404666   -13.935742
 0.350000   1.334162   -14.163281
 0.355000   1.263033   -14.295898
 0.360000   1.191203   -14.442187
 0.365000   1.118611   -14.608789
 0.370000   1.045115   -14.819336
 0.375000   0.970418   -15.108594
 0.380000   0.894029   -15.518555
 0.385000   0.815232   -16.036523
 0.390000   0.733664   -16.580859
 0.395000   0.649424   -17.127539
 0.400000   0.562389   -17.757812
 0.405000   0.471846   -18.659375
 0.410000   0.375795   -20.446680
 0.415000   0.267379   -23.302930
 0.420000   0.142766   -26.952930
 0.425000   -0.002150   -31.389453
 0.430000   -0.171129   -36.513477
 0.435000   -0.367285   -42.271289
 0.440000   -0.593842   -48.695312
 0.445000   -0.854238   -54.716211
 0.450000   -1.141004   -59.515039
 0.455000   -1.449389   -63.177344
 0.460000   -1.772777   -65.358008
 0.465000   -2.102969   -65.705078
 0.470000   -2.429828   -63.742383
 0.475000   -2.740393   -59.727344
 0.480000   -3.027102   -54.420117
 0.485000   -3.284594   -48.274414
 0.490000   -3.509846   -41.762109
 0.495000   -3.702215   -35.057813
 0.500000   -3.860424   -28.667187
 0.505000   -3.988887   -23.530078
 0.510000   -4.095725   -19.719141
 0.515000   -4.186078   -16.915430
 0.520000   -4.264879   -15.037305
 0.525000   -4.336451   -13.930469
 0.530000   -4.404184   -13.324414
 0.535000   -4.469695   -12.896484
 0.540000   -4.533148   -12.491016
 0.545000   -4.594605   -12.077539
 0.550000   -4.653924   -11.616992
 0.555000   -4.710775   -11.111719
 0.560000   -4.765041   -10.491602
 0.565000   -4.815691   -9.684961
 0.570000   -4.861891   -8.732324
 0.575000   -4.903015   -7.660352
 0.580000   -4.938494   -6.493359
 0.585000   -4.967948   -5.262598
 0.590000   -4.991120   -4.010059
 0.595000   -5.008049   -2.788281
 0.600000   -5.019003   -1.646484
 0.605000   -5.024514   -0.605957
 0.610000   -5.025062   0.316309
 0.615000   -5.021351   1.100098
 0.620000   -5.014062   1.764160
 0.625000   -5.003709   2.332129
 0.630000   -4.990740   2.825977
 0.635000   -4.975449   3.270703
 0.640000   -4.958033   3.688086
 0.645000   -4.938568   4.096094
 0.650000   -4.917072   4.492871
 0.655000   -4.893640   4.863281
 0.660000   -4.868439   5.207031
 0.665000   -4.841569   5.528125
 0.670000   -4.813158   5.838965
 0.675000   -4.783180   6.227637
 0.680000   -4.750882   6.783398
 0.685000   -4.715346   7.521289
 0.690000   -4.675669   8.435449
 0.695000   -4.630991   9.501953
 0.700000   -4.580649   10.737695
 0.705000   -4.523614   12.040820
 0.710000   -4.460241   13.131836
 0.715000   -4.392296   13.873926
 0.720000   -4.321502   14.212988
 0.725000   -4.250166   14.060791
 0.730000   -4.180894   13.359766
 0.735000   -4.116568   12.077441
 0.740000   -4.060120   10.324902
 0.745000   -4.013319   8.310352
 0.750000   -3.977016   6.209131
 0.755000   -3.951228   4.180518
 0.760000   -3.935211   2.350439
 0.765000   -3.927724   0.818335
 0.770000   -3.927028   -0.465991
 0.775000   -3.932384   -1.697974
 0.780000   -3.944007   -3.067114
 0.785000   -3.963055   -4.772400
 0.790000   -3.991731   -7.152502
 0.795000   -4.034580   -10.283197
 0.800000   -4.094563   -13.971716
 0.805000   -4.174297   -18.056915
 0.810000   -4.275132   -22.210986
 0.815000   -4.396407   -26.001001
 0.820000   -4.535142   -28.875952
 0.825000   -4.685166   -30.258801
 0.830000   -4.837730   -30.056030
 0.835000   -4.985727   -28.560547
 0.840000   -5.123336   -26.058301
 0.845000   -5.246310   -22.834668
 0.850000   -5.351683   -19.119043
 0.855000   -5.437500   -15.037500
 0.860000   -5.502058   -10.513477
 0.865000   -5.542635   -5.375879
 0.870000   -5.555816   0.516699
 0.875000   -5.537468   7.342676
 0.880000   -5.482390   15.249707
 0.885000   -5.384971   23.938281
 0.890000   -5.243007   32.703320
 0.895000   -5.057938   40.778809
 0.900000   -4.835219   47.422461
 0.905000   -4.583713   52.040039
 0.910000   -4.314818   54.646094
 0.915000   -4.037252   55.840430
 0.920000   -3.756414   56.250000
 0.925000   -3.474752   56.365430
 0.930000   -3.192760   56.208789
 0.935000   -2.912664   55.436328
 0.940000   -2.638396   50.608008
 0.945000   -2.406584   35.565625
 0.950000   -2.282740   6.434375
 0.955000   -2.342240   -34.997461
 0.960000   -2.632715   -76.184961
 0.965000   -3.104090   -91.283203
 0.970000   -3.545547   -47.372266
 0.975000   -3.577813   68.326562
 0.980000   -2.862281   224.864844
 0.985000   -1.329164   357.586719
 0.990000   0.713586   404.075391
 0.995000   2.711590   342.262109
 1.000000   4.136207   227.584766
3 N Z A of ION SPECIES
 6.000000   6.000000   12.010700
 1.000000   1.000000   2.000000
 1.000000   1.000000   2.000000
