201 psinorm ne(10^20/m^3) dne/dpsiN
 0.000000   0.618917   -0.609461
 0.005000   0.615882   -0.604395
 0.010000   0.612873   -0.599352
 0.015000   0.609888   -0.594354
 0.020000   0.606929   -0.589400
 0.025000   0.603994   -0.584490
 0.030000   0.601084   -0.579624
 0.035000   0.598198   -0.574801
 0.040000   0.595336   -0.570020
 0.045000   0.592498   -0.565282
 0.050000   0.589683   -0.560586
 0.055000   0.586892   -0.555931
 0.060000   0.584124   -0.551317
 0.065000   0.581379   -0.546743
 0.070000   0.578657   -0.542209
 0.075000   0.575957   -0.537715
 0.080000   0.573279   -0.533261
 0.085000   0.570624   -0.528845
 0.090000   0.567991   -0.524467
 0.095000   0.565380   -0.520128
 0.100000   0.562790   -0.515826
 0.105000   0.560221   -0.511561
 0.110000   0.557674   -0.507333
 0.115000   0.555148   -0.503142
 0.120000   0.552643   -0.498986
 0.125000   0.550158   -0.494867
 0.130000   0.547694   -0.490783
 0.135000   0.545250   -0.486733
 0.140000   0.542827   -0.482718
 0.145000   0.540423   -0.478738
 0.150000   0.538039   -0.474791
 0.155000   0.535675   -0.470878
 0.160000   0.533330   -0.466998
 0.165000   0.531005   -0.463151
 0.170000   0.528699   -0.459337
 0.175000   0.526412   -0.455554
 0.180000   0.524143   -0.451804
 0.185000   0.521894   -0.448085
 0.190000   0.519663   -0.444397
 0.195000   0.517450   -0.440740
 0.200000   0.515255   -0.437113
 0.205000   0.513079   -0.433517
 0.210000   0.510920   -0.429951
 0.215000   0.508779   -0.426414
 0.220000   0.506656   -0.422906
 0.225000   0.504550   -0.419428
 0.230000   0.502462   -0.415978
 0.235000   0.500390   -0.412557
 0.240000   0.498336   -0.409164
 0.245000   0.496299   -0.405798
 0.250000   0.494278   -0.402460
 0.255000   0.492274   -0.399150
 0.260000   0.490287   -0.395866
 0.265000   0.488315   -0.392609
 0.270000   0.486360   -0.389379
 0.275000   0.484422   -0.386175
 0.280000   0.482499   -0.382996
 0.285000   0.480592   -0.379843
 0.290000   0.478700   -0.376716
 0.295000   0.476824   -0.373614
 0.300000   0.474964   -0.370536
 0.305000   0.473119   -0.367483
 0.310000   0.471289   -0.364455
 0.315000   0.469475   -0.361450
 0.320000   0.467675   -0.358470
 0.325000   0.465890   -0.355513
 0.330000   0.464120   -0.352579
 0.335000   0.462364   -0.349668
 0.340000   0.460623   -0.346781
 0.345000   0.458896   -0.343916
 0.350000   0.457184   -0.341073
 0.355000   0.455486   -0.338253
 0.360000   0.453801   -0.335454
 0.365000   0.452131   -0.332678
 0.370000   0.450475   -0.329923
 0.375000   0.448832   -0.327189
 0.380000   0.447203   -0.324476
 0.385000   0.445587   -0.321784
 0.390000   0.443985   -0.319113
 0.395000   0.442396   -0.316462
 0.400000   0.440820   -0.313832
 0.405000   0.439258   -0.311221
 0.410000   0.437708   -0.308630
 0.415000   0.436171   -0.306059
 0.420000   0.434647   -0.303508
 0.425000   0.433136   -0.300975
 0.430000   0.431638   -0.298462
 0.435000   0.430152   -0.295967
 0.440000   0.428678   -0.293491
 0.445000   0.427217   -0.291034
 0.450000   0.425768   -0.288595
 0.455000   0.424331   -0.286174
 0.460000   0.422906   -0.283771
 0.465000   0.421493   -0.281385
 0.470000   0.420092   -0.279017
 0.475000   0.418703   -0.276666
 0.480000   0.417325   -0.274333
 0.485000   0.415960   -0.272017
 0.490000   0.414605   -0.269717
 0.495000   0.413262   -0.267434
 0.500000   0.411931   -0.265167
 0.505000   0.410611   -0.262917
 0.510000   0.409302   -0.260683
 0.515000   0.408004   -0.258465
 0.520000   0.406717   -0.256263
 0.525000   0.405441   -0.254076
 0.530000   0.404176   -0.251905
 0.535000   0.402922   -0.249749
 0.540000   0.401679   -0.247609
 0.545000   0.400446   -0.245483
 0.550000   0.399224   -0.243372
 0.555000   0.398012   -0.241276
 0.560000   0.396811   -0.239195
 0.565000   0.395620   -0.237128
 0.570000   0.394440   -0.235075
 0.575000   0.393270   -0.233036
 0.580000   0.392110   -0.231011
 0.585000   0.390960   -0.229000
 0.590000   0.389820   -0.227003
 0.595000   0.388690   -0.225019
 0.600000   0.387569   -0.223048
 0.605000   0.386459   -0.221091
 0.610000   0.385358   -0.219147
 0.615000   0.384268   -0.217215
 0.620000   0.383186   -0.215296
 0.625000   0.382115   -0.213390
 0.630000   0.381052   -0.211496
 0.635000   0.380000   -0.209614
 0.640000   0.378956   -0.207744
 0.645000   0.377922   -0.205885
 0.650000   0.376897   -0.204038
 0.655000   0.375882   -0.202202
 0.660000   0.374875   -0.200377
 0.665000   0.373878   -0.198562
 0.670000   0.372890   -0.196757
 0.675000   0.371910   -0.194962
 0.680000   0.370940   -0.193175
 0.685000   0.369979   -0.191396
 0.690000   0.369026   -0.189624
 0.695000   0.368082   -0.187858
 0.700000   0.367148   -0.186097
 0.705000   0.366222   -0.184339
 0.710000   0.365304   -0.182581
 0.715000   0.364396   -0.180822
 0.720000   0.363496   -0.179057
 0.725000   0.362605   -0.177284
 0.730000   0.361723   -0.175497
 0.735000   0.360850   -0.173690
 0.740000   0.359986   -0.171856
 0.745000   0.359132   -0.169986
 0.750000   0.358286   -0.168067
 0.755000   0.357451   -0.166087
 0.760000   0.356626   -0.164027
 0.765000   0.355811   -0.161866
 0.770000   0.355007   -0.159577
 0.775000   0.354215   -0.157128
 0.780000   0.353436   -0.154478
 0.785000   0.352670   -0.151578
 0.790000   0.351920   -0.148366
 0.795000   0.351186   -0.144770
 0.800000   0.350472   -0.140698
 0.805000   0.349779   -0.136042
 0.810000   0.349112   -0.130670
 0.815000   0.348473   -0.124423
 0.820000   0.347867   -0.117113
 0.825000   0.347302   -0.108515
 0.830000   0.346782   -0.098367
 0.835000   0.346318   -0.086365
 0.840000   0.345919   -0.072159
 0.845000   0.345596   -0.055362
 0.850000   0.345365   -0.035551
 0.855000   0.345241   -0.012288
 0.860000   0.345242   0.014851
 0.865000   0.345389   0.046218
 0.870000   0.345704   0.082002
 0.875000   0.346209   0.122091
 0.880000   0.346925   0.165845
 0.885000   0.347868   0.211763
 0.890000   0.349043   0.256995
 0.895000   0.350438   0.296640
 0.900000   0.352009   0.322798
 0.905000   0.353666   0.323385
 0.910000   0.355243   0.280833
 0.915000   0.356474   0.171088
 0.920000   0.356954   -0.036216
 0.925000   0.356112   -0.374878
 0.930000   0.353205   -0.874540
 0.935000   0.347367   -1.547031
 0.940000   0.337735   -2.368395
 0.945000   0.323683   -3.264366
 0.950000   0.305091   -4.112481
 0.955000   0.282558   -4.770853
 0.960000   0.257383   -5.127064
 0.965000   0.231287   -5.141072
 0.970000   0.205972   -4.854986
 0.975000   0.182737   -4.365787
 0.980000   0.162314   -3.782542
 0.985000   0.144912   -3.193513
 0.990000   0.130379   -2.653666
 0.995000   0.118375   -2.187960
 1.000000   0.108499   -1.762358
201 psinorm te(KeV) dte/dpsiN
 0.000000   3.524739   -1.914493
 0.005000   3.515102   -1.940190
 0.010000   3.505337   -1.965765
 0.015000   3.495444   -1.991095
 0.020000   3.485426   -2.016177
 0.025000   3.475283   -2.041009
 0.030000   3.465016   -2.065588
 0.035000   3.454627   -2.089912
 0.040000   3.444117   -2.113978
 0.045000   3.433487   -2.137784
 0.050000   3.422739   -2.161328
 0.055000   3.411874   -2.184606
 0.060000   3.400893   -2.207618
 0.065000   3.389797   -2.230360
 0.070000   3.378589   -2.252830
 0.075000   3.367269   -2.275028
 0.080000   3.355839   -2.296950
 0.085000   3.344300   -2.318594
 0.090000   3.332653   -2.339959
 0.095000   3.320900   -2.361043
 0.100000   3.309042   -2.381844
 0.105000   3.297082   -2.402360
 0.110000   3.285019   -2.422589
 0.115000   3.272856   -2.442531
 0.120000   3.260594   -2.462183
 0.125000   3.248234   -2.481543
 0.130000   3.235778   -2.500611
 0.135000   3.223228   -2.519386
 0.140000   3.210584   -2.537864
 0.145000   3.197849   -2.556047
 0.150000   3.185024   -2.573931
 0.155000   3.172110   -2.591516
 0.160000   3.159109   -2.608801
 0.165000   3.146022   -2.625785
 0.170000   3.132851   -2.642467
 0.175000   3.119597   -2.658846
 0.180000   3.106262   -2.674920
 0.185000   3.092848   -2.690690
 0.190000   3.079355   -2.706154
 0.195000   3.065786   -2.721312
 0.200000   3.052142   -2.736163
 0.205000   3.038425   -2.750706
 0.210000   3.024635   -2.764941
 0.215000   3.010775   -2.778867
 0.220000   2.996847   -2.792485
 0.225000   2.982851   -2.805793
 0.230000   2.968789   -2.818791
 0.235000   2.954663   -2.831480
 0.240000   2.940474   -2.843858
 0.245000   2.926224   -2.855926
 0.250000   2.911915   -2.867683
 0.255000   2.897547   -2.879130
 0.260000   2.883123   -2.890267
 0.265000   2.868645   -2.901093
 0.270000   2.854112   -2.911609
 0.275000   2.839528   -2.921815
 0.280000   2.824894   -2.931711
 0.285000   2.810211   -2.941298
 0.290000   2.795481   -2.950575
 0.295000   2.780706   -2.959544
 0.300000   2.765886   -2.968204
 0.305000   2.751024   -2.976557
 0.310000   2.736120   -2.984602
 0.315000   2.721177   -2.992341
 0.320000   2.706197   -2.999773
 0.325000   2.691180   -3.006900
 0.330000   2.676128   -3.013723
 0.335000   2.661043   -3.020242
 0.340000   2.645925   -3.026457
 0.345000   2.630778   -3.032371
 0.350000   2.615602   -3.037984
 0.355000   2.600398   -3.043297
 0.360000   2.585169   -3.048310
 0.365000   2.569915   -3.053026
 0.370000   2.554638   -3.057445
 0.375000   2.539341   -3.061568
 0.380000   2.524023   -3.065397
 0.385000   2.508687   -3.068932
 0.390000   2.493333   -3.072176
 0.395000   2.477965   -3.075130
 0.400000   2.462582   -3.077794
 0.405000   2.447187   -3.080170
 0.410000   2.431780   -3.082261
 0.415000   2.416364   -3.084067
 0.420000   2.400940   -3.085590
 0.425000   2.385508   -3.086831
 0.430000   2.370071   -3.087793
 0.435000   2.354630   -3.088476
 0.440000   2.339187   -3.088883
 0.445000   2.323742   -3.089015
 0.450000   2.308297   -3.088875
 0.455000   2.292853   -3.088464
 0.460000   2.277412   -3.087783
 0.465000   2.261975   -3.086835
 0.470000   2.246544   -3.085622
 0.475000   2.231119   -3.084146
 0.480000   2.215702   -3.082408
 0.485000   2.200295   -3.080411
 0.490000   2.184898   -3.078156
 0.495000   2.169513   -3.075647
 0.500000   2.154142   -3.072884
 0.505000   2.138784   -3.069871
 0.510000   2.123443   -3.066609
 0.515000   2.108118   -3.063101
 0.520000   2.092812   -3.059348
 0.525000   2.077525   -3.055354
 0.530000   2.062258   -3.051119
 0.535000   2.047014   -3.046648
 0.540000   2.031792   -3.041941
 0.545000   2.016594   -3.037002
 0.550000   2.001422   -3.031833
 0.555000   1.986276   -3.026436
 0.560000   1.971157   -3.020813
 0.565000   1.956068   -3.014968
 0.570000   1.941008   -3.008902
 0.575000   1.925979   -3.002618
 0.580000   1.910982   -2.996119
 0.585000   1.896018   -2.989407
 0.590000   1.881088   -2.982485
 0.595000   1.866193   -2.975354
 0.600000   1.851334   -2.968019
 0.605000   1.836512   -2.960481
 0.610000   1.821729   -2.952743
 0.615000   1.806985   -2.944808
 0.620000   1.792281   -2.936678
 0.625000   1.777618   -2.928356
 0.630000   1.762998   -2.919845
 0.635000   1.748420   -2.911147
 0.640000   1.733886   -2.902265
 0.645000   1.719397   -2.893202
 0.650000   1.704954   -2.883960
 0.655000   1.690558   -2.874543
 0.660000   1.676209   -2.864952
 0.665000   1.661908   -2.855191
 0.670000   1.647657   -2.845262
 0.675000   1.633455   -2.835168
 0.680000   1.619305   -2.824912
 0.685000   1.605206   -2.814496
 0.690000   1.591160   -2.803923
 0.695000   1.577167   -2.793197
 0.700000   1.563228   -2.782319
 0.705000   1.549344   -2.771292
 0.710000   1.535515   -2.760119
 0.715000   1.521743   -2.748803
 0.720000   1.508027   -2.737346
 0.725000   1.494369   -2.725751
 0.730000   1.480770   -2.714019
 0.735000   1.467229   -2.702154
 0.740000   1.453748   -2.690157
 0.745000   1.440327   -2.678031
 0.750000   1.426968   -2.665777
 0.755000   1.413670   -2.653396
 0.760000   1.400434   -2.640889
 0.765000   1.387261   -2.628258
 0.770000   1.374151   -2.615501
 0.775000   1.361106   -2.602617
 0.780000   1.348125   -2.589605
 0.785000   1.335210   -2.576461
 0.790000   1.322360   -2.563179
 0.795000   1.309578   -2.549752
 0.800000   1.296863   -2.536171
 0.805000   1.284216   -2.522423
 0.810000   1.271639   -2.508493
 0.815000   1.259131   -2.494360
 0.820000   1.246695   -2.480003
 0.825000   1.234331   -2.465394
 0.830000   1.222041   -2.450504
 0.835000   1.209826   -2.435308
 0.840000   1.197688   -2.419782
 0.845000   1.185628   -2.403919
 0.850000   1.173649   -2.387741
 0.855000   1.161751   -2.371323
 0.860000   1.149936   -2.354834
 0.865000   1.138203   -2.338593
 0.870000   1.126550   -2.323168
 0.875000   1.114971   -2.309518
 0.880000   1.103455   -2.299210
 0.885000   1.091979   -2.294754
 0.890000   1.080507   -2.300091
 0.895000   1.068978   -2.321324
 0.900000   1.057294   -2.367781
 0.905000   1.045300   -2.453532
 0.910000   1.032758   -2.599511
 0.915000   1.019305   -2.836341
 0.920000   1.004395   -3.207818
 0.925000   0.987227   -3.774586
 0.930000   0.966649   -4.616534
 0.935000   0.941062   -5.830512
 0.940000   0.908344   -7.516783
 0.945000   0.865894   -9.744055
 0.950000   0.810904   -12.483128
 0.955000   0.741062   -15.513401
 0.960000   0.655769   -18.346708
 0.965000   0.557595   -20.267714
 0.970000   0.453092   -20.585049
 0.975000   0.351745   -19.025994
 0.980000   0.262832   -15.974827
 0.985000   0.191997   -12.286924
 0.990000   0.139963   -8.809992
 0.995000   0.103897   -6.026213
 1.000000   0.079701   -3.652026
201 psinorm ni(10^20/m^3) dni/dpsiN
 0.000000   0.377015   -0.659148
 0.005000   0.373905   -0.584989
 0.010000   0.371166   -0.523848
 0.015000   0.368667   -0.477487
 0.020000   0.366391   -0.436154
 0.025000   0.364305   -0.399774
 0.030000   0.362393   -0.367366
 0.035000   0.360631   -0.338101
 0.040000   0.359012   -0.310540
 0.045000   0.357526   -0.285234
 0.050000   0.356160   -0.261428
 0.055000   0.354912   -0.239737
 0.060000   0.353762   -0.220372
 0.065000   0.352708   -0.202742
 0.070000   0.351735   -0.187101
 0.075000   0.350837   -0.172813
 0.080000   0.350007   -0.160133
 0.085000   0.349236   -0.148746
 0.090000   0.348519   -0.138604
 0.095000   0.347850   -0.129680
 0.100000   0.347222   -0.121731
 0.105000   0.346632   -0.114699
 0.110000   0.346075   -0.108492
 0.115000   0.345547   -0.103159
 0.120000   0.345044   -0.098591
 0.125000   0.344561   -0.094766
 0.130000   0.344096   -0.091617
 0.135000   0.343645   -0.089034
 0.140000   0.343206   -0.087020
 0.145000   0.342775   -0.085592
 0.150000   0.342350   -0.084756
 0.155000   0.341928   -0.084432
 0.160000   0.341506   -0.084583
 0.165000   0.341082   -0.085207
 0.170000   0.340654   -0.086312
 0.175000   0.340219   -0.087905
 0.180000   0.339774   -0.090038
 0.185000   0.339318   -0.092655
 0.190000   0.338848   -0.095639
 0.195000   0.338362   -0.099021
 0.200000   0.337858   -0.102749
 0.205000   0.337334   -0.107130
 0.210000   0.336786   -0.111714
 0.215000   0.336217   -0.115899
 0.220000   0.335627   -0.119905
 0.225000   0.335018   -0.123556
 0.230000   0.334392   -0.126828
 0.235000   0.333750   -0.129991
 0.240000   0.333092   -0.133551
 0.245000   0.332414   -0.137013
 0.250000   0.331722   -0.140031
 0.255000   0.331014   -0.143085
 0.260000   0.330291   -0.146357
 0.265000   0.329550   -0.150176
 0.270000   0.328789   -0.154443
 0.275000   0.328006   -0.158687
 0.280000   0.327202   -0.162929
 0.285000   0.326377   -0.167476
 0.290000   0.325528   -0.172511
 0.295000   0.324652   -0.177983
 0.300000   0.323748   -0.183416
 0.305000   0.322818   -0.188712
 0.310000   0.321861   -0.194041
 0.315000   0.320877   -0.199651
 0.320000   0.319864   -0.205172
 0.325000   0.318825   -0.210072
 0.330000   0.317763   -0.214572
 0.335000   0.316680   -0.218796
 0.340000   0.315575   -0.222886
 0.345000   0.314451   -0.226594
 0.350000   0.313309   -0.229793
 0.355000   0.312153   -0.232790
 0.360000   0.310982   -0.235817
 0.365000   0.309795   -0.238789
 0.370000   0.308594   -0.241551
 0.375000   0.307379   -0.244219
 0.380000   0.306152   -0.246888
 0.385000   0.304910   -0.249515
 0.390000   0.303656   -0.251951
 0.395000   0.302391   -0.254190
 0.400000   0.301114   -0.256272
 0.405000   0.299828   -0.258195
 0.410000   0.298533   -0.259854
 0.415000   0.297230   -0.261212
 0.420000   0.295920   -0.262332
 0.425000   0.294606   -0.263259
 0.430000   0.293288   -0.263916
 0.435000   0.291967   -0.264256
 0.440000   0.290645   -0.264376
 0.445000   0.289323   -0.264380
 0.450000   0.288001   -0.264199
 0.455000   0.286681   -0.263758
 0.460000   0.285364   -0.263130
 0.465000   0.284050   -0.262388
 0.470000   0.282740   -0.261440
 0.475000   0.281436   -0.260131
 0.480000   0.280139   -0.258482
 0.485000   0.278851   -0.256541
 0.490000   0.277573   -0.254233
 0.495000   0.276308   -0.251469
 0.500000   0.275059   -0.248274
 0.505000   0.273826   -0.244693
 0.510000   0.272612   -0.240724
 0.515000   0.271418   -0.236340
 0.520000   0.270248   -0.231593
 0.525000   0.269103   -0.226560
 0.530000   0.267983   -0.221279
 0.535000   0.266890   -0.215761
 0.540000   0.265825   -0.210047
 0.545000   0.264789   -0.204191
 0.550000   0.263783   -0.198251
 0.555000   0.262807   -0.192197
 0.560000   0.261861   -0.186011
 0.565000   0.260947   -0.179711
 0.570000   0.260064   -0.173305
 0.575000   0.259214   -0.166770
 0.580000   0.258396   -0.160076
 0.585000   0.257613   -0.153274
 0.590000   0.256864   -0.146402
 0.595000   0.256149   -0.139485
 0.600000   0.255469   -0.132513
 0.605000   0.254824   -0.125502
 0.610000   0.254214   -0.118485
 0.615000   0.253639   -0.111475
 0.620000   0.253099   -0.104440
 0.625000   0.252594   -0.097370
 0.630000   0.252125   -0.090307
 0.635000   0.251691   -0.083265
 0.640000   0.251293   -0.076259
 0.645000   0.250929   -0.069313
 0.650000   0.250599   -0.062424
 0.655000   0.250305   -0.055664
 0.660000   0.250043   -0.049119
 0.665000   0.249813   -0.042710
 0.670000   0.249616   -0.036238
 0.675000   0.249451   -0.029349
 0.680000   0.249322   -0.021053
 0.685000   0.249240   -0.010879
 0.690000   0.249213   0.000623
 0.695000   0.249247   0.013142
 0.700000   0.249345   0.026489
 0.705000   0.249512   0.040328
 0.710000   0.249748   0.054946
 0.715000   0.250061   0.069464
 0.720000   0.250443   0.082148
 0.725000   0.250883   0.092728
 0.730000   0.251370   0.101075
 0.735000   0.251893   0.106760
 0.740000   0.252438   0.109483
 0.745000   0.252988   0.108626
 0.750000   0.253524   0.104067
 0.755000   0.254029   0.096528
 0.760000   0.254489   0.086616
 0.765000   0.254895   0.074906
 0.770000   0.255238   0.061679
 0.775000   0.255512   0.047564
 0.780000   0.255714   0.034218
 0.785000   0.255854   0.022394
 0.790000   0.255938   0.011989
 0.795000   0.255974   0.003254
 0.800000   0.255970   -0.003720
 0.805000   0.255937   -0.008696
 0.810000   0.255883   -0.011357
 0.815000   0.255823   -0.012014
 0.820000   0.255763   -0.011063
 0.825000   0.255712   -0.008472
 0.830000   0.255679   -0.004041
 0.835000   0.255672   0.002560
 0.840000   0.255704   0.011706
 0.845000   0.255789   0.023787
 0.850000   0.255942   0.039212
 0.855000   0.256181   0.058434
 0.860000   0.256526   0.081916
 0.865000   0.257000   0.110139
 0.870000   0.257628   0.143368
 0.875000   0.258434   0.181504
 0.880000   0.259443   0.223987
 0.885000   0.260674   0.269429
 0.890000   0.262137   0.315198
 0.895000   0.263826   0.357030
 0.900000   0.265707   0.387593
 0.905000   0.267702   0.395589
 0.910000   0.269663   0.365131
 0.915000   0.271353   0.274618
 0.920000   0.272410   0.097341
 0.925000   0.272326   -0.192739
 0.930000   0.270482   -0.618770
 0.935000   0.266139   -1.186829
 0.940000   0.258614   -1.865269
 0.945000   0.247486   -2.577837
 0.950000   0.232835   -3.210028
 0.955000   0.215386   -3.632199
 0.960000   0.196513   -3.774784
 0.965000   0.177638   -3.653641
 0.970000   0.159977   -3.337676
 0.975000   0.144261   -2.926571
 0.980000   0.130711   -2.504358
 0.985000   0.119218   -2.117140
 0.990000   0.109540   -1.781368
 0.995000   0.101404   -1.494048
 1.000000   0.094599   -1.227756
201 psinorm ti(KeV) dti/dpsiN
 0.000000   4.889279   0.001123
 0.005000   4.888781   -0.200554
 0.010000   4.887274   -0.403833
 0.015000   4.884742   -0.610121
 0.020000   4.881172   -0.819008
 0.025000   4.876552   -1.030044
 0.030000   4.870872   -1.242734
 0.035000   4.864125   -1.456541
 0.040000   4.856307   -1.670742
 0.045000   4.847417   -1.884777
 0.050000   4.837459   -2.098212
 0.055000   4.826435   -2.310450
 0.060000   4.814354   -2.520963
 0.065000   4.801226   -2.729297
 0.070000   4.787061   -2.934775
 0.075000   4.771878   -3.137380
 0.080000   4.755687   -3.337388
 0.085000   4.738504   -3.534530
 0.090000   4.720342   -3.728683
 0.095000   4.701217   -3.919798
 0.100000   4.681144   -4.107888
 0.105000   4.660138   -4.292893
 0.110000   4.638215   -4.474447
 0.115000   4.615394   -4.652197
 0.120000   4.591693   -4.825942
 0.125000   4.567134   -4.995455
 0.130000   4.541739   -5.160820
 0.135000   4.515526   -5.321820
 0.140000   4.488521   -5.477710
 0.145000   4.460749   -5.628194
 0.150000   4.432239   -5.773145
 0.155000   4.403018   -5.912228
 0.160000   4.373116   -6.045244
 0.165000   4.342565   -6.171312
 0.170000   4.311403   -6.289033
 0.175000   4.279675   -6.397927
 0.180000   4.247424   -6.497845
 0.185000   4.214696   -6.588493
 0.190000   4.181539   -6.669609
 0.195000   4.148000   -6.742546
 0.200000   4.114114   -6.810751
 0.205000   4.079893   -6.876081
 0.210000   4.045353   -6.938728
 0.215000   4.010506   -6.999083
 0.220000   3.975362   -7.058171
 0.225000   3.939924   -7.118008
 0.230000   3.904182   -7.175782
 0.235000   3.868166   -7.228867
 0.240000   3.831893   -7.278269
 0.245000   3.795383   -7.323260
 0.250000   3.758661   -7.363582
 0.255000   3.721747   -7.399501
 0.260000   3.684666   -7.424449
 0.265000   3.647503   -7.434716
 0.270000   3.610318   -7.432941
 0.275000   3.573174   -7.418556
 0.280000   3.536133   -7.391095
 0.285000   3.499263   -7.348404
 0.290000   3.462649   -7.290549
 0.295000   3.426357   -7.220327
 0.300000   3.390446   -7.139926
 0.305000   3.354958   -7.052410
 0.310000   3.319921   -6.961429
 0.315000   3.285344   -6.870257
 0.320000   3.251219   -6.784051
 0.325000   3.217503   -6.704171
 0.330000   3.184177   -6.628111
 0.335000   3.151222   -6.555803
 0.340000   3.118619   -6.487043
 0.345000   3.086352   -6.425624
 0.350000   3.054363   -6.368451
 0.355000   3.022667   -6.309434
 0.360000   2.991269   -6.249566
 0.365000   2.960171   -6.188078
 0.370000   2.929388   -6.123067
 0.375000   2.898941   -6.052970
 0.380000   2.868858   -5.967815
 0.385000   2.839263   -5.861336
 0.390000   2.810245   -5.738357
 0.395000   2.781879   -5.601153
 0.400000   2.754233   -5.451248
 0.405000   2.727367   -5.285032
 0.410000   2.701383   -5.106448
 0.415000   2.676302   -4.929146
 0.420000   2.652091   -4.758118
 0.425000   2.628721   -4.594222
 0.430000   2.606149   -4.439246
 0.435000   2.584328   -4.291673
 0.440000   2.563232   -4.153922
 0.445000   2.542789   -4.030792
 0.450000   2.522924   -3.920345
 0.455000   2.503586   -3.820404
 0.460000   2.484720   -3.730876
 0.465000   2.466277   -3.652560
 0.470000   2.448195   -3.586824
 0.475000   2.430409   -3.530650
 0.480000   2.412888   -3.479341
 0.485000   2.395615   -3.429964
 0.490000   2.378589   -3.379287
 0.495000   2.361822   -3.324965
 0.500000   2.345339   -3.264709
 0.505000   2.329175   -3.198433
 0.510000   2.313355   -3.129107
 0.515000   2.297884   -3.058699
 0.520000   2.282768   -2.987822
 0.525000   2.268006   -2.916308
 0.530000   2.253605   -2.843057
 0.535000   2.239576   -2.770970
 0.540000   2.225895   -2.702311
 0.545000   2.212552   -2.635975
 0.550000   2.199535   -2.572355
 0.555000   2.186829   -2.511449
 0.560000   2.174421   -2.452285
 0.565000   2.162306   -2.398114
 0.570000   2.150440   -2.350792
 0.575000   2.138798   -2.308220
 0.580000   2.127357   -2.270516
 0.585000   2.116093   -2.237736
 0.590000   2.104980   -2.209996
 0.595000   2.093993   -2.187270
 0.600000   2.083107   -2.168540
 0.605000   2.072308   -2.152810
 0.610000   2.061579   -2.139886
 0.615000   2.050909   -2.129589
 0.620000   2.040283   -2.122777
 0.625000   2.029681   -2.118433
 0.630000   2.019099   -2.115118
 0.635000   2.008530   -2.113270
 0.640000   1.997966   -2.112687
 0.645000   1.987403   -2.113131
 0.650000   1.976835   -2.115658
 0.655000   1.966246   -2.120606
 0.660000   1.955629   -2.128153
 0.665000   1.944965   -2.139458
 0.670000   1.934234   -2.154548
 0.675000   1.923419   -2.173057
 0.680000   1.912504   -2.196556
 0.685000   1.901454   -2.221904
 0.690000   1.890285   -2.244051
 0.695000   1.879013   -2.263393
 0.700000   1.867651   -2.280206
 0.705000   1.856211   -2.294090
 0.710000   1.844710   -2.304632
 0.715000   1.833165   -2.310363
 0.720000   1.821606   -2.310922
 0.725000   1.810056   -2.307431
 0.730000   1.798532   -2.300204
 0.735000   1.787054   -2.289403
 0.740000   1.775638   -2.273575
 0.745000   1.764318   -2.252908
 0.750000   1.753109   -2.231833
 0.755000   1.742000   -2.212859
 0.760000   1.730980   -2.196660
 0.765000   1.720033   -2.184729
 0.770000   1.709133   -2.177637
 0.775000   1.698257   -2.175500
 0.780000   1.687378   -2.177733
 0.785000   1.676479   -2.182817
 0.790000   1.665550   -2.190036
 0.795000   1.654579   -2.199593
 0.800000   1.643554   -2.212367
 0.805000   1.632455   -2.231909
 0.810000   1.621235   -2.261046
 0.815000   1.609845   -2.300060
 0.820000   1.598234   -2.349206
 0.825000   1.586353   -2.408189
 0.830000   1.574152   -2.477818
 0.835000   1.561574   -2.560006
 0.840000   1.548552   -2.646952
 0.845000   1.535105   -2.737523
 0.850000   1.521177   -2.841027
 0.855000   1.506695   -2.960426
 0.860000   1.491573   -3.098898
 0.865000   1.475706   -3.267513
 0.870000   1.458898   -3.452956
 0.875000   1.441176   -3.644789
 0.880000   1.422450   -3.855625
 0.885000   1.402620   -4.086937
 0.890000   1.381580   -4.341012
 0.895000   1.359210   -4.647772
 0.900000   1.335103   -4.998949
 0.905000   1.309220   -5.377203
 0.910000   1.281331   -5.802933
 0.915000   1.251191   -6.278251
 0.920000   1.218548   -6.805029
 0.925000   1.183141   -7.425577
 0.930000   1.144292   -8.095581
 0.935000   1.102185   -8.751272
 0.940000   1.056780   -9.407214
 0.945000   1.008113   -10.041690
 0.950000   0.956363   -10.623088
 0.955000   0.901882   -11.138168
 0.960000   0.844981   -11.512606
 0.965000   0.786756   -11.678484
 0.970000   0.728196   -11.643694
 0.975000   0.670319   -11.402409
 0.980000   0.614172   -10.955603
 0.985000   0.560763   -10.307253
 0.990000   0.511100   -9.481925
 0.995000   0.465944   -8.540833
 1.000000   0.425691   -7.560095
201 psinorm nb(10^20/m^3) dnb/dpsiN
 0.000000   0.080187   0.049669
 0.005000   0.080281   -0.012076
 0.010000   0.080066   -0.060801
 0.015000   0.079673   -0.094752
 0.020000   0.079119   -0.123701
 0.025000   0.078436   -0.147747
 0.030000   0.077641   -0.167895
 0.035000   0.076757   -0.184998
 0.040000   0.075791   -0.200522
 0.045000   0.074752   -0.213934
 0.050000   0.073652   -0.225997
 0.055000   0.072492   -0.236119
 0.060000   0.071291   -0.244107
 0.065000   0.070051   -0.250570
 0.070000   0.068785   -0.255276
 0.075000   0.067498   -0.258875
 0.080000   0.066196   -0.261116
 0.085000   0.064887   -0.262329
 0.090000   0.063573   -0.262562
 0.095000   0.062261   -0.261832
 0.100000   0.060955   -0.260338
 0.105000   0.059658   -0.258107
 0.110000   0.058373   -0.255249
 0.115000   0.057105   -0.251743
 0.120000   0.055856   -0.247705
 0.125000   0.054628   -0.243170
 0.130000   0.053424   -0.238197
 0.135000   0.052246   -0.232930
 0.140000   0.051095   -0.227432
 0.145000   0.049972   -0.221689
 0.150000   0.048878   -0.215695
 0.155000   0.047815   -0.209548
 0.160000   0.046783   -0.203305
 0.165000   0.045782   -0.197011
 0.170000   0.044813   -0.190708
 0.175000   0.043875   -0.184406
 0.180000   0.042969   -0.178071
 0.185000   0.042094   -0.171774
 0.190000   0.041251   -0.165677
 0.195000   0.040437   -0.159779
 0.200000   0.039653   -0.154017
 0.205000   0.038897   -0.147971
 0.210000   0.038173   -0.142042
 0.215000   0.037477   -0.136710
 0.220000   0.036806   -0.131621
 0.225000   0.036160   -0.126760
 0.230000   0.035539   -0.122109
 0.235000   0.034939   -0.117552
 0.240000   0.034363   -0.112693
 0.245000   0.033812   -0.108110
 0.250000   0.033282   -0.104196
 0.255000   0.032771   -0.100469
 0.260000   0.032277   -0.096924
 0.265000   0.031801   -0.093327
 0.270000   0.031344   -0.089692
 0.275000   0.030904   -0.086490
 0.280000   0.030479   -0.083700
 0.285000   0.030067   -0.081060
 0.290000   0.029668   -0.078396
 0.295000   0.029283   -0.075674
 0.300000   0.028912   -0.073290
 0.305000   0.028550   -0.071272
 0.310000   0.028199   -0.069372
 0.315000   0.027857   -0.067379
 0.320000   0.027525   -0.065437
 0.325000   0.027202   -0.063849
 0.330000   0.026887   -0.062460
 0.335000   0.026578   -0.061124
 0.340000   0.026275   -0.059693
 0.345000   0.025981   -0.058408
 0.350000   0.025691   -0.057406
 0.355000   0.025407   -0.056469
 0.360000   0.025127   -0.055464
 0.365000   0.024852   -0.054508
 0.370000   0.024582   -0.053762
 0.375000   0.024315   -0.053096
 0.380000   0.024051   -0.052406
 0.385000   0.023790   -0.051714
 0.390000   0.023534   -0.051128
 0.395000   0.023279   -0.050625
 0.400000   0.023027   -0.050132
 0.405000   0.022778   -0.049628
 0.410000   0.022531   -0.049185
 0.415000   0.022286   -0.048820
 0.420000   0.022043   -0.048453
 0.425000   0.021801   -0.048031
 0.430000   0.021563   -0.047626
 0.435000   0.021325   -0.047289
 0.440000   0.021090   -0.046952
 0.445000   0.020856   -0.046541
 0.450000   0.020624   -0.046134
 0.455000   0.020394   -0.045806
 0.460000   0.020166   -0.045482
 0.465000   0.019940   -0.045085
 0.470000   0.019715   -0.044681
 0.475000   0.019493   -0.044355
 0.480000   0.019272   -0.044040
 0.485000   0.019052   -0.043674
 0.490000   0.018835   -0.043306
 0.495000   0.018619   -0.043008
 0.500000   0.018405   -0.042730
 0.505000   0.018192   -0.042422
 0.510000   0.017981   -0.042105
 0.515000   0.017771   -0.041836
 0.520000   0.017562   -0.041590
 0.525000   0.017355   -0.041325
 0.530000   0.017149   -0.041039
 0.535000   0.016945   -0.040784
 0.540000   0.016741   -0.040561
 0.545000   0.016539   -0.040337
 0.550000   0.016338   -0.040081
 0.555000   0.016138   -0.039839
 0.560000   0.015940   -0.039642
 0.565000   0.015742   -0.039450
 0.570000   0.015545   -0.039233
 0.575000   0.015349   -0.039020
 0.580000   0.015155   -0.038850
 0.585000   0.014961   -0.038692
 0.590000   0.014768   -0.038533
 0.595000   0.014576   -0.038374
 0.600000   0.014384   -0.038242
 0.605000   0.014193   -0.038141
 0.610000   0.014003   -0.038051
 0.615000   0.013813   -0.037966
 0.620000   0.013623   -0.037900
 0.625000   0.013434   -0.037862
 0.630000   0.013244   -0.037837
 0.635000   0.013055   -0.037827
 0.640000   0.012866   -0.037836
 0.645000   0.012677   -0.037864
 0.650000   0.012488   -0.037904
 0.655000   0.012298   -0.037955
 0.660000   0.012108   -0.038019
 0.665000   0.011918   -0.038108
 0.670000   0.011727   -0.038209
 0.675000   0.011536   -0.038308
 0.680000   0.011344   -0.038414
 0.685000   0.011152   -0.038529
 0.690000   0.010959   -0.038671
 0.695000   0.010765   -0.038828
 0.700000   0.010570   -0.038976
 0.705000   0.010375   -0.039124
 0.710000   0.010179   -0.039276
 0.715000   0.009982   -0.039433
 0.720000   0.009785   -0.039604
 0.725000   0.009586   -0.039766
 0.730000   0.009387   -0.039907
 0.735000   0.009187   -0.040042
 0.740000   0.008987   -0.040170
 0.745000   0.008785   -0.040291
 0.750000   0.008584   -0.040412
 0.755000   0.008381   -0.040519
 0.760000   0.008179   -0.040601
 0.765000   0.007975   -0.040670
 0.770000   0.007772   -0.040724
 0.775000   0.007568   -0.040764
 0.780000   0.007364   -0.040788
 0.785000   0.007160   -0.040797
 0.790000   0.006956   -0.040788
 0.795000   0.006752   -0.040764
 0.800000   0.006549   -0.040726
 0.805000   0.006345   -0.040671
 0.810000   0.006142   -0.040598
 0.815000   0.005939   -0.040506
 0.820000   0.005737   -0.040393
 0.825000   0.005535   -0.040250
 0.830000   0.005334   -0.040084
 0.835000   0.005134   -0.039904
 0.840000   0.004935   -0.039702
 0.845000   0.004737   -0.039478
 0.850000   0.004541   -0.039229
 0.855000   0.004345   -0.038948
 0.860000   0.004151   -0.038632
 0.865000   0.003959   -0.038280
 0.870000   0.003768   -0.037896
 0.875000   0.003580   -0.037509
 0.880000   0.003393   -0.037139
 0.885000   0.003208   -0.036765
 0.890000   0.003025   -0.036361
 0.895000   0.002845   -0.035915
 0.900000   0.002666   -0.035405
 0.905000   0.002491   -0.034805
 0.910000   0.002318   -0.034099
 0.915000   0.002150   -0.033285
 0.920000   0.001985   -0.032355
 0.925000   0.001826   -0.031304
 0.930000   0.001672   -0.030195
 0.935000   0.001524   -0.029167
 0.940000   0.001381   -0.028399
 0.945000   0.001240   -0.028057
 0.950000   0.001100   -0.028149
 0.955000   0.000959   -0.028336
 0.960000   0.000817   -0.027928
 0.965000   0.000679   -0.026344
 0.970000   0.000553   -0.023527
 0.975000   0.000444   -0.019928
 0.980000   0.000354   -0.016286
 0.985000   0.000281   -0.013380
 0.990000   0.000220   -0.011616
 0.995000   0.000165   -0.012026
 1.000000   0.000100   -0.014023
201 psinorm pb(KPa) dpb/dpsiN
 0.000000   32.075933   6.079737
 0.005000   32.054317   -14.725925
 0.010000   31.928673   -32.129576
 0.015000   31.733021   -45.745287
 0.020000   31.471221   -57.323230
 0.025000   31.159789   -66.526219
 0.030000   30.805958   -73.822124
 0.035000   30.421568   -79.900180
 0.040000   30.006957   -85.678767
 0.045000   29.564780   -90.673102
 0.050000   29.100225   -95.231531
 0.055000   28.612465   -99.040202
 0.060000   28.109823   -101.908953
 0.065000   27.593375   -104.165437
 0.070000   27.068169   -105.744944
 0.075000   26.535926   -106.872025
 0.080000   25.999449   -107.475122
 0.085000   25.461175   -107.707001
 0.090000   24.922379   -107.573243
 0.095000   24.385442   -107.072803
 0.100000   23.851651   -106.285879
 0.105000   23.322583   -105.241667
 0.110000   22.799234   -103.964768
 0.115000   22.282936   -102.422688
 0.120000   21.775007   -100.669730
 0.125000   21.276238   -98.733705
 0.130000   20.787670   -96.637055
 0.135000   20.309868   -94.430538
 0.140000   19.843365   -92.157635
 0.145000   19.388292   -89.800612
 0.150000   18.945359   -87.337006
 0.155000   18.514922   -84.817819
 0.160000   18.097181   -82.267887
 0.165000   17.692243   -79.704920
 0.170000   17.300131   -77.144956
 0.175000   16.920793   -74.583742
 0.180000   16.554294   -71.995160
 0.185000   16.200842   -69.421007
 0.190000   15.860084   -66.951850
 0.195000   15.531323   -64.580405
 0.200000   15.214280   -62.265698
 0.205000   14.908666   -59.848997
 0.210000   14.615790   -57.483304
 0.215000   14.333833   -55.351119
 0.220000   14.062279   -53.319083
 0.225000   13.800642   -51.384746
 0.230000   13.548431   -49.538644
 0.235000   13.305256   -47.726226
 0.240000   13.071169   -45.799314
 0.245000   12.847263   -43.981499
 0.250000   12.631354   -42.419617
 0.255000   12.423066   -40.932193
 0.260000   12.222032   -39.516904
 0.265000   12.027897   -38.085751
 0.270000   11.841174   -36.643526
 0.275000   11.661462   -35.367951
 0.280000   11.487495   -34.248513
 0.285000   11.318977   -33.186401
 0.290000   11.155631   -32.116726
 0.295000   10.997810   -31.025928
 0.300000   10.845372   -30.063651
 0.305000   10.697173   -29.239608
 0.310000   10.552976   -28.462343
 0.315000   10.412550   -27.651483
 0.320000   10.276461   -26.860821
 0.325000   10.143942   -26.207606
 0.330000   10.014385   -25.633996
 0.335000   9.887602   -25.083576
 0.340000   9.763549   -24.494712
 0.345000   9.642654   -23.957496
 0.350000   9.523974   -23.528171
 0.355000   9.407373   -23.125038
 0.360000   9.292724   -22.697285
 0.365000   9.180400   -22.289516
 0.370000   9.069828   -21.962203
 0.375000   8.960778   -21.666337
 0.380000   8.853165   -21.363173
 0.385000   8.747146   -21.059006
 0.390000   8.642575   -20.791351
 0.395000   8.539233   -20.552990
 0.400000   8.437045   -20.325948
 0.405000   8.335973   -20.101173
 0.410000   8.236033   -19.900676
 0.415000   8.136966   -19.728323
 0.420000   8.038750   -19.555413
 0.425000   7.941412   -19.361304
 0.430000   7.845137   -19.172265
 0.435000   7.749690   -19.007164
 0.440000   7.655065   -18.841663
 0.445000   7.561273   -18.647998
 0.450000   7.468586   -18.457484
 0.455000   7.376698   -18.299272
 0.460000   7.285593   -18.144446
 0.465000   7.195254   -17.961736
 0.470000   7.105975   -17.775502
 0.475000   7.017499   -17.619604
 0.480000   6.929779   -17.470189
 0.485000   6.842797   -17.306017
 0.490000   6.756719   -17.144668
 0.495000   6.671350   -17.010600
 0.500000   6.586613   -16.886835
 0.505000   6.502482   -16.759582
 0.510000   6.419017   -16.634208
 0.515000   6.336140   -16.522854
 0.520000   6.253789   -16.417598
 0.525000   6.171964   -16.306356
 0.530000   6.090725   -16.192136
 0.535000   6.010042   -16.088784
 0.540000   5.929837   -15.995106
 0.545000   5.850091   -15.904998
 0.550000   5.770787   -15.809817
 0.555000   5.691993   -15.714706
 0.560000   5.613640   -15.627295
 0.565000   5.535720   -15.542084
 0.570000   5.458220   -15.455385
 0.575000   5.381166   -15.369818
 0.580000   5.304521   -15.289616
 0.585000   5.228270   -15.211586
 0.590000   5.152406   -15.134183
 0.595000   5.076928   -15.058081
 0.600000   5.001825   -14.990505
 0.605000   4.927023   -14.931122
 0.610000   4.852514   -14.873477
 0.615000   4.778289   -14.818132
 0.620000   4.704332   -14.768679
 0.625000   4.630602   -14.725037
 0.630000   4.557082   -14.684545
 0.635000   4.483756   -14.647612
 0.640000   4.410606   -14.618397
 0.645000   4.337572   -14.593833
 0.650000   4.264667   -14.569607
 0.655000   4.191876   -14.548154
 0.660000   4.119186   -14.529482
 0.665000   4.046581   -14.518825
 0.670000   3.973998   -14.510381
 0.675000   3.901478   -14.498270
 0.680000   3.829015   -14.487490
 0.685000   3.756603   -14.478128
 0.690000   3.684234   -14.476890
 0.695000   3.611834   -14.479374
 0.700000   3.539440   -14.477359
 0.705000   3.467060   -14.474647
 0.710000   3.394693   -14.471946
 0.715000   3.322341   -14.470020
 0.720000   3.249993   -14.471668
 0.725000   3.177624   -14.469553
 0.730000   3.105298   -14.459840
 0.735000   3.033026   -14.447693
 0.740000   2.960821   -14.432749
 0.745000   2.888698   -14.414685
 0.750000   2.816674   -14.395389
 0.755000   2.744744   -14.370654
 0.760000   2.672967   -14.337257
 0.765000   2.601372   -14.297856
 0.770000   2.529989   -14.252554
 0.775000   2.458846   -14.202308
 0.780000   2.387966   -14.146816
 0.785000   2.317378   -14.085265
 0.790000   2.247113   -14.019031
 0.795000   2.177188   -13.949150
 0.800000   2.107622   -13.874985
 0.805000   2.038438   -13.796097
 0.810000   1.969661   -13.712204
 0.815000   1.901316   -13.622649
 0.820000   1.833434   -13.526735
 0.825000   1.766048   -13.421199
 0.830000   1.699222   -13.309944
 0.835000   1.632949   -13.196465
 0.840000   1.567257   -13.077435
 0.845000   1.502175   -12.952934
 0.850000   1.437728   -12.821816
 0.855000   1.373956   -12.682250
 0.860000   1.310906   -12.533253
 0.865000   1.248624   -12.373820
 0.870000   1.187167   -12.204441
 0.875000   1.126580   -12.030640
 0.880000   1.066861   -11.855209
 0.885000   1.008027   -11.670050
 0.890000   0.950161   -11.466997
 0.895000   0.893357   -11.244539
 0.900000   0.837715   -10.997472
 0.905000   0.783383   -10.717993
 0.910000   0.730535   -10.403075
 0.915000   0.679352   -10.053938
 0.920000   0.629996   -9.671437
 0.925000   0.582638   -9.259625
 0.930000   0.537400   -8.841421
 0.935000   0.494223   -8.463244
 0.940000   0.452767   -8.189387
 0.945000   0.412330   -8.088759
 0.950000   0.371880   -8.209458
 0.955000   0.330235   -8.500326
 0.960000   0.286876   -8.772847
 0.965000   0.242507   -8.798217
 0.970000   0.198894   -8.408305
 0.975000   0.158423   -7.591979
 0.980000   0.122974   -6.494914
 0.985000   0.093474   -5.321540
 0.990000   0.069759   -4.258931
 0.995000   0.050885   -3.755321
 1.000000   0.032206   -3.716397
201 psinorm ptot(KPa) dptot/dpsiN
 0.000000   98.672493   -98.958631
 0.005000   98.137324   -115.108954
 0.010000   97.521403   -128.875302
 0.015000   96.848571   -140.008440
 0.020000   96.121319   -149.494971
 0.025000   95.353621   -156.991267
 0.030000   94.551406   -162.887100
 0.035000   93.724750   -167.805185
 0.040000   92.873354   -172.548567
 0.045000   91.999264   -176.673294
 0.050000   91.106621   -180.468004
 0.055000   90.194584   -183.663486
 0.060000   89.269986   -186.083445
 0.065000   88.333750   -188.007143
 0.070000   87.389915   -189.385567
 0.075000   86.439894   -190.394176
 0.080000   85.485973   -190.982698
 0.085000   84.530067   -191.277859
 0.090000   83.573195   -191.280678
 0.095000   82.617260   -190.987538
 0.100000   81.663319   -190.460531
 0.105000   80.712655   -189.724145
 0.110000   79.766078   -188.793353
 0.115000   78.824722   -187.636253
 0.120000   77.889715   -186.297309
 0.125000   76.961748   -184.800507
 0.130000   76.041710   -183.163396
 0.135000   75.130114   -181.426505
 0.140000   74.227445   -179.627677
 0.145000   73.333838   -177.748161
 0.150000   72.449964   -175.764395
 0.155000   71.576194   -173.718944
 0.160000   70.712774   -171.631960
 0.165000   69.859874   -169.514773
 0.170000   69.017626   -167.374695
 0.175000   68.186127   -165.204422
 0.180000   67.365582   -162.979601
 0.185000   66.556331   -160.735866
 0.190000   65.758223   -158.553261
 0.195000   64.970799   -156.433767
 0.200000   64.193886   -154.353726
 0.205000   63.427261   -152.185828
 0.210000   62.672028   -150.054637
 0.215000   61.926715   -148.107043
 0.220000   61.190957   -146.231987
 0.225000   60.464395   -144.429874
 0.230000   59.746658   -142.674845
 0.235000   59.037647   -140.913137
 0.240000   58.337527   -139.032493
 0.245000   57.647322   -137.221203
 0.250000   56.965315   -135.603495
 0.255000   56.291287   -134.029315
 0.260000   55.625022   -132.468616
 0.265000   54.966601   -130.830937
 0.270000   54.316712   -129.130760
 0.275000   53.675293   -127.515617
 0.280000   53.041556   -125.974416
 0.285000   52.415549   -124.414184
 0.290000   51.797414   -122.780732
 0.295000   51.187742   -121.074224
 0.300000   50.586672   -119.431360
 0.305000   49.993428   -117.874993
 0.310000   49.407922   -116.344385
 0.315000   48.829984   -114.790101
 0.320000   48.260021   -113.276548
 0.325000   47.697219   -111.902927
 0.330000   47.140992   -110.609451
 0.335000   46.591124   -109.346436
 0.340000   46.047528   -108.058589
 0.345000   45.510538   -106.844246
 0.350000   44.979085   -105.737086
 0.355000   44.453167   -104.637899
 0.360000   43.932706   -103.511941
 0.365000   43.418048   -102.395635
 0.370000   42.908750   -101.332472
 0.375000   42.404723   -100.271488
 0.380000   41.906035   -99.127116
 0.385000   41.413452   -97.872645
 0.390000   40.927309   -96.565937
 0.395000   40.447793   -95.213236
 0.400000   39.975176   -93.808023
 0.405000   39.509712   -92.324273
 0.410000   39.051933   -90.801341
 0.415000   38.601699   -89.312282
 0.420000   38.158811   -87.856821
 0.425000   37.723131   -86.420377
 0.430000   37.294607   -85.034666
 0.435000   36.872784   -83.708677
 0.440000   36.457520   -82.433517
 0.445000   36.048449   -81.208634
 0.450000   35.645434   -80.051835
 0.455000   35.247931   -78.977746
 0.460000   34.855656   -77.959246
 0.465000   34.468338   -76.971170
 0.470000   34.085945   -76.040208
 0.475000   33.707936   -75.179281
 0.480000   33.334152   -74.342666
 0.485000   32.964509   -73.496927
 0.490000   32.599182   -72.641705
 0.495000   32.238092   -71.787422
 0.500000   31.881308   -70.908101
 0.505000   31.529011   -69.991970
 0.510000   31.181389   -69.058816
 0.515000   30.838423   -68.129198
 0.520000   30.500097   -67.200091
 0.525000   30.166422   -66.261368
 0.530000   29.837483   -65.312322
 0.535000   29.513299   -64.380189
 0.540000   29.193681   -63.475309
 0.545000   28.878546   -62.588077
 0.550000   28.567800   -61.713278
 0.555000   28.261413   -60.854699
 0.560000   27.959253   -60.014579
 0.565000   27.661267   -59.202621
 0.570000   27.367227   -58.423511
 0.575000   27.077032   -57.669187
 0.580000   26.790535   -56.943102
 0.585000   26.507601   -56.243587
 0.590000   26.228099   -55.570519
 0.595000   25.951896   -54.924839
 0.600000   25.678851   -54.308603
 0.605000   25.408810   -53.717308
 0.610000   25.141678   -53.144516
 0.615000   24.877365   -52.590281
 0.620000   24.615775   -52.060802
 0.625000   24.356757   -51.551173
 0.630000   24.100263   -51.053550
 0.635000   23.846221   -50.570617
 0.640000   23.594557   -50.105943
 0.645000   23.345162   -49.656004
 0.650000   23.097997   -49.220957
 0.655000   22.852952   -48.806481
 0.660000   22.609932   -48.415497
 0.665000   22.368797   -48.055942
 0.670000   22.129373   -47.716942
 0.675000   21.891628   -47.382060
 0.680000   21.655552   -47.038048
 0.685000   21.421248   -46.660324
 0.690000   21.188949   -46.248930
 0.695000   20.958758   -45.809868
 0.700000   20.730850   -45.341621
 0.705000   20.505342   -44.855124
 0.710000   20.282299   -44.342588
 0.715000   20.061916   -43.820261
 0.720000   19.844096   -43.331305
 0.725000   19.628603   -42.878610
 0.730000   19.415310   -42.461263
 0.735000   19.203990   -42.093650
 0.740000   18.994374   -41.774374
 0.745000   18.786247   -41.516232
 0.750000   18.579212   -41.340641
 0.755000   18.372840   -41.234977
 0.760000   18.166862   -41.182963
 0.765000   17.961011   -41.178703
 0.770000   17.755075   -41.216806
 0.775000   17.548843   -41.283026
 0.780000   17.342244   -41.335974
 0.785000   17.135483   -41.350668
 0.790000   16.928738   -41.327216
 0.795000   16.722211   -41.261192
 0.800000   16.516126   -41.152712
 0.805000   16.310684   -41.010250
 0.810000   16.106023   -40.837204
 0.815000   15.902312   -40.638753
 0.820000   15.699636   -40.421021
 0.825000   15.498101   -40.175212
 0.830000   15.297884   -39.900394
 0.835000   15.099097   -39.596835
 0.840000   14.901915   -39.214903
 0.845000   14.706948   -38.737011
 0.850000   14.514545   -38.189467
 0.855000   14.325054   -37.570805
 0.860000   14.138837   -36.883504
 0.865000   13.956219   -36.168124
 0.870000   13.777156   -35.371688
 0.875000   13.602502   -34.475770
 0.880000   13.432398   -33.583605
 0.885000   13.266666   -32.778332
 0.890000   13.104615   -32.203734
 0.895000   12.944628   -32.212398
 0.900000   12.782491   -33.106727
 0.905000   12.613561   -35.303573
 0.910000   12.429455   -39.577265
 0.915000   12.217788   -46.832193
 0.920000   11.961133   -58.132720
 0.925000   11.636461   -74.692808
 0.930000   11.214205   -97.051839
 0.935000   10.665943   -124.819791
 0.940000   9.966007   -156.400521
 0.945000   9.101938   -188.098504
 0.950000   8.085022   -214.512765
 0.955000   6.956810   -229.801616
 0.960000   5.787006   -229.761419
 0.965000   4.659196   -213.807936
 0.970000   3.648927   -185.354646
 0.975000   2.805649   -150.497698
 0.980000   2.143950   -115.725429
 0.985000   1.648395   -85.668944
 0.990000   1.287260   -62.254651
 0.995000   1.025849   -45.562022
 1.000000   0.831640   -32.121347
201 psinorm omeg(kRad/s) domeg/dpsiN
 0.000000   68.577423   0.012983
 0.005000   68.576920   -0.214223
 0.010000   68.575281   -0.461790
 0.015000   68.572302   -0.751441
 0.020000   68.567766   -1.085208
 0.025000   68.561450   -1.463912
 0.030000   68.553127   -1.887169
 0.035000   68.542578   -2.353167
 0.040000   68.529595   -2.855608
 0.045000   68.514022   -3.389414
 0.050000   68.495701   -3.951243
 0.055000   68.474510   -4.534660
 0.060000   68.450355   -5.133765
 0.065000   68.423172   -5.743527
 0.070000   68.392919   -6.351689
 0.075000   68.359655   -6.960973
 0.080000   68.323310   -7.581589
 0.085000   68.283839   -8.209956
 0.090000   68.241210   -8.846151
 0.095000   68.195378   -9.492596
 0.100000   68.146284   -10.144939
 0.105000   68.093928   -10.806471
 0.110000   68.038219   -11.483829
 0.115000   67.979090   -12.172852
 0.120000   67.916491   -12.873298
 0.125000   67.850357   -13.589461
 0.130000   67.780596   -14.327655
 0.135000   67.707080   -15.104260
 0.140000   67.629554   -15.933209
 0.145000   67.547748   -16.818614
 0.150000   67.461368   -17.767927
 0.155000   67.370069   -18.790006
 0.160000   67.273468   -19.906325
 0.165000   67.171006   -21.123183
 0.170000   67.062236   -22.403449
 0.175000   66.946971   -23.730607
 0.180000   66.824930   -25.111034
 0.185000   66.695861   -26.536841
 0.190000   66.559561   -28.003619
 0.195000   66.415825   -29.477434
 0.200000   66.264787   -30.893537
 0.205000   66.106889   -32.225660
 0.210000   65.942530   -33.466954
 0.215000   65.772220   -34.595754
 0.220000   65.596573   -35.573055
 0.225000   65.416489   -36.330677
 0.230000   65.233266   -36.917046
 0.235000   65.047319   -37.385323
 0.240000   64.859413   -37.704013
 0.245000   64.670279   -37.881734
 0.250000   64.480595   -37.908993
 0.255000   64.291189   -37.721674
 0.260000   64.103379   -37.462812
 0.265000   63.916561   -37.242530
 0.270000   63.730953   -36.994312
 0.275000   63.546618   -36.750849
 0.280000   63.363445   -36.542150
 0.285000   63.181196   -36.384349
 0.290000   62.999601   -36.407553
 0.295000   62.817121   -36.666027
 0.300000   62.632941   -37.079257
 0.305000   62.446328   -37.625679
 0.310000   62.256684   -38.271524
 0.315000   62.063613   -39.027232
 0.320000   61.866412   -39.836402
 0.325000   61.665249   -40.640245
 0.330000   61.460010   -41.463411
 0.335000   61.250615   -42.297607
 0.340000   61.037033   -43.132391
 0.345000   60.819291   -43.991665
 0.350000   60.597117   -44.817909
 0.355000   60.371112   -45.551133
 0.360000   60.141605   -46.218592
 0.365000   59.908926   -46.815167
 0.370000   59.673454   -47.330109
 0.375000   59.435625   -47.741189
 0.380000   59.196042   -48.021644
 0.385000   58.955408   -48.176592
 0.390000   58.714276   -48.221066
 0.395000   58.473197   -48.156556
 0.400000   58.232710   -47.987159
 0.405000   57.993326   -47.676103
 0.410000   57.755949   -47.325135
 0.415000   57.520075   -47.209998
 0.420000   57.283849   -47.521494
 0.425000   57.044860   -48.356324
 0.430000   56.800286   -49.768773
 0.435000   56.547172   -51.954441
 0.440000   56.280742   -54.925307
 0.445000   55.997919   -58.273658
 0.450000   55.698005   -61.843286
 0.455000   55.379486   -65.673820
 0.460000   55.041267   -69.675968
 0.465000   54.682726   -73.967325
 0.470000   54.301594   -78.427795
 0.475000   53.898448   -82.404025
 0.480000   53.477554   -85.721388
 0.485000   53.041234   -88.511245
 0.490000   52.592441   -90.656684
 0.495000   52.134668   -92.092449
 0.500000   51.671517   -92.673664
 0.505000   51.207931   -92.342386
 0.510000   50.748093   -91.360715
 0.515000   50.294324   -89.950694
 0.520000   49.848586   -88.176855
 0.525000   49.412555   -86.058391
 0.530000   48.988002   -83.557592
 0.535000   48.576979   -80.854277
 0.540000   48.179459   -78.114915
 0.545000   47.795830   -75.326085
 0.550000   47.426198   -72.542461
 0.555000   47.070406   -69.793624
 0.560000   46.728262   -67.054530
 0.565000   46.399860   -64.532417
 0.570000   46.082938   -62.348823
 0.575000   45.776372   -60.399367
 0.580000   45.478944   -58.700272
 0.585000   45.189369   -57.262336
 0.590000   44.906321   -56.088203
 0.595000   44.628487   -55.107348
 0.600000   44.355247   -54.203878
 0.605000   44.086449   -53.330326
 0.610000   43.821944   -52.489882
 0.615000   43.561550   -51.693316
 0.620000   43.305011   -50.912481
 0.625000   43.052425   -50.190701
 0.630000   42.803104   -49.589204
 0.635000   42.556533   -49.093561
 0.640000   42.312168   -48.710693
 0.645000   42.069426   -48.448664
 0.650000   41.827682   -48.291914
 0.655000   41.586507   -48.323340
 0.660000   41.344448   -48.631422
 0.665000   41.100193   -49.202882
 0.670000   40.852419   -50.044160
 0.675000   40.599751   -51.162860
 0.680000   40.340791   -52.596664
 0.685000   40.073784   -54.202935
 0.690000   39.798761   -55.769920
 0.695000   39.516085   -57.296172
 0.700000   39.225800   -58.826973
 0.705000   38.927815   -60.389228
 0.710000   38.621907   -62.002665
 0.715000   38.307789   -63.654037
 0.720000   37.985367   -65.317438
 0.725000   37.654614   -66.982053
 0.730000   37.315547   -68.634760
 0.735000   36.968267   -70.257980
 0.740000   36.612967   -71.835297
 0.745000   36.249914   -73.361037
 0.750000   35.879356   -74.895405
 0.755000   35.500960   -76.581693
 0.760000   35.113539   -78.565669
 0.765000   34.715303   -80.942735
 0.770000   34.304112   -83.868258
 0.775000   33.876620   -87.283420
 0.780000   33.431278   -90.592174
 0.785000   32.970699   -93.457854
 0.790000   32.496699   -95.896632
 0.795000   32.011732   -97.798675
 0.800000   31.518713   -99.174106
 0.805000   31.019991   -100.208024
 0.810000   30.516632   -100.880066
 0.815000   30.011191   -101.147966
 0.820000   29.505153   -101.055357
 0.825000   29.000637   -100.471945
 0.830000   28.500433   -99.360597
 0.835000   28.007031   -97.791164
 0.840000   27.522522   -95.400151
 0.845000   27.053030   -92.290355
 0.850000   26.599618   -89.117040
 0.855000   26.161859   -86.188062
 0.860000   25.737737   -83.950861
 0.865000   25.322351   -83.409576
 0.870000   24.903642   -84.916971
 0.875000   24.473181   -89.379917
 0.880000   24.009843   -99.058309
 0.885000   23.482598   -115.966592
 0.890000   22.850177   -141.986025
 0.895000   22.062738   -179.111926
 0.900000   21.059057   -226.510751
 0.905000   19.797630   -281.367252
 0.910000   18.245385   -340.231643
 0.915000   16.395314   -397.015022
 0.920000   14.275235   -444.335386
 0.925000   11.951960   -474.458560
 0.930000   9.530649   -480.305173
 0.935000   7.148908   -458.322997
 0.940000   4.947419   -409.611817
 0.945000   3.052790   -338.985796
 0.950000   1.557561   -254.573496
 0.955000   0.507055   -165.767087
 0.960000   -0.100110   -82.959495
 0.965000   -0.322540   -13.923579
 0.970000   -0.239346   38.390821
 0.975000   0.061368   73.333080
 0.980000   0.493985   92.249290
 0.985000   0.983861   97.233926
 0.990000   1.466325   91.804617
 0.995000   1.901907   79.981841
 1.000000   2.266143   65.712439
201 psinorm omegp(kRad/s) domegp/dpsiN
 0.000000   -0.014010   178.694721
 0.005000   0.684745   100.807114
 0.010000   0.994061   56.795208
 0.015000   1.252697   49.379286
 0.020000   1.487854   45.323489
 0.025000   1.705932   41.864747
 0.030000   1.906502   38.441671
 0.035000   2.090348   35.494773
 0.040000   2.261449   32.958013
 0.045000   2.419928   30.675415
 0.050000   2.568203   28.973611
 0.055000   2.709665   27.956061
 0.060000   2.847764   27.605281
 0.065000   2.985717   27.628915
 0.070000   3.124053   27.800231
 0.075000   3.263720   28.069100
 0.080000   3.404744   28.214502
 0.085000   3.545865   28.169165
 0.090000   3.686436   27.990541
 0.095000   3.825770   27.480554
 0.100000   3.961241   26.783698
 0.105000   4.093607   26.065938
 0.110000   4.221901   25.438148
 0.115000   4.347989   25.027696
 0.120000   4.472178   24.956434
 0.125000   4.597553   25.235155
 0.130000   4.724529   25.676377
 0.135000   4.854317   26.158392
 0.140000   4.986113   26.664416
 0.145000   5.120961   27.097331
 0.150000   5.257086   27.295280
 0.155000   5.393914   27.047058
 0.160000   5.527557   26.417713
 0.165000   5.658091   25.430493
 0.170000   5.781862   23.922248
 0.175000   5.897313   21.904964
 0.180000   6.000912   19.319492
 0.185000   6.090508   16.589911
 0.190000   6.166811   13.712311
 0.195000   6.227631   10.845952
 0.200000   6.275270   8.169719
 0.205000   6.309328   5.550312
 0.210000   6.330773   3.489795
 0.215000   6.344226   1.890527
 0.220000   6.349679   0.539317
 0.225000   6.349620   -0.628611
 0.230000   6.343393   -1.937136
 0.235000   6.330248   -3.192939
 0.240000   6.311463   -4.635125
 0.245000   6.283897   -6.372953
 0.250000   6.247734   -8.096085
 0.255000   6.202936   -9.989893
 0.260000   6.147835   -11.947023
 0.265000   6.083466   -13.863613
 0.270000   6.009199   -15.942812
 0.275000   5.924038   -18.010887
 0.280000   5.829090   -20.146194
 0.285000   5.722576   -22.526696
 0.290000   5.603823   -24.904503
 0.295000   5.473531   -27.416812
 0.300000   5.329655   -30.154836
 0.305000   5.171982   -32.839483
 0.310000   5.001260   -35.594102
 0.315000   4.816041   -38.493020
 0.320000   4.616330   -41.257058
 0.325000   4.403471   -43.810999
 0.330000   4.178220   -46.031431
 0.335000   3.943157   -47.630068
 0.340000   3.701919   -48.681729
 0.345000   3.456339   -49.326346
 0.350000   3.208655   -49.452213
 0.355000   2.961817   -49.577558
 0.360000   2.712880   -50.181193
 0.365000   2.460005   -51.131776
 0.370000   2.201562   -52.550910
 0.375000   1.934496   -54.578583
 0.380000   1.655776   -57.419437
 0.385000   1.360302   -60.722753
 0.390000   1.048549   -63.818733
 0.395000   0.722114   -66.517319
 0.400000   0.383376   -68.672361
 0.405000   0.035391   -70.158857
 0.410000   -0.318213   -70.984056
 0.415000   -0.674450   -72.063685
 0.420000   -1.038850   -74.487354
 0.425000   -1.419323   -78.596422
 0.430000   -1.824814   -84.536602
 0.435000   -2.264689   -92.428166
 0.440000   -2.749096   -102.838535
 0.445000   -3.293075   -114.114682
 0.450000   -3.890243   -124.454454
 0.455000   -4.537619   -133.773757
 0.460000   -5.227980   -141.246726
 0.465000   -5.950086   -146.069404
 0.470000   -6.688674   -146.609759
 0.475000   -7.416184   -141.595916
 0.480000   -8.104633   -131.964585
 0.485000   -8.735830   -118.955088
 0.490000   -9.294184   -103.538450
 0.495000   -9.771214   -86.597200
 0.500000   -10.160156   -69.369471
 0.505000   -10.464909   -54.032840
 0.510000   -10.700485   -41.387538
 0.515000   -10.878784   -31.211104
 0.520000   -11.012596   -23.306902
 0.525000   -11.111854   -17.404417
 0.530000   -11.186640   -13.755047
 0.535000   -11.249404   -11.637713
 0.540000   -11.303017   -9.802621
 0.545000   -11.347430   -7.907836
 0.550000   -11.382095   -5.847170
 0.555000   -11.405902   -3.376057
 0.560000   -11.415856   -0.301722
 0.565000   -11.408919   3.193918
 0.570000   -11.383917   7.029634
 0.575000   -11.338623   11.194747
 0.580000   -11.271969   15.421167
 0.585000   -11.184411   19.365342
 0.590000   -11.078316   22.906014
 0.595000   -10.955351   25.970820
 0.600000   -10.818608   28.305603
 0.605000   -10.672295   29.904874
 0.610000   -10.519559   30.894368
 0.615000   -10.363351   31.139118
 0.620000   -10.208168   30.879541
 0.625000   -10.054556   30.583169
 0.630000   -9.902336   30.314515
 0.635000   -9.751411   30.078684
 0.640000   -9.601549   29.966999
 0.645000   -9.451741   30.091496
 0.650000   -9.300634   30.349404
 0.655000   -9.148247   30.498085
 0.660000   -8.995653   30.545584
 0.665000   -8.842791   30.568664
 0.670000   -8.689967   30.541533
 0.675000   -8.537376   30.604199
 0.680000   -8.383925   30.967102
 0.685000   -8.227704   31.635663
 0.690000   -8.067568   32.468247
 0.695000   -7.903022   33.367237
 0.700000   -7.733896   34.364749
 0.705000   -7.559375   35.249330
 0.710000   -7.381402   35.505541
 0.715000   -7.204319   35.021413
 0.720000   -7.031188   33.855424
 0.725000   -6.865765   31.926308
 0.730000   -6.711925   29.214852
 0.735000   -6.573616   25.776734
 0.740000   -6.454158   21.830542
 0.745000   -6.355311   17.645945
 0.750000   -6.277698   13.435351
 0.755000   -6.220957   9.418217
 0.760000   -6.183516   5.753518
 0.765000   -6.163422   2.475376
 0.770000   -6.158762   -0.614414
 0.775000   -6.169566   -3.941114
 0.780000   -6.198174   -7.975231
 0.785000   -6.249319   -13.207701
 0.790000   -6.330251   -20.518041
 0.795000   -6.454499   -30.015745
 0.800000   -6.630408   -41.186241
 0.805000   -6.866362   -53.752476
 0.810000   -7.167933   -66.976864
 0.815000   -7.536130   -79.871306
 0.820000   -7.966646   -91.210735
 0.825000   -8.448238   -99.287210
 0.830000   -8.959518   -103.178014
 0.835000   -9.480018   -102.959330
 0.840000   -9.989111   -98.907424
 0.845000   -10.469092   -91.335771
 0.850000   -10.902469   -80.617175
 0.855000   -11.275264   -69.066788
 0.860000   -11.593137   -58.710728
 0.865000   -11.862371   -49.525490
 0.870000   -12.088392   -41.752154
 0.875000   -12.279892   -35.842075
 0.880000   -12.446813   -31.858407
 0.885000   -12.598477   -28.448130
 0.890000   -12.731294   -24.270648
 0.895000   -12.841183   -18.975201
 0.900000   -12.921046   -11.838167
 0.905000   -12.959565   -1.752447
 0.910000   -12.938570   13.154094
 0.915000   -12.828024   36.058257
 0.920000   -12.577988   67.445719
 0.925000   -12.153567   106.547160
 0.930000   -11.512516   154.513113
 0.935000   -10.608435   215.268754
 0.940000   -9.359829   276.426795
 0.945000   -7.844167   312.936337
 0.950000   -6.230465   305.384529
 0.955000   -4.790322   237.668773
 0.960000   -3.853778   113.293112
 0.965000   -3.657391   -26.748742
 0.970000   -4.121265   -103.250413
 0.975000   -4.689895   -40.977471
 0.980000   -4.531040   169.081235
 0.985000   -2.999083   437.145325
 0.990000   -0.159586   615.734153
 0.995000   3.158259   596.513415
 1.000000   5.805548   462.402224
201 psinorm omgvb(kRad/s) domgvb/dpsiN
 0.000000   68.563413   178.707704
 0.005000   69.261664   100.592892
 0.010000   69.569342   56.333418
 0.015000   69.824999   48.627845
 0.020000   70.055620   44.238281
 0.025000   70.267381   40.400835
 0.030000   70.459629   36.554502
 0.035000   70.632926   33.141607
 0.040000   70.791045   30.102405
 0.045000   70.933950   27.286001
 0.050000   71.063905   25.022368
 0.055000   71.184174   23.421401
 0.060000   71.298119   22.471516
 0.065000   71.408889   21.885388
 0.070000   71.516973   21.448542
 0.075000   71.623375   21.108128
 0.080000   71.728054   20.632913
 0.085000   71.829704   19.959209
 0.090000   71.927646   19.144390
 0.095000   72.021148   17.987957
 0.100000   72.107526   16.638759
 0.105000   72.187535   15.259467
 0.110000   72.260120   13.954319
 0.115000   72.327079   12.854844
 0.120000   72.388669   12.083136
 0.125000   72.447910   11.645694
 0.130000   72.505126   11.348722
 0.135000   72.561397   11.054132
 0.140000   72.615667   10.731208
 0.145000   72.668709   10.278717
 0.150000   72.718454   9.527353
 0.155000   72.763983   8.257052
 0.160000   72.801025   6.511388
 0.165000   72.829097   4.307310
 0.170000   72.844098   1.518798
 0.175000   72.844285   -1.825643
 0.180000   72.825841   -5.791542
 0.185000   72.786369   -9.946930
 0.190000   72.726372   -14.291308
 0.195000   72.643456   -18.631482
 0.200000   72.540057   -22.723818
 0.205000   72.416218   -26.675347
 0.210000   72.273304   -29.977158
 0.215000   72.116446   -32.705227
 0.220000   71.946251   -35.033738
 0.225000   71.766109   -36.959288
 0.230000   71.576659   -38.854182
 0.235000   71.377567   -40.578261
 0.240000   71.170876   -42.339138
 0.245000   70.954176   -44.254687
 0.250000   70.728329   -46.005078
 0.255000   70.494125   -47.711567
 0.260000   70.251213   -49.409835
 0.265000   70.000027   -51.106143
 0.270000   69.740152   -52.937124
 0.275000   69.470655   -54.761736
 0.280000   69.192535   -56.688343
 0.285000   68.903772   -58.911044
 0.290000   68.603424   -61.312056
 0.295000   68.290651   -64.082839
 0.300000   67.962596   -67.234093
 0.305000   67.618310   -70.465162
 0.310000   67.257944   -73.865626
 0.315000   66.879654   -77.520251
 0.320000   66.482742   -81.093460
 0.325000   66.068720   -84.451244
 0.330000   65.638229   -87.494842
 0.335000   65.193771   -89.927675
 0.340000   64.738952   -91.814120
 0.345000   64.275630   -93.318011
 0.350000   63.805772   -94.270121
 0.355000   63.332929   -95.128691
 0.360000   62.854485   -96.399785
 0.365000   62.368931   -97.946943
 0.370000   61.875016   -99.881019
 0.375000   61.370121   -102.319772
 0.380000   60.851818   -105.441080
 0.385000   60.315710   -108.899345
 0.390000   59.762825   -112.039799
 0.395000   59.195312   -114.673875
 0.400000   58.616086   -116.659520
 0.405000   58.028717   -117.834960
 0.410000   57.437736   -118.309191
 0.415000   56.845625   -119.273683
 0.420000   56.245000   -122.008848
 0.425000   55.625536   -126.952746
 0.430000   54.975472   -134.305375
 0.435000   54.282483   -144.382608
 0.440000   53.531646   -157.763842
 0.445000   52.704844   -172.388341
 0.450000   51.807763   -186.297740
 0.455000   50.841867   -199.447578
 0.460000   49.813287   -210.922694
 0.465000   48.732640   -220.036729
 0.470000   47.612920   -225.037554
 0.475000   46.482264   -223.999942
 0.480000   45.372920   -217.685973
 0.485000   44.305405   -207.466333
 0.490000   43.298257   -194.195134
 0.495000   42.363453   -178.689649
 0.500000   41.511360   -162.043136
 0.505000   40.743022   -146.375227
 0.510000   40.047608   -132.748253
 0.515000   39.415539   -121.161798
 0.520000   38.835990   -111.483757
 0.525000   38.300702   -103.462808
 0.530000   37.801362   -97.312638
 0.535000   37.327575   -92.491990
 0.540000   36.876442   -87.917537
 0.545000   36.448400   -83.233920
 0.550000   36.044103   -78.389631
 0.555000   35.664504   -73.169681
 0.560000   35.312406   -67.356253
 0.565000   34.990941   -61.338500
 0.570000   34.699021   -55.319189
 0.575000   34.437749   -49.204620
 0.580000   34.206975   -43.279105
 0.585000   34.004958   -37.896994
 0.590000   33.828005   -33.182190
 0.595000   33.673136   -29.136528
 0.600000   33.536640   -25.898276
 0.605000   33.414154   -23.425452
 0.610000   33.302385   -21.595514
 0.615000   33.198198   -20.554198
 0.620000   33.096843   -20.032940
 0.625000   32.997869   -19.607532
 0.630000   32.900768   -19.274690
 0.635000   32.805122   -19.014876
 0.640000   32.710619   -18.743693
 0.645000   32.617685   -18.357168
 0.650000   32.527047   -17.942510
 0.655000   32.438260   -17.825254
 0.660000   32.348795   -18.085838
 0.665000   32.257402   -18.634218
 0.670000   32.162453   -19.502627
 0.675000   32.062375   -20.558661
 0.680000   31.956866   -21.629562
 0.685000   31.846080   -22.567272
 0.690000   31.731193   -23.301672
 0.695000   31.613063   -23.928935
 0.700000   31.491904   -24.462224
 0.705000   31.368441   -25.139898
 0.710000   31.240505   -26.497124
 0.715000   31.103470   -28.632623
 0.720000   30.954179   -31.462014
 0.725000   30.788849   -35.055744
 0.730000   30.603621   -39.419908
 0.735000   30.394650   -44.481245
 0.740000   30.158809   -50.004756
 0.745000   29.894603   -55.715092
 0.750000   29.601658   -61.460054
 0.755000   29.280002   -67.163475
 0.760000   28.930023   -72.812151
 0.765000   28.551881   -78.467359
 0.770000   28.145350   -84.482672
 0.775000   27.707054   -91.224534
 0.780000   27.233104   -98.567405
 0.785000   26.721380   -106.665555
 0.790000   26.166449   -116.414673
 0.795000   25.557233   -127.814420
 0.800000   24.888305   -140.360347
 0.805000   24.153630   -153.960500
 0.810000   23.348700   -167.856930
 0.815000   22.475061   -181.019272
 0.820000   21.538507   -192.266092
 0.825000   20.552400   -199.759155
 0.830000   19.540915   -202.538611
 0.835000   18.527013   -200.750494
 0.840000   17.533410   -194.307575
 0.845000   16.583938   -183.626126
 0.850000   15.697149   -169.734216
 0.855000   14.886596   -155.254851
 0.860000   14.144601   -142.661589
 0.865000   13.459980   -132.935066
 0.870000   12.815250   -126.669125
 0.875000   12.193288   -125.221993
 0.880000   11.563030   -130.916716
 0.885000   10.884121   -144.414722
 0.890000   10.118883   -166.256674
 0.895000   9.221555   -198.087127
 0.900000   8.138012   -238.348918
 0.905000   6.838065   -283.119699
 0.910000   5.306815   -327.077549
 0.915000   3.567290   -360.956764
 0.920000   1.697247   -376.889667
 0.925000   -0.201607   -367.911401
 0.930000   -1.981867   -325.792060
 0.935000   -3.459527   -243.054243
 0.940000   -4.412410   -133.185022
 0.945000   -4.791378   -26.049460
 0.950000   -4.672904   50.811032
 0.955000   -4.283267   71.901686
 0.960000   -3.953887   30.333617
 0.965000   -3.979931   -40.672321
 0.970000   -4.360610   -64.859592
 0.975000   -4.628527   32.355609
 0.980000   -4.037054   261.330525
 0.985000   -2.015222   534.379251
 0.990000   1.306738   707.538770
 0.995000   5.060166   676.495255
 1.000000   8.071691   528.114663
201 psinorm omgpp(kRad/s) domgpp/dpsiN
 0.000000   -0.061475   -30.671078
 0.005000   -0.246966   -43.525420
 0.010000   -0.496729   -50.202924
 0.015000   -0.748996   -50.642921
 0.020000   -1.003159   -50.948966
 0.025000   -1.258485   -51.102177
 0.030000   -1.514180   -51.111455
 0.035000   -1.769600   -50.980061
 0.040000   -2.023981   -50.702202
 0.045000   -2.276622   -50.288426
 0.050000   -2.526865   -49.728658
 0.055000   -2.773908   -49.017451
 0.060000   -3.017040   -48.229609
 0.065000   -3.256205   -47.353872
 0.070000   -3.490578   -46.351551
 0.075000   -3.719720   -45.266412
 0.080000   -3.943243   -44.099069
 0.085000   -4.160711   -42.891256
 0.090000   -4.372155   -41.801172
 0.095000   -4.578722   -40.805887
 0.100000   -4.780214   -39.797773
 0.105000   -4.976700   -38.785848
 0.110000   -5.168072   -37.750177
 0.115000   -5.354202   -36.789213
 0.120000   -5.535965   -35.584167
 0.125000   -5.710044   -34.117140
 0.130000   -5.877136   -32.672098
 0.135000   -6.036765   -31.132974
 0.140000   -6.188466   -29.512698
 0.145000   -6.331892   -27.985760
 0.150000   -6.468323   -26.110259
 0.155000   -6.592994   -23.890033
 0.160000   -6.707224   -21.723218
 0.165000   -6.810226   -19.397747
 0.170000   -6.901201   -16.908753
 0.175000   -6.979314   -14.042464
 0.180000   -7.041626   -10.950504
 0.185000   -7.088819   -8.006419
 0.190000   -7.121690   -5.250954
 0.195000   -7.141328   -2.748543
 0.200000   -7.149175   -0.565188
 0.205000   -7.146980   1.370778
 0.210000   -7.135468   2.356199
 0.215000   -7.123418   2.483969
 0.220000   -7.110628   2.585744
 0.225000   -7.097561   2.624439
 0.230000   -7.084384   2.701665
 0.235000   -7.070544   2.338402
 0.240000   -7.061000   2.777190
 0.245000   -7.042772   4.682836
 0.250000   -7.014171   6.685652
 0.255000   -6.975916   8.754590
 0.260000   -6.926625   11.083416
 0.265000   -6.865082   13.440371
 0.270000   -6.792222   16.360568
 0.275000   -6.701476   19.731716
 0.280000   -6.594904   22.696390
 0.285000   -6.474512   25.412674
 0.290000   -6.340778   27.993040
 0.295000   -6.194582   30.740479
 0.300000   -6.033373   33.050238
 0.305000   -5.864079   33.686848
 0.310000   -5.696504   33.361324
 0.315000   -5.530466   32.839765
 0.320000   -5.368107   31.937305
 0.325000   -5.211093   30.728825
 0.330000   -5.060818   28.999209
 0.335000   -4.921101   27.129808
 0.340000   -4.789520   25.679279
 0.345000   -4.664308   24.509172
 0.350000   -4.544429   23.565392
 0.355000   -4.428654   22.657684
 0.360000   -4.317852   21.792317
 0.365000   -4.210731   22.048804
 0.370000   -4.097364   23.066914
 0.375000   -3.980062   24.021496
 0.380000   -3.857149   25.235251
 0.385000   -3.727709   26.607206
 0.390000   -3.591077   28.373858
 0.395000   -3.443971   29.750051
 0.400000   -3.293576   30.286333
 0.405000   -3.141108   30.494728
 0.410000   -2.988629   30.255281
 0.415000   -2.838555   29.594567
 0.420000   -2.692683   28.873675
 0.425000   -2.549818   26.734307
 0.430000   -2.425340   23.919286
 0.435000   -2.310625   22.000307
 0.440000   -2.205337   20.143491
 0.445000   -2.109190   18.334232
 0.450000   -2.021995   16.615393
 0.455000   -1.943036   14.556014
 0.460000   -1.876435   12.428693
 0.465000   -1.818749   10.648442
 0.470000   -1.769950   8.892282
 0.475000   -1.729826   7.202837
 0.480000   -1.697922   5.427922
 0.485000   -1.675547   4.501635
 0.490000   -1.652906   4.392112
 0.495000   -1.631626   4.068483
 0.500000   -1.612221   3.655567
 0.505000   -1.595070   3.156616
 0.510000   -1.580655   2.691037
 0.515000   -1.568160   2.173714
 0.520000   -1.558917   1.516546
 0.525000   -1.552995   0.895790
 0.530000   -1.549960   0.340392
 0.535000   -1.549591   -0.173195
 0.540000   -1.551692   -0.415615
 0.545000   -1.553747   -0.784010
 0.550000   -1.559532   -1.533845
 0.555000   -1.569085   -2.208523
 0.560000   -1.581617   -2.828480
 0.565000   -1.597370   -3.501257
 0.570000   -1.616629   -4.145760
 0.575000   -1.638828   -4.962831
 0.580000   -1.666258   -5.941948
 0.585000   -1.698247   -6.730073
 0.590000   -1.733558   -7.345118
 0.595000   -1.771698   -7.859493
 0.600000   -1.812153   -8.309897
 0.605000   -1.854797   -8.724459
 0.610000   -1.899398   -9.045983
 0.615000   -1.945257   -9.308995
 0.620000   -1.992488   -9.568838
 0.625000   -2.040946   -9.795354
 0.630000   -2.090441   -10.063620
 0.635000   -2.141582   -10.332021
 0.640000   -2.193762   -10.302444
 0.645000   -2.244606   -10.142538
 0.650000   -2.295187   -10.107011
 0.655000   -2.345676   -10.107980
 0.660000   -2.396267   -10.250884
 0.665000   -2.448185   -10.903243
 0.670000   -2.505299   -12.134536
 0.675000   -2.569531   -14.168489
 0.680000   -2.646984   -16.945257
 0.685000   -2.738983   -19.847220
 0.690000   -2.845456   -23.006949
 0.695000   -2.969053   -27.275010
 0.700000   -3.118206   -28.481774
 0.705000   -3.253870   -27.009436
 0.710000   -3.388301   -26.351835
 0.715000   -3.517389   -24.798567
 0.720000   -3.636286   -22.362116
 0.725000   -3.741010   -19.488596
 0.730000   -3.831172   -13.173221
 0.735000   -3.872742   -4.931718
 0.740000   -3.880490   1.998956
 0.745000   -3.852752   9.086860
 0.750000   -3.789621   15.952069
 0.755000   -3.693232   23.848104
 0.760000   -3.551140   29.450483
 0.765000   -3.398727   31.574649
 0.770000   -3.235394   33.092666
 0.775000   -3.067800   33.334782
 0.780000   -2.902046   32.452859
 0.785000   -2.743272   31.750653
 0.790000   -2.584539   28.734534
 0.795000   -2.455926   23.817942
 0.800000   -2.346360   20.084674
 0.805000   -2.255080   16.453118
 0.810000   -2.181829   12.962193
 0.815000   -2.125458   9.472152
 0.820000   -2.087107   6.703934
 0.825000   -2.058418   5.010220
 0.830000   -2.037005   3.557694
 0.835000   -2.022841   2.118774
 0.840000   -2.015817   0.621749
 0.845000   -2.016624   -2.055952
 0.850000   -2.036377   -5.313714
 0.855000   -2.069761   -7.834898
 0.860000   -2.114726   -10.497879
 0.865000   -2.174740   -13.550808
 0.870000   -2.250234   -16.725660
 0.875000   -2.341996   -21.483404
 0.880000   -2.465068   -26.537003
 0.885000   -2.607367   -29.886551
 0.890000   -2.763933   -34.461881
 0.895000   -2.951985   -41.709563
 0.900000   -3.181029   -51.058336
 0.905000   -3.462569   -65.301992
 0.910000   -3.834049   -84.595369
 0.915000   -4.308522   -104.633205
 0.920000   -4.880381   -129.917814
 0.925000   -5.607700   -165.223228
 0.930000   -6.532613   -209.393438
 0.935000   -7.701635   -268.670783
 0.940000   -9.219321   -341.871714
 0.945000   -11.120352   -398.292552
 0.950000   -13.202246   -431.902043
 0.955000   -15.439372   -445.140684
 0.960000   -17.653653   -414.640890
 0.965000   -19.585781   -333.288856
 0.970000   -20.986542   -198.031620
 0.975000   -21.566098   -7.129466
 0.980000   -21.057837   179.723015
 0.985000   -19.768867   306.544511
 0.990000   -17.992391   373.337474
 0.995000   -16.035493   387.011190
 1.000000   -14.122279   378.274075
201 psinorm omgeb(kRad/s) domgeb/dpsiN
 0.000000   68.501938   148.036626
 0.005000   69.014698   57.067472
 0.010000   69.072612   6.130494
 0.015000   69.076003   -2.015076
 0.020000   69.052462   -6.710685
 0.025000   69.008896   -10.701342
 0.030000   68.945448   -14.556954
 0.035000   68.863327   -17.838455
 0.040000   68.767064   -20.599797
 0.045000   68.657329   -23.002425
 0.050000   68.537040   -24.706290
 0.055000   68.410266   -25.596050
 0.060000   68.281079   -25.758093
 0.065000   68.152685   -25.468483
 0.070000   68.026394   -24.903009
 0.075000   67.903655   -24.158284
 0.080000   67.784811   -23.466156
 0.085000   67.668993   -22.932047
 0.090000   67.555491   -22.656782
 0.095000   67.442425   -22.817930
 0.100000   67.327312   -23.159014
 0.105000   67.210835   -23.526381
 0.110000   67.092048   -23.795858
 0.115000   66.972877   -23.934370
 0.120000   66.852704   -23.501032
 0.125000   66.737866   -22.471446
 0.130000   66.627990   -21.323376
 0.135000   66.524632   -20.078842
 0.140000   66.427201   -18.781491
 0.145000   66.336818   -17.707043
 0.150000   66.250131   -16.582906
 0.155000   66.170989   -15.632981
 0.160000   66.093801   -15.211830
 0.165000   66.018870   -15.090437
 0.170000   65.942897   -15.389955
 0.175000   65.864971   -15.868107
 0.180000   65.784215   -16.742046
 0.185000   65.697550   -17.953349
 0.190000   65.604682   -19.542262
 0.195000   65.502128   -21.380025
 0.200000   65.390882   -23.289006
 0.205000   65.269238   -25.304569
 0.210000   65.137836   -27.620959
 0.215000   64.993028   -30.221258
 0.220000   64.835623   -32.447994
 0.225000   64.668548   -34.334849
 0.230000   64.492275   -36.152517
 0.235000   64.307023   -38.239860
 0.240000   64.109876   -39.561948
 0.245000   63.911403   -39.571852
 0.250000   63.714158   -39.319426
 0.255000   63.518209   -38.956978
 0.260000   63.324588   -38.326419
 0.265000   63.134945   -37.665773
 0.270000   62.947930   -36.576556
 0.275000   62.769179   -35.030021
 0.280000   62.597630   -33.991953
 0.285000   62.429260   -33.498370
 0.290000   62.262646   -33.319016
 0.295000   62.096070   -33.342359
 0.300000   61.929223   -34.183855
 0.305000   61.754231   -36.778314
 0.310000   61.561440   -40.504301
 0.315000   61.349188   -44.680486
 0.320000   61.114635   -49.156155
 0.325000   60.857627   -53.722419
 0.330000   60.577411   -58.495633
 0.335000   60.272670   -62.797867
 0.340000   59.949432   -66.134841
 0.345000   59.611322   -68.808839
 0.350000   59.261344   -70.704730
 0.355000   58.904274   -72.471007
 0.360000   58.536634   -74.607467
 0.365000   58.158200   -75.898139
 0.370000   57.777652   -76.814105
 0.375000   57.390059   -78.298276
 0.380000   56.994669   -80.205830
 0.385000   56.588000   -82.292139
 0.390000   56.171748   -83.665942
 0.395000   55.751341   -84.923824
 0.400000   55.322510   -86.373187
 0.405000   54.887609   -87.340232
 0.410000   54.449107   -88.053909
 0.415000   54.007070   -89.679116
 0.420000   53.552316   -93.135173
 0.425000   53.075718   -100.218439
 0.430000   52.550132   -110.386089
 0.435000   51.971857   -122.382301
 0.440000   51.326309   -137.620351
 0.445000   50.595654   -154.054109
 0.450000   49.785768   -169.682347
 0.455000   48.898830   -184.891564
 0.460000   47.936852   -198.494001
 0.465000   46.913890   -209.388287
 0.470000   45.842969   -216.145272
 0.475000   44.752438   -216.797104
 0.480000   43.674998   -212.258051
 0.485000   42.629857   -202.964698
 0.490000   41.645351   -189.803022
 0.495000   40.731827   -174.621166
 0.500000   39.899140   -158.387569
 0.505000   39.147951   -143.218611
 0.510000   38.466953   -130.057216
 0.515000   37.847379   -118.988084
 0.520000   37.277073   -109.967211
 0.525000   36.747707   -102.567018
 0.530000   36.251402   -96.972247
 0.535000   35.777985   -92.665184
 0.540000   35.324751   -88.333152
 0.545000   34.894653   -84.017930
 0.550000   34.484571   -79.923476
 0.555000   34.095418   -75.378204
 0.560000   33.730789   -70.184732
 0.565000   33.393571   -64.839756
 0.570000   33.082392   -59.464949
 0.575000   32.798922   -54.167451
 0.580000   32.540717   -49.221053
 0.585000   32.306711   -44.627068
 0.590000   32.094447   -40.527308
 0.595000   31.901438   -36.996021
 0.600000   31.724486   -34.208172
 0.605000   31.559356   -32.149912
 0.610000   31.402987   -30.641497
 0.615000   31.252941   -29.863194
 0.620000   31.104355   -29.601778
 0.625000   30.956923   -29.402886
 0.630000   30.810326   -29.338309
 0.635000   30.663540   -29.346897
 0.640000   30.516857   -29.046138
 0.645000   30.373079   -28.499705
 0.650000   30.231860   -28.049521
 0.655000   30.092584   -27.933234
 0.660000   29.952528   -28.336722
 0.665000   29.809217   -29.537461
 0.670000   29.657153   -31.637163
 0.675000   29.492845   -34.727150
 0.680000   29.309882   -38.574819
 0.685000   29.107097   -42.414493
 0.690000   28.885737   -46.308621
 0.695000   28.644010   -51.203946
 0.700000   28.373698   -52.943998
 0.705000   28.114571   -52.149334
 0.710000   27.852204   -52.848959
 0.715000   27.586081   -53.431190
 0.720000   27.317892   -53.824130
 0.725000   27.047840   -54.544340
 0.730000   26.772449   -52.593129
 0.735000   26.521908   -49.412963
 0.740000   26.278319   -48.005800
 0.745000   26.041850   -46.628232
 0.750000   25.812037   -45.507985
 0.755000   25.586770   -43.315372
 0.760000   25.378883   -43.361669
 0.765000   25.153154   -46.892710
 0.770000   24.909956   -51.390006
 0.775000   24.639254   -57.889752
 0.780000   24.331059   -66.114546
 0.785000   23.978108   -74.914903
 0.790000   23.581910   -87.680139
 0.795000   23.101307   -103.996478
 0.800000   22.541945   -120.275673
 0.805000   21.898550   -137.507382
 0.810000   21.166871   -154.894737
 0.815000   20.349603   -171.547120
 0.820000   19.451400   -185.562158
 0.825000   18.493981   -194.748935
 0.830000   17.503910   -198.980917
 0.835000   16.504172   -198.631720
 0.840000   15.517593   -193.685826
 0.845000   14.567314   -185.682078
 0.850000   13.660772   -175.047930
 0.855000   12.816834   -163.089748
 0.860000   12.029875   -153.159468
 0.865000   11.285240   -146.485873
 0.870000   10.565016   -143.394785
 0.875000   9.851292   -146.705397
 0.880000   9.097962   -157.453719
 0.885000   8.276755   -174.301272
 0.890000   7.354950   -200.718554
 0.895000   6.269569   -239.796690
 0.900000   4.956983   -289.407254
 0.905000   3.375497   -348.421690
 0.910000   1.472766   -411.672917
 0.915000   -0.741233   -465.589969
 0.920000   -3.183134   -506.807481
 0.925000   -5.809307   -533.134629
 0.930000   -8.514480   -535.185498
 0.935000   -11.161162   -511.725026
 0.940000   -13.631730   -475.056736
 0.945000   -15.911730   -424.342012
 0.950000   -17.875151   -381.091011
 0.955000   -19.722640   -373.238998
 0.960000   -21.607541   -384.307273
 0.965000   -23.565712   -373.961177
 0.970000   -25.347152   -262.891212
 0.975000   -26.194625   25.226143
 0.980000   -25.094891   441.053541
 0.985000   -21.784089   840.923763
 0.990000   -16.685653   1080.876244
 0.995000   -10.975327   1063.506446
 1.000000   -6.050589   906.388738
201 psinorm er(kV/m) der/dpsiN
 0.000000   0.672801   1301.735231
 0.005000   5.846892   767.901239
 0.010000   8.351813   441.711082
 0.015000   10.264003   353.183123
 0.020000   11.883645   304.747665
 0.025000   13.311480   270.709376
 0.030000   14.590738   244.395739
 0.035000   15.755437   223.727645
 0.040000   16.828015   207.134149
 0.045000   17.826778   193.326005
 0.050000   18.761275   181.354386
 0.055000   19.640322   172.700614
 0.060000   20.488281   164.255596
 0.065000   21.282878   153.749110
 0.070000   22.025772   148.075145
 0.075000   22.763630   144.016069
 0.080000   23.465933   134.618513
 0.085000   24.109815   131.153847
 0.090000   24.777471   127.142633
 0.095000   25.381241   121.118392
 0.100000   25.988655   117.950546
 0.105000   26.560747   111.835643
 0.110000   27.107012   109.371230
 0.115000   27.654459   104.450515
 0.120000   28.151517   101.939672
 0.125000   28.673856   98.689124
 0.130000   29.138408   96.007856
 0.135000   29.633934   94.113818
 0.140000   30.079546   90.949960
 0.145000   30.543434   90.202996
 0.150000   30.981576   86.363762
 0.155000   31.407071   86.308237
 0.160000   31.844658   81.939645
 0.165000   32.226468   82.198638
 0.170000   32.666645   77.230281
 0.175000   32.998771   74.961312
 0.180000   33.416258   75.522297
 0.185000   33.753994   69.155411
 0.190000   34.107812   70.736357
 0.195000   34.461357   63.533294
 0.200000   34.743145   62.698792
 0.205000   35.088345   60.142381
 0.210000   35.344569   54.147411
 0.215000   35.629819   56.490481
 0.220000   35.909474   48.172744
 0.225000   36.111547   46.743070
 0.230000   36.376904   46.792728
 0.235000   36.579474   39.433506
 0.240000   36.771239   41.969996
 0.245000   36.999174   36.639726
 0.250000   37.137637   33.709024
 0.255000   37.336264   39.176212
 0.260000   37.529399   31.751946
 0.265000   37.653784   31.403563
 0.270000   37.843434   35.397524
 0.275000   38.007759   29.468778
 0.280000   38.138122   30.958807
 0.285000   38.317347   32.111710
 0.290000   38.459239   26.720764
 0.295000   38.584555   28.474361
 0.300000   38.743983   27.196572
 0.305000   38.856520   21.115715
 0.310000   38.955140   20.916084
 0.315000   39.065681   16.682676
 0.320000   39.121967   9.943177
 0.325000   39.165113   8.997643
 0.330000   39.211943   4.262690
 0.335000   39.207740   -2.193697
 0.340000   39.190006   -2.862626
 0.345000   39.179114   -5.779141
 0.350000   39.132215   -10.678480
 0.355000   39.072329   -10.974116
 0.360000   39.022474   -12.740737
 0.365000   38.944921   -17.310744
 0.370000   38.849366   -17.740640
 0.375000   38.767515   -18.218688
 0.380000   38.667179   -23.227468
 0.385000   38.535240   -25.119780
 0.390000   38.415982   -24.756848
 0.395000   38.287672   -29.291441
 0.400000   38.123067   -31.400066
 0.405000   37.973671   -30.410770
 0.410000   37.818959   -33.874247
 0.415000   37.634929   -36.640958
 0.420000   37.452550   -38.011665
 0.425000   37.254812   -44.526815
 0.430000   37.007282   -53.747172
 0.435000   36.717340   -62.328063
 0.440000   36.384001   -73.522238
 0.445000   35.982118   -87.540408
 0.450000   35.508597   -99.656894
 0.455000   34.985549   -110.388403
 0.460000   34.404713   -122.547064
 0.465000   33.760078   -131.936087
 0.470000   33.085352   -136.763275
 0.475000   32.392446   -138.810174
 0.480000   31.697250   -137.416778
 0.485000   31.018278   -131.308834
 0.490000   30.384162   -122.199868
 0.495000   29.796279   -112.980221
 0.500000   29.254360   -102.019540
 0.505000   28.776084   -90.743382
 0.510000   28.346926   -82.376200
 0.515000   27.952322   -75.326126
 0.520000   27.593665   -68.655392
 0.525000   27.265768   -63.552632
 0.530000   26.958138   -60.667481
 0.535000   26.659093   -57.912859
 0.540000   26.379010   -54.415997
 0.545000   26.114933   -52.243798
 0.550000   25.856572   -49.947240
 0.555000   25.615461   -46.328514
 0.560000   25.393287   -42.705895
 0.565000   25.188402   -39.699262
 0.570000   24.996294   -35.905807
 0.575000   24.829344   -31.536180
 0.580000   24.680932   -28.611769
 0.585000   24.543226   -25.734211
 0.590000   24.423590   -22.316279
 0.595000   24.320063   -19.688769
 0.600000   24.226703   -18.480332
 0.605000   24.135260   -17.087283
 0.610000   24.055830   -15.421760
 0.615000   23.981042   -15.442314
 0.620000   23.901407   -15.859195
 0.625000   23.822450   -15.444310
 0.630000   23.746963   -15.167628
 0.635000   23.670774   -16.170206
 0.640000   23.585261   -16.184539
 0.645000   23.508929   -15.083144
 0.650000   23.434430   -15.145144
 0.655000   23.357477   -15.804062
 0.660000   23.276389   -15.993298
 0.665000   23.197544   -16.464457
 0.670000   23.111745   -18.918503
 0.675000   23.008359   -21.747761
 0.680000   22.894267   -24.202951
 0.685000   22.766330   -27.206878
 0.690000   22.622198   -31.265180
 0.695000   22.453678   -35.188114
 0.700000   22.270317   -35.808974
 0.705000   22.095588   -35.757556
 0.710000   21.912742   -37.102980
 0.715000   21.724558   -37.253283
 0.720000   21.540209   -37.040415
 0.725000   21.354154   -38.662757
 0.730000   21.153581   -37.539209
 0.735000   20.978762   -34.214199
 0.740000   20.811439   -33.073298
 0.745000   20.648029   -33.152937
 0.750000   20.479910   -32.282882
 0.755000   20.325200   -29.616429
 0.760000   20.183746   -30.179395
 0.765000   20.023406   -33.732070
 0.770000   19.846425   -37.041122
 0.775000   19.652995   -41.741650
 0.780000   19.429008   -49.003263
 0.785000   19.162962   -56.455939
 0.790000   18.864449   -66.287036
 0.795000   18.500092   -79.274655
 0.800000   18.071703   -93.154829
 0.805000   17.568544   -107.254039
 0.810000   16.999162   -120.839659
 0.815000   16.360147   -134.557845
 0.820000   15.653584   -146.640302
 0.825000   14.893744   -154.283953
 0.830000   14.110744   -157.526676
 0.835000   13.318477   -157.765615
 0.840000   12.533088   -154.502150
 0.845000   11.773456   -148.207007
 0.850000   11.051018   -139.532918
 0.855000   10.378127   -130.418528
 0.860000   9.746833   -122.953396
 0.865000   9.148593   -117.569965
 0.870000   8.571133   -115.028355
 0.875000   7.998309   -118.284315
 0.880000   7.388290   -127.458295
 0.885000   6.723726   -141.069354
 0.890000   5.977596   -162.570174
 0.895000   5.098025   -194.568170
 0.900000   4.031915   -235.016925
 0.905000   2.747855   -283.018660
 0.910000   1.201728   -334.813828
 0.915000   -0.600283   -379.160049
 0.920000   -2.589872   -412.923526
 0.925000   -4.729518   -434.964849
 0.930000   -6.939521   -441.194173
 0.935000   -9.141460   -429.173516
 0.940000   -11.231256   -398.711314
 0.945000   -13.128573   -352.962868
 0.950000   -14.760885   -336.937644
 0.955000   -16.497950   -349.130376
 0.960000   -18.252189   -344.286139
 0.965000   -19.940811   -323.050312
 0.970000   -21.482692   -248.201868
 0.975000   -22.422830   -11.074730
 0.980000   -21.593439   365.580653
 0.985000   -18.767023   719.696926
 0.990000   -14.396470   929.332272
 0.995000   -9.473700   916.120187
 1.000000   -5.235268   779.252804
201 psinorm ommvb() dommvb/dpsiN
 0.000000   38.972074   22799.829206
 0.005000   125.565889   11837.696840
 0.010000   157.349043   6939.633718
 0.015000   194.962227   7179.187587
 0.020000   229.140919   6083.537070
 0.025000   255.797597   4861.862082
 0.030000   277.759539   4152.331178
 0.035000   297.320909   3954.236702
 0.040000   317.301906   3774.338150
 0.045000   335.064291   3508.121772
 0.050000   352.383124   3358.411956
 0.055000   368.648410   2973.998553
 0.060000   382.123110   2572.695264
 0.065000   394.375363   2371.211238
 0.070000   405.835222   2097.355037
 0.075000   415.348913   1824.686983
 0.080000   424.082092   1671.684175
 0.085000   432.065755   1487.916652
 0.090000   438.961258   1291.148597
 0.095000   444.977241   1123.427430
 0.100000   450.195533   946.995685
 0.105000   454.447198   772.360082
 0.110000   457.919134   594.516840
 0.115000   460.392366   424.016048
 0.120000   462.159294   280.172204
 0.125000   463.194088   122.621416
 0.130000   463.385508   -18.001664
 0.135000   463.014072   -125.973897
 0.140000   462.125769   -233.931162
 0.145000   460.674760   -371.665424
 0.150000   458.409115   -510.693979
 0.155000   455.567820   -620.409602
 0.160000   452.205019   -719.832274
 0.165000   448.369497   -809.716253
 0.170000   444.107856   -892.889121
 0.175000   439.440606   -993.162280
 0.180000   434.176234   -1286.985723
 0.185000   426.570749   -1329.334474
 0.190000   420.882889   -1156.824390
 0.195000   415.002505   -1193.379667
 0.200000   408.949092   -1222.731601
 0.205000   402.775189   -1247.639155
 0.210000   396.472701   -1268.475748
 0.215000   390.090432   -1279.180567
 0.220000   383.680895   -1447.080098
 0.225000   375.619631   -1456.887988
 0.230000   369.112015   -1274.493296
 0.235000   362.874698   -1244.628426
 0.240000   356.665731   -1234.058401
 0.245000   350.534114   -1213.886847
 0.250000   344.526862   -1361.664641
 0.255000   336.917467   -1392.157138
 0.260000   330.605291   -1168.705815
 0.265000   325.230409   -1057.665697
 0.270000   320.028634   -1022.033756
 0.275000   315.010071   -1076.553403
 0.280000   309.263100   -1165.964334
 0.285000   303.350428   -1017.742183
 0.290000   299.085678   -834.935623
 0.295000   295.001072   -799.512681
 0.300000   291.090551   -869.221888
 0.305000   286.308853   -912.534950
 0.310000   281.965202   -748.994385
 0.315000   278.818909   -614.078233
 0.320000   275.824420   -581.798635
 0.325000   273.000923   -680.407880
 0.330000   269.020341   -631.747604
 0.335000   266.683447   -442.348219
 0.340000   264.596859   -408.415645
 0.345000   262.599290   -443.583650
 0.350000   260.161022   -464.491546
 0.355000   257.954375   -356.061739
 0.360000   256.600405   -259.814066
 0.365000   255.356234   -249.344229
 0.370000   254.106962   -297.711470
 0.375000   252.379120   -244.347427
 0.380000   251.663488   -136.056637
 0.385000   251.018553   -122.403217
 0.390000   250.439456   -198.146540
 0.395000   249.037088   -168.368331
 0.400000   248.755773   -42.676999
 0.405000   248.610318   -22.585356
 0.410000   248.529919   -53.803853
 0.415000   248.072279   -57.014912
 0.420000   247.959770   -9.885187
 0.425000   247.973427   -2.737556
 0.430000   247.932394   -51.408392
 0.435000   247.459343   -87.654417
 0.440000   247.055850   -67.031042
 0.445000   246.789033   -61.303785
 0.450000   246.442812   -103.362644
 0.455000   245.755407   -138.888759
 0.460000   245.053925   -122.333406
 0.465000   244.532073   -110.683210
 0.470000   243.947093   -139.696832
 0.475000   243.135104   -167.504702
 0.480000   242.272046   -126.899222
 0.485000   241.866112   -70.624800
 0.490000   241.565798   -57.382076
 0.495000   241.292291   -60.653631
 0.500000   240.959261   -8.895757
 0.505000   241.203334   60.465446
 0.510000   241.563916   81.316746
 0.515000   242.016501   62.538801
 0.520000   242.189304   77.285092
 0.525000   242.789352   129.630514
 0.530000   243.485609   147.295732
 0.535000   244.262309   133.975691
 0.540000   244.825366   151.909937
 0.545000   245.781409   199.666561
 0.550000   246.822031   210.300256
 0.555000   247.884411   199.937330
 0.560000   248.821405   200.309607
 0.565000   249.887507   238.486986
 0.570000   251.206275   269.635968
 0.575000   252.583867   277.185749
 0.580000   253.978132   268.860900
 0.585000   255.272476   291.021144
 0.590000   256.888344   332.458086
 0.595000   258.597057   352.248503
 0.600000   260.410829   375.866562
 0.605000   262.355722   400.380622
 0.610000   264.414635   427.148377
 0.615000   266.627206   454.380055
 0.620000   268.958435   479.518203
 0.625000   271.422388   511.254161
 0.630000   274.070977   544.536938
 0.635000   276.867758   573.234180
 0.640000   279.803319   601.808315
 0.645000   282.885841   632.828915
 0.650000   286.131608   683.369433
 0.655000   289.719535   719.641410
 0.660000   293.328022   737.662281
 0.665000   297.096158   769.824371
 0.670000   301.026266   802.382004
 0.675000   305.119978   860.154945
 0.680000   309.627815   896.974685
 0.685000   314.089725   913.028071
 0.690000   318.758096   955.041289
 0.695000   323.640138   996.981003
 0.700000   328.727906   1060.095254
 0.705000   334.241090   1121.363844
 0.710000   339.941544   1149.851151
 0.715000   345.739602   1184.628006
 0.720000   351.787824   1235.191014
 0.725000   358.091512   1284.821819
 0.730000   364.636043   1354.891535
 0.735000   371.640427   1413.572086
 0.740000   378.771763   1446.873730
 0.745000   386.109165   1498.267918
 0.750000   393.754443   1560.543534
 0.755000   401.714600   1623.199183
 0.760000   409.986434   1682.848178
 0.765000   418.543082   1732.738175
 0.770000   427.313816   1784.401711
 0.775000   436.387099   1848.068109
 0.780000   445.794497   1919.942968
 0.785000   455.586528   2001.180025
 0.790000   465.806298   2085.362118
 0.795000   476.440150   2173.681197
 0.800000   487.543110   2248.109043
 0.805000   498.921240   2339.108272
 0.810000   510.934192   2456.507991
 0.815000   523.486320   2570.307446
 0.820000   536.637267   2700.511611
 0.825000   550.491436   2849.553249
 0.830000   565.132799   3015.868319
 0.835000   580.650119   3202.046508
 0.840000   597.153264   3412.263315
 0.845000   614.772752   3624.030840
 0.850000   633.393573   3828.350055
 0.855000   653.056253   4090.816923
 0.860000   674.301742   4378.988682
 0.865000   696.846140   4653.369480
 0.870000   720.835437   5004.445878
 0.875000   746.890599   5448.893709
 0.880000   775.324374   5915.314052
 0.885000   806.043739   6358.037570
 0.890000   838.904749   6766.515415
 0.895000   873.708893   7120.745029
 0.900000   910.112200   7402.093687
 0.905000   947.729830   7604.651099
 0.910000   986.158711   7760.482423
 0.915000   1025.334654   7911.926511
 0.920000   1065.277976   8059.435056
 0.925000   1105.929005   8455.237403
 0.930000   1149.830350   9863.274264
 0.935000   1204.561748   13452.291330
 0.940000   1284.353263   20722.633557
 0.945000   1411.788083   33220.139554
 0.950000   1616.554659   51420.450203
 0.955000   1925.992585   72773.935233
 0.960000   2344.294011   91777.860027
 0.965000   2843.771185   100255.110335
 0.970000   3346.845114   91759.376101
 0.975000   3761.364946   63132.425214
 0.980000   3978.169367   31183.897547
 0.985000   4073.203922   18222.386001
 0.990000   4160.393227   52383.722508
 0.995000   4597.041147   536821.400268
 1.000000   9528.607229   1435805.032638
201 psinorm ommpp() dommpp/dpsiN
 0.000000   29.529863   -22651.792579
 0.005000   -56.551191   -11780.629368
 0.010000   -88.276430   -6933.503224
 0.015000   -125.886224   -7181.202662
 0.020000   -160.088457   -6090.247755
 0.025000   -186.788701   -4872.563423
 0.030000   -208.814091   -4166.888131
 0.035000   -228.457583   -3972.075156
 0.040000   -248.534843   -3794.937947
 0.045000   -266.406962   -3531.124197
 0.050000   -283.846085   -3383.118246
 0.055000   -300.238144   -2999.594603
 0.060000   -313.842031   -2598.453357
 0.065000   -326.222678   -2396.679721
 0.070000   -337.808828   -2122.258046
 0.075000   -347.445258   -1848.845267
 0.080000   -356.297281   -1695.150332
 0.085000   -364.396762   -1510.848700
 0.090000   -371.405768   -1313.805379
 0.095000   -377.534816   -1146.245360
 0.100000   -382.868221   -970.154699
 0.105000   -387.236363   -795.886464
 0.110000   -390.827086   -618.312698
 0.115000   -393.419490   -447.950418
 0.120000   -395.306590   -303.673236
 0.125000   -396.456222   -145.092861
 0.130000   -396.757519   -3.321712
 0.135000   -396.489439   105.895055
 0.140000   -395.698568   215.149671
 0.145000   -394.337942   353.958380
 0.150000   -392.158984   494.111074
 0.155000   -389.396832   604.776621
 0.160000   -386.111218   704.620445
 0.165000   -382.350627   794.625816
 0.170000   -378.164960   877.499166
 0.175000   -373.575635   977.294173
 0.180000   -368.392018   1270.243677
 0.185000   -360.873199   1311.381126
 0.190000   -355.278207   1137.282128
 0.195000   -349.500377   1171.999641
 0.200000   -343.558210   1199.442595
 0.205000   -337.505951   1222.334586
 0.210000   -331.334865   1240.854788
 0.215000   -325.097404   1248.959309
 0.220000   -318.845272   1414.632103
 0.225000   -310.951083   1422.553138
 0.230000   -304.619740   1238.340779
 0.235000   -298.567675   1206.388567
 0.240000   -292.555854   1194.496452
 0.245000   -286.622710   1174.314995
 0.250000   -280.812705   1322.345215
 0.255000   -273.399258   1353.200160
 0.260000   -267.280703   1130.379396
 0.265000   -262.095464   1019.999924
 0.270000   -257.080704   985.457200
 0.275000   -252.240892   1041.523382
 0.280000   -246.665470   1131.972380
 0.285000   -240.921168   984.243813
 0.290000   -236.823032   801.616607
 0.295000   -232.905002   766.170322
 0.300000   -229.161328   835.038034
 0.305000   -224.554622   875.756636
 0.310000   -220.403762   708.490084
 0.315000   -217.469721   569.397746
 0.320000   -214.709785   532.642481
 0.325000   -212.143296   626.685461
 0.330000   -208.442930   573.251971
 0.335000   -206.410777   379.550352
 0.340000   -204.647427   342.280803
 0.345000   -202.987969   374.774810
 0.350000   -200.899678   393.786816
 0.355000   -199.050100   283.590732
 0.360000   -198.063771   185.206599
 0.365000   -197.198034   173.446090
 0.370000   -196.329310   220.897365
 0.375000   -194.989061   166.049151
 0.380000   -194.668819   55.850807
 0.385000   -194.430553   40.111077
 0.390000   -194.267708   114.480598
 0.395000   -193.285747   83.444507
 0.400000   -193.433263   -43.696188
 0.405000   -193.722709   -64.754876
 0.410000   -194.080812   -34.250056
 0.415000   -194.065209   -32.664204
 0.420000   -194.407454   -83.249986
 0.425000   -194.897709   -97.480884
 0.430000   -195.382262   -58.977698
 0.435000   -195.487486   -34.727884
 0.440000   -195.729541   -70.589309
 0.445000   -196.193379   -92.750324
 0.450000   -196.657045   -66.319704
 0.455000   -196.856576   -46.002805
 0.460000   -197.117073   -76.160595
 0.465000   -197.618182   -98.705077
 0.470000   -198.104123   -76.448439
 0.475000   -198.382666   -49.292402
 0.480000   -198.597047   -85.358830
 0.485000   -199.236255   -132.339898
 0.490000   -199.920446   -132.420946
 0.495000   -200.560464   -113.967535
 0.500000   -201.060122   -149.491812
 0.505000   -202.055382   -203.684057
 0.510000   -203.096962   -211.373962
 0.515000   -204.169122   -181.526884
 0.520000   -204.912231   -187.252303
 0.525000   -206.041645   -232.197532
 0.530000   -207.234206   -244.267979
 0.535000   -208.484325   -226.640876
 0.540000   -209.500615   -240.243088
 0.545000   -210.886756   -283.684491
 0.550000   -212.337460   -290.223732
 0.555000   -213.788993   -275.315534
 0.560000   -215.090615   -270.494339
 0.565000   -216.493936   -303.326742
 0.570000   -218.123883   -329.100917
 0.575000   -219.784946   -331.353200
 0.580000   -221.437415   -318.081953
 0.585000   -222.965765   -335.648211
 0.590000   -224.793897   -372.985393
 0.595000   -226.695619   -389.244524
 0.600000   -228.686342   -410.074734
 0.605000   -230.796366   -432.530534
 0.610000   -233.011648   -457.789874
 0.615000   -235.374265   -484.243248
 0.620000   -237.854080   -509.119981
 0.625000   -240.465465   -540.657046
 0.630000   -243.260651   -573.875248
 0.635000   -246.204217   -602.581077
 0.640000   -249.286461   -630.854453
 0.645000   -252.512762   -661.328620
 0.650000   -255.899748   -711.418954
 0.655000   -259.626951   -747.574644
 0.660000   -263.375494   -765.999003
 0.665000   -267.286941   -799.361832
 0.670000   -271.369112   -834.019167
 0.675000   -275.627133   -894.882095
 0.680000   -280.317933   -935.549504
 0.685000   -284.982628   -955.442563
 0.690000   -289.872359   -1001.349910
 0.695000   -294.996127   -1048.184949
 0.700000   -300.354208   -1113.039252
 0.705000   -306.126520   -1173.513178
 0.710000   -312.089340   -1202.700110
 0.715000   -318.153521   -1238.059196
 0.720000   -324.469932   -1289.015144
 0.725000   -331.043672   -1339.366159
 0.730000   -337.863594   -1407.484664
 0.735000   -345.118519   -1462.985049
 0.740000   -352.493444   -1494.879530
 0.745000   -360.067314   -1544.896150
 0.750000   -367.942406   -1606.051520
 0.755000   -376.127829   -1666.514554
 0.760000   -384.607551   -1726.209847
 0.765000   -393.389928   -1779.630886
 0.770000   -402.403860   -1835.791717
 0.775000   -411.747845   -1905.957860
 0.780000   -421.463439   -1986.057514
 0.785000   -431.608420   -2076.094927
 0.790000   -442.224388   -2173.042257
 0.795000   -453.338843   -2277.677675
 0.800000   -465.001165   -2368.384716
 0.805000   -477.022690   -2476.615655
 0.810000   -489.767321   -2611.402728
 0.815000   -503.136717   -2741.854565
 0.820000   -517.185867   -2886.073769
 0.825000   -531.997455   -3044.302183
 0.830000   -547.628889   -3214.849236
 0.835000   -564.145947   -3400.678228
 0.840000   -581.635671   -3605.949141
 0.845000   -600.205439   -3809.712918
 0.850000   -619.732800   -4003.397985
 0.855000   -640.239419   -4253.906671
 0.860000   -662.271867   -4532.148150
 0.865000   -685.560900   -4799.855353
 0.870000   -710.270420   -5147.840663
 0.875000   -737.039307   -5595.599106
 0.880000   -766.226411   -6072.767771
 0.885000   -797.766984   -6532.338842
 0.890000   -831.549800   -6967.233969
 0.895000   -867.439324   -7360.541719
 0.900000   -905.155217   -7691.500941
 0.905000   -944.354333   -7953.072789
 0.910000   -984.685945   -8172.155340
 0.915000   -1026.075887   -8377.516480
 0.920000   -1068.461110   -8566.242537
 0.925000   -1111.738312   -8988.372031
 0.930000   -1158.344830   -10398.459762
 0.935000   -1215.722910   -13964.016356
 0.940000   -1297.984994   -21197.690293
 0.945000   -1427.699813   -33644.481566
 0.950000   -1634.429809   -51801.541214
 0.955000   -1945.715225   -73147.174230
 0.960000   -2365.901552   -92162.167300
 0.965000   -2867.336898   -100629.071512
 0.970000   -3372.192267   -92022.267312
 0.975000   -3787.559571   -63107.199072
 0.980000   -4003.264257   -30742.844006
 0.985000   -4094.988011   -17381.462239
 0.990000   -4177.078880   -51302.846264
 0.995000   -4608.016474   -535757.893822
 1.000000   -9534.657818   -1434898.643900
201 psinorm omevb() domevb/dpsiN
 0.000000   49.573636   144.042534
 0.005000   50.068351   53.843539
 0.010000   50.112071   3.397956
 0.015000   50.102331   -4.534926
 0.020000   50.066722   -9.017751
 0.025000   50.012153   -12.795559
 0.030000   49.938767   -16.438291
 0.035000   49.847770   -19.506915
 0.040000   49.743697   -22.055415
 0.045000   49.627216   -24.245268
 0.050000   49.501245   -25.736461
 0.055000   49.369852   -26.413681
 0.060000   49.237108   -26.363352
 0.065000   49.106218   -25.861570
 0.070000   48.978492   -25.084154
 0.075000   48.855377   -24.127752
 0.080000   48.737215   -23.224245
 0.085000   48.623134   -22.479085
 0.090000   48.512424   -21.993129
 0.095000   48.403203   -21.943980
 0.100000   48.292984   -22.075193
 0.105000   48.182451   -22.233144
 0.110000   48.070653   -22.293693
 0.115000   47.959514   -22.223795
 0.120000   47.848415   -21.582599
 0.125000   47.743688   -20.345736
 0.130000   47.644957   -18.991001
 0.135000   47.553778   -17.540445
 0.140000   47.469553   -16.037744
 0.145000   47.393401   -14.758651
 0.150000   47.321966   -13.430600
 0.155000   47.259095   -12.277525
 0.160000   47.199191   -11.654016
 0.165000   47.142554   -11.331086
 0.170000   47.085880   -11.429918
 0.175000   47.028255   -11.708262
 0.180000   46.968798   -12.383302
 0.185000   46.904422   -13.396641
 0.190000   46.834831   -14.788555
 0.195000   46.756537   -16.430310
 0.200000   46.670528   -18.144302
 0.205000   46.575094   -19.965921
 0.210000   46.470869   -22.089440
 0.215000   46.354199   -24.497968
 0.220000   46.225889   -26.534058
 0.225000   46.088859   -28.231418
 0.230000   45.943575   -29.860768
 0.235000   45.790251   -31.760995
 0.240000   45.625965   -32.897195
 0.245000   45.461279   -32.722461
 0.250000   45.298741   -32.286674
 0.255000   45.138412   -31.742164
 0.260000   44.981319   -30.930866
 0.265000   44.829104   -30.090829
 0.270000   44.680411   -28.823590
 0.275000   44.540868   -27.100423
 0.280000   44.409406   -25.887139
 0.285000   44.281996   -25.219775
 0.290000   44.157209   -24.868097
 0.295000   44.033315   -24.720594
 0.300000   43.910003   -25.392743
 0.305000   43.779388   -27.819374
 0.310000   43.631809   -31.379072
 0.315000   43.465597   -35.390526
 0.320000   43.277904   -39.703041
 0.325000   43.068567   -44.107747
 0.330000   42.836826   -48.721019
 0.335000   42.581357   -52.864942
 0.340000   42.308177   -56.045256
 0.345000   42.020904   -58.564260
 0.350000   41.722534   -60.306839
 0.355000   41.417836   -61.921506
 0.360000   41.103319   -63.908071
 0.365000   40.778755   -65.050578
 0.370000   40.452813   -65.820126
 0.375000   40.120554   -67.159639
 0.380000   39.781217   -68.924310
 0.385000   39.431311   -70.869526
 0.390000   39.072522   -72.104036
 0.395000   38.710270   -73.224440
 0.400000   38.340277   -74.538153
 0.405000   37.964889   -75.371388
 0.410000   37.586563   -75.953105
 0.415000   37.205358   -77.448214
 0.420000   36.812081   -80.776046
 0.425000   36.397597   -87.732971
 0.430000   35.934752   -97.776172
 0.435000   35.419835   -109.649838
 0.440000   34.838253   -124.767254
 0.445000   34.172163   -141.082299
 0.450000   33.427430   -156.593752
 0.455000   32.606225   -171.688119
 0.460000   31.710549   -185.177652
 0.465000   30.754449   -195.960982
 0.470000   29.750939   -202.608969
 0.475000   28.728359   -203.153767
 0.480000   27.719402   -198.509648
 0.485000   26.743263   -189.113202
 0.490000   25.828269   -175.850411
 0.495000   24.984759   -160.569424
 0.500000   24.222575   -144.238681
 0.505000   23.542372   -128.974568
 0.510000   22.932830   -115.720011
 0.515000   22.385172   -104.559712
 0.520000   21.887232   -95.449669
 0.525000   21.430675   -87.962305
 0.530000   21.007609   -82.282362
 0.535000   20.607851   -77.892129
 0.540000   20.228688   -73.478926
 0.545000   19.873062   -69.084533
 0.550000   19.537843   -64.912906
 0.555000   19.223933   -60.292458
 0.560000   18.934918   -55.025803
 0.565000   18.673675   -49.609635
 0.570000   18.438822   -44.165622
 0.575000   18.232019   -38.800898
 0.580000   18.050813   -33.789247
 0.585000   17.894126   -29.131975
 0.590000   17.759493   -24.970885
 0.595000   17.644417   -21.380213
 0.600000   17.545691   -18.534909
 0.605000   17.459068   -16.421107
 0.610000   17.381480   -14.859045
 0.615000   17.310478   -14.028962
 0.620000   17.241190   -13.717608
 0.625000   17.173302   -13.470581
 0.630000   17.106485   -13.359630
 0.635000   17.039706   -13.323552
 0.640000   16.973249   -12.979771
 0.645000   16.909908   -12.391881
 0.650000   16.849330   -11.901709
 0.655000   16.790891   -11.746784
 0.660000   16.731862   -12.112839
 0.665000   16.669762   -13.277171
 0.670000   16.599091   -15.341271
 0.675000   16.516350   -18.396188
 0.680000   16.415129   -22.208984
 0.685000   16.294260   -26.013566
 0.690000   16.154993   -29.871872
 0.695000   15.995541   -34.730010
 0.700000   15.807693   -36.430731
 0.705000   15.631234   -35.593622
 0.710000   15.451757   -36.246498
 0.715000   15.268769   -36.776202
 0.720000   15.083995   -37.109022
 0.725000   14.897679   -37.759280
 0.730000   14.706402   -35.725526
 0.735000   14.540423   -32.446833
 0.740000   14.381934   -30.920988
 0.745000   14.231213   -29.399462
 0.750000   14.087939   -28.103704
 0.755000   13.950176   -25.696350
 0.760000   13.830976   -25.479298
 0.765000   13.695383   -28.686962
 0.770000   13.544106   -32.786972
 0.775000   13.367514   -38.798718
 0.780000   13.156119   -46.424516
 0.785000   12.903269   -54.490514
 0.790000   12.611214   -66.356902
 0.795000   12.239700   -81.575306
 0.800000   11.795461   -96.516693
 0.805000   11.274533   -112.123087
 0.810000   10.674230   -127.542652
 0.815000   9.999106   -141.822311
 0.820000   9.256007   -152.990188
 0.825000   8.469204   -158.780246
 0.830000   7.668204   -158.988241
 0.835000   6.879322   -153.912966
 0.840000   6.129074   -143.476230
 0.845000   5.444560   -129.181261
 0.850000   4.837262   -111.470287
 0.855000   4.329857   -91.750530
 0.860000   3.919756   -73.614561
 0.865000   3.593711   -58.751148
 0.870000   3.332245   -48.281726
 0.875000   3.110894   -46.324049
 0.880000   2.869005   -55.951963
 0.885000   2.551374   -78.929664
 0.890000   2.079708   -123.327693
 0.895000   1.318097   -198.877168
 0.900000   0.090936   -312.744791
 0.905000   -1.809351   -476.311997
 0.910000   -4.672184   -700.337127
 0.915000   -8.812722   -989.830523
 0.920000   -14.570489   -1359.925707
 0.925000   -22.411979   -1820.708005
 0.930000   -32.777569   -2357.907840
 0.935000   -45.991057   -2932.391576
 0.940000   -62.101485   -3468.118596
 0.945000   -80.672243   -3815.551573
 0.950000   -100.257001   -3799.812408
 0.955000   -118.670367   -3256.519340
 0.960000   -132.822194   -2078.214723
 0.965000   -139.452515   -351.556891
 0.970000   -136.337763   1605.914879
 0.975000   -123.393366   3328.109545
 0.980000   -103.056667   4370.618381
 0.985000   -79.687182   4576.450012
 0.990000   -57.292167   4117.027532
 0.995000   -38.516907   3275.215419
 1.000000   -24.540013   2315.542050
201 psinorm omepp() domepp/dpsiN
 0.000000   18.928302   3.994092
 0.005000   18.946347   3.223933
 0.010000   18.960541   2.732538
 0.015000   18.973672   2.519851
 0.020000   18.985740   2.307066
 0.025000   18.996743   2.094217
 0.030000   19.006682   1.881337
 0.035000   19.015556   1.668460
 0.040000   19.023366   1.455618
 0.045000   19.030112   1.242843
 0.050000   19.035795   1.030170
 0.055000   19.040414   0.817631
 0.060000   19.043971   0.605259
 0.065000   19.046467   0.393086
 0.070000   19.047902   0.181145
 0.075000   19.048278   -0.030532
 0.080000   19.047597   -0.241912
 0.085000   19.045859   -0.452963
 0.090000   19.043067   -0.663653
 0.095000   19.039222   -0.873950
 0.100000   19.034327   -1.083822
 0.105000   19.028384   -1.293238
 0.110000   19.021395   -1.502166
 0.115000   19.013363   -1.710574
 0.120000   19.004289   -1.918433
 0.125000   18.994178   -2.125710
 0.130000   18.983032   -2.332375
 0.135000   18.970854   -2.538397
 0.140000   18.957648   -2.743746
 0.145000   18.943417   -2.948393
 0.150000   18.928164   -3.152306
 0.155000   18.911894   -3.355456
 0.160000   18.894610   -3.557814
 0.165000   18.876316   -3.759351
 0.170000   18.857016   -3.960037
 0.175000   18.836715   -4.159844
 0.180000   18.815418   -4.358744
 0.185000   18.793128   -4.556707
 0.190000   18.769851   -4.753707
 0.195000   18.745591   -4.949715
 0.200000   18.720354   -5.144705
 0.205000   18.694144   -5.338648
 0.210000   18.666967   -5.531519
 0.215000   18.638829   -5.723290
 0.220000   18.609734   -5.913936
 0.225000   18.579689   -6.103431
 0.230000   18.548700   -6.291749
 0.235000   18.516772   -6.478865
 0.240000   18.483911   -6.664754
 0.245000   18.450124   -6.849391
 0.250000   18.415417   -7.032752
 0.255000   18.379797   -7.214814
 0.260000   18.343269   -7.395552
 0.265000   18.305841   -7.574944
 0.270000   18.267520   -7.752967
 0.275000   18.228312   -7.929597
 0.280000   18.188224   -8.104814
 0.285000   18.147263   -8.278595
 0.290000   18.105438   -8.450919
 0.295000   18.062754   -8.621765
 0.300000   18.019220   -8.791112
 0.305000   17.974843   -8.958940
 0.310000   17.929631   -9.125229
 0.315000   17.883591   -9.289960
 0.320000   17.836731   -9.453114
 0.325000   17.789060   -9.614671
 0.330000   17.740584   -9.774614
 0.335000   17.691314   -9.932925
 0.340000   17.641255   -10.089586
 0.345000   17.590418   -10.244580
 0.350000   17.538809   -10.397891
 0.355000   17.486439   -10.549501
 0.360000   17.433314   -10.699397
 0.365000   17.379445   -10.847561
 0.370000   17.324839   -10.993979
 0.375000   17.269505   -11.138637
 0.380000   17.213452   -11.281519
 0.385000   17.156690   -11.422614
 0.390000   17.099226   -11.561906
 0.395000   17.041071   -11.699383
 0.400000   16.982232   -11.835033
 0.405000   16.922720   -11.968844
 0.410000   16.862544   -12.100804
 0.415000   16.801712   -12.230902
 0.420000   16.740235   -12.359127
 0.425000   16.678121   -12.485468
 0.430000   16.615380   -12.609917
 0.435000   16.552022   -12.732462
 0.440000   16.488056   -12.853096
 0.445000   16.423491   -12.971810
 0.450000   16.358338   -13.088595
 0.455000   16.292605   -13.203444
 0.460000   16.226303   -13.316350
 0.465000   16.159442   -13.427304
 0.470000   16.092030   -13.536302
 0.475000   16.024079   -13.643337
 0.480000   15.955597   -13.748404
 0.485000   15.886595   -13.851496
 0.490000   15.817082   -13.952611
 0.495000   15.747068   -14.051742
 0.500000   15.676564   -14.148887
 0.505000   15.605580   -14.244043
 0.510000   15.534124   -14.337205
 0.515000   15.462207   -14.428372
 0.520000   15.389840   -14.517542
 0.525000   15.317032   -14.604713
 0.530000   15.243793   -14.689884
 0.535000   15.170133   -14.773055
 0.540000   15.096063   -14.854226
 0.545000   15.021591   -14.933397
 0.550000   14.946729   -15.010570
 0.555000   14.871485   -15.085746
 0.560000   14.795871   -15.158929
 0.565000   14.719896   -15.230121
 0.570000   14.643570   -15.299328
 0.575000   14.566903   -15.366554
 0.580000   14.489904   -15.431806
 0.585000   14.412585   -15.495092
 0.590000   14.334953   -15.556422
 0.595000   14.257020   -15.615808
 0.600000   14.178795   -15.673263
 0.605000   14.100288   -15.728805
 0.610000   14.021507   -15.782453
 0.615000   13.942463   -15.834231
 0.620000   13.863165   -15.884170
 0.625000   13.783622   -15.932305
 0.630000   13.703842   -15.978679
 0.635000   13.623835   -16.023345
 0.640000   13.543608   -16.066367
 0.645000   13.463171   -16.107824
 0.650000   13.382530   -16.147812
 0.655000   13.301693   -16.186450
 0.660000   13.220666   -16.223883
 0.665000   13.139454   -16.260290
 0.670000   13.058063   -16.295893
 0.675000   12.976495   -16.330962
 0.680000   12.894753   -16.365835
 0.685000   12.812837   -16.400927
 0.690000   12.730744   -16.436749
 0.695000   12.648469   -16.473935
 0.700000   12.566005   -16.513268
 0.705000   12.483337   -16.555712
 0.710000   12.400447   -16.602461
 0.715000   12.317312   -16.654988
 0.720000   12.233898   -16.715108
 0.725000   12.150161   -16.785060
 0.730000   12.066047   -16.867603
 0.735000   11.981485   -16.966130
 0.740000   11.896386   -17.084812
 0.745000   11.810637   -17.228771
 0.750000   11.724098   -17.404281
 0.755000   11.636594   -17.619022
 0.760000   11.547908   -17.882370
 0.765000   11.457770   -18.205748
 0.770000   11.365850   -18.603034
 0.775000   11.271740   -19.091034
 0.780000   11.174940   -19.690030
 0.785000   11.074840   -20.424389
 0.790000   10.970696   -21.323237
 0.795000   10.861607   -22.421171
 0.800000   10.746484   -23.758980
 0.805000   10.624018   -25.384295
 0.810000   10.492641   -27.352086
 0.815000   10.350497   -29.724809
 0.820000   10.195393   -32.571970
 0.825000   10.024777   -35.968689
 0.830000   9.835706   -39.992677
 0.835000   9.624850   -44.718754
 0.840000   9.388519   -50.209596
 0.845000   9.122754   -56.500817
 0.850000   8.823511   -63.577643
 0.855000   8.486978   -71.339218
 0.860000   8.110119   -79.544907
 0.865000   7.691529   -87.734725
 0.870000   7.232771   -95.113059
 0.875000   6.740398   -100.381348
 0.880000   6.228958   -101.501757
 0.885000   5.725381   -95.371608
 0.890000   5.275242   -77.390861
 0.895000   4.951472   -40.919523
 0.900000   4.866046   23.337537
 0.905000   5.184847   127.890307
 0.910000   6.144950   288.664210
 0.915000   8.071489   524.240554
 0.920000   11.387355   853.118226
 0.925000   16.602672   1287.573376
 0.930000   24.263089   1822.722342
 0.935000   34.829895   2420.666550
 0.940000   48.469754   2993.061860
 0.945000   64.760514   3391.209561
 0.950000   82.381850   3418.721397
 0.955000   98.947728   2883.280342
 0.960000   111.214653   1693.907450
 0.965000   115.886802   -22.404285
 0.970000   110.990611   -1868.806091
 0.975000   97.198741   -3302.883402
 0.980000   77.961777   -3929.564840
 0.985000   57.903093   -3735.526249
 0.990000   40.606514   -3036.151288
 0.995000   27.541580   -2211.708973
 1.000000   18.489424   -1409.153312
201 psinorm kpol(km/s/T) dkpol/dpsiN
 0.000000   -0.013688   179.464468
 0.005000   0.694354   103.752078
 0.010000   1.023833   61.119221
 0.015000   1.305546   54.201729
 0.020000   1.565851   50.513716
 0.025000   1.810683   47.332396
 0.030000   2.039175   44.094594
 0.035000   2.251629   41.260553
 0.040000   2.451780   38.797405
 0.045000   2.639603   36.570549
 0.050000   2.817486   34.931280
 0.055000   2.988916   34.005848
 0.060000   3.157544   33.804306
 0.065000   3.326959   34.021842
 0.070000   3.497762   34.395653
 0.075000   3.670916   34.874381
 0.080000   3.846506   35.222564
 0.085000   4.023141   35.356804
 0.090000   4.200074   35.325321
 0.095000   4.376394   34.911453
 0.100000   4.549189   34.280939
 0.105000   4.719204   33.610870
 0.110000   4.885298   33.031339
 0.115000   5.049517   32.699006
 0.120000   5.212288   32.759901
 0.125000   5.377116   33.220935
 0.130000   5.544497   33.878117
 0.135000   5.715897   34.591160
 0.140000   5.890409   35.333344
 0.145000   6.069231   35.992803
 0.150000   6.250337   36.378142
 0.155000   6.433012   36.232510
 0.160000   6.612662   35.622361
 0.165000   6.789236   34.572847
 0.170000   6.958390   32.891317
 0.175000   7.118149   30.574540
 0.180000   7.264136   27.546828
 0.185000   7.393617   24.315982
 0.190000   7.507295   20.880410
 0.195000   7.602421   17.428050
 0.200000   7.681576   14.177044
 0.205000   7.744192   10.976525
 0.210000   7.791341   8.437447
 0.215000   7.828566   6.447139
 0.220000   7.855812   4.751255
 0.225000   7.876079   3.271449
 0.230000   7.888527   1.609092
 0.235000   7.892170   -0.003654
 0.240000   7.888490   -1.858705
 0.245000   7.873583   -4.091305
 0.250000   7.847577   -6.326914
 0.255000   7.810314   -8.789964
 0.260000   7.759678   -11.345896
 0.265000   7.696855   -13.870424
 0.270000   7.620974   -16.614699
 0.275000   7.530708   -19.363593
 0.280000   7.427338   -22.216158
 0.285000   7.308546   -25.396218
 0.290000   7.173375   -28.595868
 0.295000   7.022587   -31.986345
 0.300000   6.853512   -35.682842
 0.305000   6.665759   -39.338175
 0.310000   6.460130   -43.105668
 0.315000   6.234702   -47.077216
 0.320000   5.989358   -50.900730
 0.325000   5.725695   -54.472017
 0.330000   5.444638   -57.623615
 0.335000   5.149459   -59.982986
 0.340000   4.844808   -61.638585
 0.345000   4.533073   -62.763020
 0.350000   4.217178   -63.210319
 0.355000   3.900970   -63.657572
 0.360000   3.580602   -64.734103
 0.365000   3.253629   -66.275263
 0.370000   2.917849   -68.444033
 0.375000   2.569188   -71.430510
 0.380000   2.203544   -75.517116
 0.385000   1.814017   -80.242026
 0.390000   1.401124   -84.713764
 0.395000   0.966880   -88.676764
 0.400000   0.514356   -91.930243
 0.405000   0.047577   -94.299569
 0.410000   -0.428639   -95.787825
 0.415000   -0.910301   -97.625883
 0.420000   -1.404898   -101.290953
 0.425000   -1.923211   -107.260742
 0.430000   -2.477505   -115.749199
 0.435000   -3.080703   -126.940478
 0.440000   -3.746910   -141.631550
 0.445000   -4.497018   -157.582358
 0.450000   -5.322734   -172.337646
 0.455000   -6.220395   -185.773816
 0.460000   -7.180472   -196.742426
 0.465000   -8.187819   -204.114073
 0.470000   -9.221613   -205.611507
 0.475000   -10.243934   -199.435835
 0.480000   -11.215971   -186.819132
 0.485000   -12.112125   -169.436917
 0.490000   -12.910340   -148.613150
 0.495000   -13.598257   -125.542300
 0.500000   -14.165763   -101.936048
 0.505000   -14.617617   -80.845896
 0.510000   -14.974222   -63.410126
 0.515000   -15.251718   -49.332954
 0.520000   -15.467552   -38.371781
 0.525000   -15.635436   -30.178031
 0.530000   -15.769332   -25.111204
 0.535000   -15.886548   -22.177039
 0.540000   -15.991102   -19.634216
 0.545000   -16.082890   -16.992610
 0.550000   -16.161029   -14.093565
 0.555000   -16.223826   -10.597261
 0.560000   -16.267001   -6.228176
 0.565000   -16.286108   -1.227698
 0.570000   -16.279278   4.287794
 0.575000   -16.243230   10.298961
 0.580000   -16.176289   16.428468
 0.585000   -16.078945   22.189131
 0.590000   -15.954397   27.397904
 0.595000   -15.804966   31.938445
 0.600000   -15.635013   35.450530
 0.605000   -15.450461   37.918442
 0.610000   -15.255828   39.506968
 0.615000   -15.055391   40.017517
 0.620000   -14.855653   39.803033
 0.625000   -14.657361   39.531849
 0.630000   -14.460335   39.292132
 0.635000   -14.264440   39.101389
 0.640000   -14.069321   39.094339
 0.645000   -13.873496   39.430613
 0.650000   -13.675015   39.959275
 0.655000   -13.473903   40.334704
 0.660000   -13.271668   40.563403
 0.665000   -13.068269   40.749376
 0.670000   -12.864174   40.861929
 0.675000   -12.659650   41.112529
 0.680000   -12.453049   41.808346
 0.685000   -12.241567   42.957229
 0.690000   -12.023476   44.358508
 0.695000   -11.797982   45.868229
 0.700000   -11.564794   47.528677
 0.705000   -11.322695   49.023689
 0.710000   -11.074557   49.587079
 0.715000   -10.826824   49.039302
 0.720000   -10.584164   47.455308
 0.725000   -10.352271   44.711798
 0.730000   -10.137046   40.774958
 0.735000   -9.944521   35.716883
 0.740000   -9.779877   29.858600
 0.745000   -9.645935   23.611323
 0.750000   -9.543764   17.295949
 0.755000   -9.472976   11.241124
 0.760000   -9.431353   5.692213
 0.765000   -9.416054   0.710814
 0.770000   -9.424245   -4.005953
 0.775000   -9.456113   -9.113293
 0.780000   -9.515378   -15.333346
 0.785000   -9.609447   -23.423321
 0.790000   -9.749611   -34.756518
 0.795000   -9.957012   -49.525104
 0.800000   -10.244862   -66.949317
 0.805000   -10.626505   -86.615137
 0.810000   -11.111013   -107.396546
 0.815000   -11.700471   -127.767020
 0.820000   -12.388683   -145.808808
 0.825000   -13.158559   -158.844867
 0.830000   -13.977132   -165.410497
 0.835000   -14.812664   -165.581338
 0.840000   -15.632945   -159.741166
 0.845000   -16.410075   -148.348019
 0.850000   -17.116426   -131.961375
 0.855000   -17.729689   -114.189378
 0.860000   -18.258319   -98.205964
 0.865000   -18.711749   -83.995011
 0.870000   -19.098270   -71.956726
 0.875000   -19.431316   -62.809181
 0.880000   -19.726361   -56.667043
 0.885000   -19.997986   -51.407860
 0.890000   -20.240440   -44.910026
 0.895000   -20.447087   -36.595253
 0.900000   -20.606392   -25.297100
 0.905000   -20.700058   -9.236121
 0.910000   -20.698754   14.615263
 0.915000   -20.553905   51.412084
 0.920000   -20.184633   102.007088
 0.925000   -19.533834   165.241742
 0.930000   -18.532215   243.052614
 0.935000   -17.103308   341.871245
 0.940000   -15.113503   441.775673
 0.945000   -12.685551   502.226032
 0.950000   -10.091243   491.510838
 0.955000   -7.770443   383.061619
 0.960000   -6.260626   182.001240
 0.965000   -5.950430   -45.441495
 0.970000   -6.715041   -170.235800
 0.975000   -7.652788   -68.933623
 0.980000   -7.404378   274.470676
 0.985000   -4.908082   714.283016
 0.990000   -0.261547   1009.170666
 0.995000   5.183625   980.396606
 1.000000   9.542419   763.120821
201 psinorm omghb() domghb/dpsiN
 0.000000   -0.000081   0.028925
 0.005000   -0.000030   -0.008567
 0.010000   -0.000167   0.011190
 0.015000   0.000082   0.059728
 0.020000   0.000430   0.076121
 0.025000   0.000843   0.088390
 0.030000   0.001314   0.105968
 0.035000   0.001902   0.123321
 0.040000   0.002547   0.133425
 0.045000   0.003237   0.130818
 0.050000   0.003856   0.116742
 0.055000   0.004404   0.100697
 0.060000   0.004863   0.080840
 0.065000   0.005212   0.059016
 0.070000   0.005453   0.047007
 0.075000   0.005683   0.047511
 0.080000   0.005928   0.044718
 0.085000   0.006130   0.051229
 0.090000   0.006440   0.066730
 0.095000   0.006797   0.085161
 0.100000   0.007292   0.109506
 0.105000   0.007892   0.101140
 0.110000   0.008303   0.077833
 0.115000   0.008670   0.052463
 0.120000   0.008828   0.026677
 0.125000   0.008937   0.008083
 0.130000   0.008909   -0.035771
 0.135000   0.008579   -0.072841
 0.140000   0.008180   -0.060649
 0.145000   0.007973   -0.040463
 0.150000   0.007776   -0.030023
 0.155000   0.007673   -0.004278
 0.160000   0.007733   0.008764
 0.165000   0.007760   0.039826
 0.170000   0.008131   0.083549
 0.175000   0.008596   0.135482
 0.180000   0.009486   0.177319
 0.185000   0.010369   0.188843
 0.190000   0.011374   0.234525
 0.195000   0.012714   0.312253
 0.200000   0.014497   0.356688
 0.205000   0.016281   0.339036
 0.210000   0.017887   0.340323
 0.215000   0.019684   0.384114
 0.220000   0.021728   0.444447
 0.225000   0.024129   0.404030
 0.230000   0.025769   0.300368
 0.235000   0.027133   0.240155
 0.240000   0.028170   0.200392
 0.245000   0.029137   0.173415
 0.250000   0.029904   0.186213
 0.255000   0.030999   -0.005206
 0.260000   0.029852   -0.155273
 0.265000   0.029446   -0.073034
 0.270000   0.029122   -0.068707
 0.275000   0.028759   -0.063253
 0.280000   0.028489   -0.083794
 0.285000   0.027921   -0.043332
 0.290000   0.028056   0.090367
 0.295000   0.028825   0.245188
 0.300000   0.030508   0.414408
 0.305000   0.032969   0.577660
 0.310000   0.036285   0.669541
 0.315000   0.039664   0.933791
 0.320000   0.045623   1.093939
 0.325000   0.050603   0.997837
 0.330000   0.055601   0.946863
 0.335000   0.060072   0.800703
 0.340000   0.063608   0.790518
 0.345000   0.067977   0.675594
 0.350000   0.070364   0.452849
 0.355000   0.072506   0.435105
 0.360000   0.074715   0.438533
 0.365000   0.076891   0.471774
 0.370000   0.079433   0.577774
 0.375000   0.082669   0.458707
 0.380000   0.084020   0.384673
 0.385000   0.086516   0.552276
 0.390000   0.089542   0.593944
 0.395000   0.092455   0.512602
 0.400000   0.094668   0.231958
 0.405000   0.094775   0.194741
 0.410000   0.096616   0.536580
 0.415000   0.100140   0.827992
 0.420000   0.104896   1.368081
 0.425000   0.113821   2.179116
 0.430000   0.126687   2.739762
 0.435000   0.141219   3.230405
 0.440000   0.158991   3.727550
 0.445000   0.178494   3.935502
 0.450000   0.198346   4.269816
 0.455000   0.221192   4.076989
 0.460000   0.239116   3.178818
 0.465000   0.252981   2.287733
 0.470000   0.261993   1.162721
 0.475000   0.264608   -0.071839
 0.480000   0.261275   -1.383405
 0.485000   0.250774   -2.593221
 0.490000   0.235343   -3.301674
 0.495000   0.217757   -3.587982
 0.500000   0.199463   -3.600181
 0.505000   0.181755   -3.368025
 0.510000   0.165783   -3.081212
 0.515000   0.150943   -2.519857
 0.520000   0.140584   -1.871248
 0.525000   0.132231   -1.508518
 0.530000   0.125499   -1.120704
 0.535000   0.121024   -0.912987
 0.540000   0.116369   -0.965356
 0.545000   0.111370   -1.023553
 0.550000   0.106133   -1.122375
 0.555000   0.100146   -1.283527
 0.560000   0.093298   -1.265476
 0.565000   0.087492   -1.248002
 0.570000   0.080818   -1.383541
 0.575000   0.073656   -1.393382
 0.580000   0.066884   -1.270420
 0.585000   0.060952   -1.129377
 0.590000   0.055591   -0.997287
 0.595000   0.050979   -0.831786
 0.600000   0.047273   -0.611872
 0.605000   0.044860   -0.440806
 0.610000   0.042865   -0.317651
 0.615000   0.041684   -0.108587
 0.620000   0.041779   -0.012624
 0.625000   0.041558   0.007777
 0.630000   0.041857   0.014175
 0.635000   0.041699   -0.046179
 0.640000   0.041395   -0.088279
 0.645000   0.040817   -0.048131
 0.650000   0.040913   -0.022547
 0.655000   0.040591   0.019640
 0.660000   0.041110   0.185212
 0.665000   0.042443   0.405306
 0.670000   0.045163   0.716033
 0.675000   0.049604   1.402111
 0.680000   0.059184   1.564782
 0.685000   0.065251   0.956736
 0.690000   0.068751   0.749172
 0.695000   0.072743   0.715540
 0.700000   0.075907   0.559200
 0.705000   0.078335   0.859137
 0.710000   0.084498   0.446861
 0.715000   0.082804   -0.463063
 0.720000   0.079867   -0.330842
 0.725000   0.079495   -0.116626
 0.730000   0.078701   -0.225339
 0.735000   0.077242   -0.380190
 0.740000   0.074899   -0.736121
 0.745000   0.069881   -0.678170
 0.750000   0.068118   -0.207232
 0.755000   0.067808   0.138156
 0.760000   0.069499   0.559370
 0.765000   0.073402   0.777454
 0.770000   0.077274   1.274876
 0.775000   0.086151   2.574440
 0.780000   0.103018   3.351077
 0.785000   0.119662   3.707317
 0.790000   0.140091   4.301466
 0.795000   0.162676   4.739034
 0.800000   0.187482   5.495991
 0.805000   0.217636   6.077391
 0.810000   0.248256   5.614652
 0.815000   0.273783   4.812788
 0.820000   0.296383   3.907585
 0.825000   0.312859   2.596370
 0.830000   0.322347   1.014011
 0.835000   0.322999   -1.019980
 0.840000   0.312147   -2.447123
 0.845000   0.298527   -2.939061
 0.850000   0.282757   -3.242556
 0.855000   0.266102   -3.156194
 0.860000   0.251195   -2.381771
 0.865000   0.242284   -1.837871
 0.870000   0.232816   -0.540736
 0.875000   0.236877   2.112859
 0.880000   0.253945   4.667936
 0.885000   0.283556   7.426206
 0.890000   0.328207   11.964750
 0.895000   0.403204   14.970956
 0.900000   0.477916   17.013304
 0.905000   0.573337   19.768141
 0.910000   0.675598   19.761563
 0.915000   0.770952   16.957084
 0.920000   0.845169   15.069203
 0.925000   0.921644   6.448306
 0.930000   0.909652   -5.620808
 0.935000   0.865436   -11.821720
 0.940000   0.791434   -15.306326
 0.945000   0.712373   -13.776201
 0.950000   0.653672   -0.334472
 0.955000   0.709028   4.920176
 0.960000   0.702874   -3.429751
 0.965000   0.674731   -22.636991
 0.970000   0.476504   -68.899125
 0.975000   -0.014260   -126.218256
 0.980000   -0.785678   -157.565429
 0.985000   -1.589915   -131.298794
 0.990000   -2.098666   -47.105314
 0.995000   -2.060968   52.339482
 1.000000   -1.575271   141.939107
201 psinorm nz1(10^20/m^3) dnz1/dpsiN
 0.000000   0.026952   0.000003
 0.005000   0.026949   -0.001222
 0.010000   0.026940   -0.002450
 0.015000   0.026925   -0.003686
 0.020000   0.026903   -0.004924
 0.025000   0.026876   -0.006162
 0.030000   0.026842   -0.007394
 0.035000   0.026802   -0.008617
 0.040000   0.026756   -0.009826
 0.045000   0.026703   -0.011019
 0.050000   0.026645   -0.012193
 0.055000   0.026581   -0.013346
 0.060000   0.026512   -0.014473
 0.065000   0.026437   -0.015572
 0.070000   0.026356   -0.016639
 0.075000   0.026270   -0.017671
 0.080000   0.026179   -0.018669
 0.085000   0.026084   -0.019628
 0.090000   0.025983   -0.020550
 0.095000   0.025878   -0.021436
 0.100000   0.025769   -0.022293
 0.105000   0.025655   -0.023126
 0.110000   0.025538   -0.023932
 0.115000   0.025416   -0.024707
 0.120000   0.025290   -0.025448
 0.125000   0.025161   -0.026155
 0.130000   0.025029   -0.026828
 0.135000   0.024893   -0.027461
 0.140000   0.024754   -0.028044
 0.145000   0.024613   -0.028576
 0.150000   0.024469   -0.029057
 0.155000   0.024322   -0.029483
 0.160000   0.024174   -0.029852
 0.165000   0.024024   -0.030156
 0.170000   0.023872   -0.030386
 0.175000   0.023720   -0.030540
 0.180000   0.023567   -0.030616
 0.185000   0.023414   -0.030609
 0.190000   0.023261   -0.030514
 0.195000   0.023108   -0.030323
 0.200000   0.022957   -0.030058
 0.205000   0.022808   -0.029736
 0.210000   0.022660   -0.029366
 0.215000   0.022514   -0.028967
 0.220000   0.022370   -0.028563
 0.225000   0.022229   -0.028185
 0.230000   0.022089   -0.027840
 0.235000   0.021950   -0.027502
 0.240000   0.021814   -0.027153
 0.245000   0.021679   -0.026779
 0.250000   0.021546   -0.026372
 0.255000   0.021415   -0.025933
 0.260000   0.021286   -0.025431
 0.265000   0.021161   -0.024851
 0.270000   0.021038   -0.024207
 0.275000   0.020919   -0.023500
 0.280000   0.020803   -0.022728
 0.285000   0.020691   -0.021885
 0.290000   0.020584   -0.020968
 0.295000   0.020482   -0.019993
 0.300000   0.020384   -0.018972
 0.305000   0.020292   -0.017917
 0.310000   0.020205   -0.016840
 0.315000   0.020123   -0.015737
 0.320000   0.020048   -0.014643
 0.325000   0.019977   -0.013599
 0.330000   0.019912   -0.012591
 0.335000   0.019851   -0.011625
 0.340000   0.019795   -0.010700
 0.345000   0.019744   -0.009819
 0.350000   0.019697   -0.008979
 0.355000   0.019654   -0.008166
 0.360000   0.019615   -0.007362
 0.365000   0.019581   -0.006563
 0.370000   0.019550   -0.005768
 0.375000   0.019523   -0.004979
 0.380000   0.019500   -0.004197
 0.385000   0.019481   -0.003426
 0.390000   0.019466   -0.002672
 0.395000   0.019454   -0.001941
 0.400000   0.019446   -0.001238
 0.405000   0.019442   -0.000566
 0.410000   0.019441   0.000068
 0.415000   0.019443   0.000662
 0.420000   0.019447   0.001213
 0.425000   0.019455   0.001719
 0.430000   0.019465   0.002180
 0.435000   0.019477   0.002596
 0.440000   0.019491   0.002973
 0.445000   0.019506   0.003314
 0.450000   0.019524   0.003623
 0.455000   0.019543   0.003898
 0.460000   0.019563   0.004140
 0.465000   0.019584   0.004348
 0.470000   0.019606   0.004517
 0.475000   0.019629   0.004636
 0.480000   0.019652   0.004698
 0.485000   0.019676   0.004700
 0.490000   0.019699   0.004637
 0.495000   0.019722   0.004507
 0.500000   0.019745   0.004306
 0.505000   0.019765   0.004033
 0.510000   0.019785   0.003691
 0.515000   0.019802   0.003285
 0.520000   0.019818   0.002820
 0.525000   0.019831   0.002301
 0.530000   0.019841   0.001736
 0.535000   0.019848   0.001133
 0.540000   0.019852   0.000500
 0.545000   0.019853   -0.000159
 0.550000   0.019850   -0.000840
 0.555000   0.019845   -0.001540
 0.560000   0.019835   -0.002257
 0.565000   0.019822   -0.002995
 0.570000   0.019805   -0.003756
 0.575000   0.019784   -0.004541
 0.580000   0.019760   -0.005348
 0.585000   0.019731   -0.006172
 0.590000   0.019698   -0.007011
 0.595000   0.019661   -0.007860
 0.600000   0.019619   -0.008716
 0.605000   0.019574   -0.009575
 0.610000   0.019524   -0.010435
 0.615000   0.019469   -0.011296
 0.620000   0.019411   -0.012159
 0.625000   0.019348   -0.013026
 0.630000   0.019280   -0.013892
 0.635000   0.019209   -0.014754
 0.640000   0.019133   -0.015608
 0.645000   0.019053   -0.016451
 0.650000   0.018968   -0.017285
 0.655000   0.018880   -0.018097
 0.660000   0.018787   -0.018873
 0.665000   0.018691   -0.019624
 0.670000   0.018591   -0.020385
 0.675000   0.018487   -0.021217
 0.680000   0.018379   -0.022285
 0.685000   0.018264   -0.023665
 0.690000   0.018142   -0.025263
 0.695000   0.018012   -0.027029
 0.700000   0.017872   -0.028935
 0.705000   0.017722   -0.030924
 0.710000   0.017563   -0.033042
 0.715000   0.017392   -0.035142
 0.720000   0.017211   -0.036934
 0.725000   0.017023   -0.038374
 0.730000   0.016828   -0.039444
 0.735000   0.016628   -0.040068
 0.740000   0.016427   -0.040195
 0.745000   0.016226   -0.039720
 0.750000   0.016030   -0.038620
 0.755000   0.015840   -0.037016
 0.760000   0.015660   -0.035007
 0.765000   0.015490   -0.032684
 0.770000   0.015333   -0.030089
 0.775000   0.015189   -0.027321
 0.780000   0.015060   -0.024651
 0.785000   0.014943   -0.022196
 0.790000   0.014838   -0.019928
 0.795000   0.014743   -0.017876
 0.800000   0.014659   -0.016042
 0.805000   0.014583   -0.014446
 0.810000   0.014514   -0.013119
 0.815000   0.014452   -0.011984
 0.820000   0.014395   -0.010943
 0.825000   0.014342   -0.009965
 0.830000   0.014295   -0.009040
 0.835000   0.014252   -0.008170
 0.840000   0.014213   -0.007361
 0.845000   0.014178   -0.006612
 0.850000   0.014147   -0.005922
 0.855000   0.014119   -0.005296
 0.860000   0.014094   -0.004739
 0.865000   0.014072   -0.004274
 0.870000   0.014051   -0.003912
 0.875000   0.014033   -0.003651
 0.880000   0.014015   -0.003501
 0.885000   0.013998   -0.003484
 0.890000   0.013980   -0.003640
 0.895000   0.013961   -0.004079
 0.900000   0.013939   -0.004898
 0.905000   0.013912   -0.006233
 0.910000   0.013877   -0.008366
 0.915000   0.013829   -0.011707
 0.920000   0.013760   -0.016867
 0.925000   0.013660   -0.025139
 0.930000   0.013508   -0.037596
 0.935000   0.013284   -0.055173
 0.940000   0.012957   -0.079121
 0.945000   0.012493   -0.109745
 0.950000   0.011859   -0.145717
 0.955000   0.011036   -0.185053
 0.960000   0.010009   -0.220725
 0.965000   0.008828   -0.243515
 0.970000   0.007574   -0.248964
 0.975000   0.006339   -0.236548
 0.980000   0.005208   -0.210316
 0.985000   0.004235   -0.177166
 0.990000   0.003436   -0.143447
 0.995000   0.002801   -0.113648
 1.000000   0.002300   -0.086763
201 psinorm vtor1(km/s) dvtor1/dpsiN
 0.000000   120.341874   582.320200
 0.005000   122.601425   321.499912
 0.010000   123.556874   168.205948
 0.015000   124.283484   132.699393
 0.020000   124.883867   112.052543
 0.025000   125.404010   98.744006
 0.030000   125.871308   89.223628
 0.035000   126.296246   81.119654
 0.040000   126.682504   74.329665
 0.045000   127.039543   68.862279
 0.050000   127.371127   63.944755
 0.055000   127.678990   59.331830
 0.060000   127.964445   55.229026
 0.065000   128.231280   51.645898
 0.070000   128.480904   48.147826
 0.075000   128.712759   44.830368
 0.080000   128.929208   41.834967
 0.085000   129.131108   38.999111
 0.090000   129.319199   36.157702
 0.095000   129.492685   33.434323
 0.100000   129.653542   30.925235
 0.105000   129.801938   28.425907
 0.110000   129.937801   25.919832
 0.115000   130.061136   23.523797
 0.120000   130.173039   21.201874
 0.125000   130.273155   18.815387
 0.130000   130.361193   16.471759
 0.135000   130.437872   14.142495
 0.140000   130.502618   11.711182
 0.145000   130.554984   9.197071
 0.150000   130.594589   6.621618
 0.155000   130.621200   3.945633
 0.160000   130.634045   1.055966
 0.165000   130.631760   -2.002171
 0.170000   130.614023   -5.115814
 0.175000   130.580602   -8.313916
 0.180000   130.530884   -11.632299
 0.185000   130.464279   -15.016803
 0.190000   130.380716   -18.445175
 0.195000   130.279827   -21.904406
 0.200000   130.161672   -25.251902
 0.205000   130.027308   -28.402929
 0.210000   129.877643   -31.363929
 0.215000   129.713669   -34.120823
 0.220000   129.536435   -36.566511
 0.225000   129.348004   -38.545832
 0.230000   129.150976   -40.192406
 0.235000   128.946080   -41.605619
 0.240000   128.734920   -42.697824
 0.245000   128.519101   -43.489973
 0.250000   128.300020   -43.993620
 0.255000   128.079165   -44.057999
 0.260000   127.859440   -43.946701
 0.265000   127.639698   -43.909043
 0.270000   127.420350   -43.814693
 0.275000   127.201551   -43.713079
 0.280000   126.983219   -43.667010
 0.285000   126.764881   -43.726649
 0.290000   126.545953   -44.136917
 0.295000   126.323512   -44.997772
 0.300000   126.095975   -46.167125
 0.305000   125.861841   -47.611532
 0.310000   125.619860   -49.255571
 0.315000   125.369285   -51.113941
 0.320000   125.108720   -53.082097
 0.325000   124.838464   -55.037411
 0.330000   124.558346   -57.022516
 0.335000   124.268239   -59.033590
 0.340000   123.968010   -61.062133
 0.345000   123.657618   -63.133503
 0.350000   123.336675   -65.121919
 0.355000   123.006398   -66.928207
 0.360000   122.667393   -68.612941
 0.365000   122.320269   -70.148228
 0.370000   121.965911   -71.503359
 0.375000   121.605235   -72.652072
 0.380000   121.239390   -73.538201
 0.385000   120.869853   -74.159382
 0.390000   120.497796   -74.547532
 0.395000   120.124378   -74.709701
 0.400000   119.750699   -74.655683
 0.405000   119.377821   -74.302987
 0.410000   119.007669   -73.861852
 0.415000   118.639203   -73.902888
 0.420000   118.268640   -74.822421
 0.425000   117.890978   -76.821970
 0.430000   117.500421   -80.017236
 0.435000   117.090806   -84.823072
 0.440000   116.652190   -91.266907
 0.445000   116.178137   -98.507144
 0.450000   115.667119   -106.225075
 0.455000   115.115886   -114.506747
 0.460000   114.522051   -123.162151
 0.465000   113.884265   -132.440874
 0.470000   113.197642   -142.099985
 0.475000   112.463265   -150.767438
 0.480000   111.689968   -158.075975
 0.485000   110.882505   -164.304438
 0.490000   110.046924   -169.196745
 0.495000   109.190538   -172.604173
 0.500000   108.320882   -174.232885
 0.505000   107.448209   -173.949471
 0.510000   106.581387   -172.285434
 0.515000   105.725354   -169.717407
 0.520000   104.884213   -166.377694
 0.525000   104.061578   -162.292528
 0.530000   103.261288   -157.388046
 0.535000   102.487697   -152.044809
 0.540000   101.740840   -146.603622
 0.545000   101.021661   -141.040356
 0.550000   100.330436   -135.472525
 0.555000   99.666936   -129.959360
 0.560000   99.030843   -124.451077
 0.565000   98.422425   -119.385326
 0.570000   97.836989   -115.021332
 0.575000   97.272212   -111.145658
 0.580000   96.725533   -107.788303
 0.585000   96.194328   -104.972720
 0.590000   95.675806   -102.716049
 0.595000   95.167168   -100.861936
 0.600000   94.667186   -99.163456
 0.605000   94.175533   -97.526560
 0.610000   93.691921   -95.952983
 0.615000   93.216004   -94.467376
 0.620000   92.747247   -93.010425
 0.625000   92.285899   -91.674426
 0.630000   91.830503   -90.593774
 0.635000   91.379962   -89.734280
 0.640000   90.933160   -89.112728
 0.645000   90.488834   -88.751671
 0.650000   90.045643   -88.612517
 0.655000   89.602709   -88.877237
 0.660000   89.156871   -89.740687
 0.665000   88.705302   -91.171689
 0.670000   88.245154   -93.188618
 0.675000   87.773416   -95.809288
 0.680000   87.287061   -99.117805
 0.685000   86.782238   -102.808159
 0.690000   86.258979   -106.418576
 0.695000   85.718052   -109.950961
 0.700000   85.159470   -113.501640
 0.705000   84.583036   -117.125481
 0.710000   83.988215   -120.870188
 0.715000   83.374334   -124.705636
 0.720000   82.741159   -128.575612
 0.725000   82.088578   -132.456361
 0.730000   81.416595   -136.318843
 0.735000   80.725389   -140.127258
 0.740000   80.015322   -143.842110
 0.745000   79.286968   -147.451419
 0.750000   78.540808   -151.089273
 0.755000   77.776076   -155.066466
 0.760000   76.990143   -159.705326
 0.765000   76.179022   -165.217152
 0.770000   75.337972   -171.946806
 0.775000   74.459554   -179.768320
 0.780000   73.540289   -187.371389
 0.785000   72.585840   -194.017704
 0.790000   71.600112   -199.737358
 0.795000   70.588467   -204.284349
 0.800000   69.557268   -207.679133
 0.805000   68.511676   -210.325753
 0.810000   67.454011   -212.177830
 0.815000   66.389897   -213.137299
 0.820000   65.322638   -213.299916
 0.825000   64.256898   -212.374059
 0.830000   63.198897   -210.271830
 0.835000   62.154180   -207.146925
 0.840000   61.127428   -202.187155
 0.845000   60.132308   -195.616456
 0.850000   59.171263   -188.886871
 0.855000   58.243440   -182.684227
 0.860000   57.344421   -178.008266
 0.865000   56.463357   -177.102596
 0.870000   55.573395   -180.766650
 0.875000   54.655690   -191.042411
 0.880000   53.662971   -213.002842
 0.885000   52.525662   -251.191898
 0.890000   51.151052   -309.872852
 0.895000   49.426933   -393.581853
 0.900000   47.215233   -500.524359
 0.905000   44.421690   -624.454539
 0.910000   40.970688   -757.673666
 0.915000   36.844953   -886.520340
 0.920000   32.105485   -994.371238
 0.925000   26.901241   -1063.745146
 0.930000   21.468033   -1078.569580
 0.935000   16.115545   -1030.663756
 0.940000   11.161396   -922.316096
 0.945000   6.892384   -764.215975
 0.950000   3.519236   -574.585157
 0.955000   1.146532   -374.576979
 0.960000   -0.226534   -187.693702
 0.965000   -0.730405   -31.587350
 0.970000   -0.542407   86.957986
 0.975000   0.139175   166.352339
 0.980000   1.121116   209.535751
 0.985000   2.234533   221.160257
 0.990000   3.332719   209.133401
 0.995000   4.325867   182.533840
 1.000000   5.158057   150.342213
201 psinorm vpol1(km/s) dvpol1/dpsiN
 0.000000   -0.000088   6.280664
 0.005000   0.032799   6.874023
 0.010000   0.068652   7.443359
 0.015000   0.107232   7.950195
 0.020000   0.148154   8.371875
 0.025000   0.190951   8.683594
 0.030000   0.234990   8.866406
 0.035000   0.279615   8.958594
 0.040000   0.324576   9.004102
 0.045000   0.369656   9.028906
 0.050000   0.414865   9.076562
 0.055000   0.460422   9.182422
 0.060000   0.506689   9.377930
 0.065000   0.554201   9.642383
 0.070000   0.603113   9.928125
 0.075000   0.653482   10.216602
 0.080000   0.705279   10.488672
 0.085000   0.758369   10.729102
 0.090000   0.812570   10.909375
 0.095000   0.867463   11.015234
 0.100000   0.922723   11.064648
 0.105000   0.978109   11.087109
 0.110000   1.033594   11.113867
 0.115000   1.089248   11.183008
 0.120000   1.145424   11.334961
 0.125000   1.202598   11.563672
 0.130000   1.261061   11.839062
 0.135000   1.320988   12.136914
 0.140000   1.382430   12.434766
 0.145000   1.445336   12.722266
 0.150000   1.509652   12.936914
 0.155000   1.574705   13.023438
 0.160000   1.639887   12.987500
 0.165000   1.704580   12.819727
 0.170000   1.768084   12.499023
 0.175000   1.829570   11.974609
 0.180000   1.887830   11.261914
 0.185000   1.942189   10.442969
 0.190000   1.992260   9.555664
 0.195000   2.037746   8.637305
 0.200000   2.078633   7.726367
 0.205000   2.115010   6.842969
 0.210000   2.147063   6.083789
 0.215000   2.175848   5.475000
 0.220000   2.201812   4.941602
 0.225000   2.225264   4.438281
 0.230000   2.246195   3.918359
 0.235000   2.264447   3.357422
 0.240000   2.279770   2.723047
 0.245000   2.291678   2.011133
 0.250000   2.299881   1.240430
 0.255000   2.304082   0.417773
 0.260000   2.304059   -0.441406
 0.265000   2.299668   -1.329102
 0.270000   2.290768   -2.252539
 0.275000   2.277143   -3.217383
 0.280000   2.258594   -4.235937
 0.285000   2.234783   -5.314453
 0.290000   2.205449   -6.458594
 0.295000   2.170197   -7.674219
 0.300000   2.128707   -8.943555
 0.305000   2.080762   -10.263867
 0.310000   2.026068   -11.628320
 0.315000   1.964479   -13.023633
 0.320000   1.895832   -14.428320
 0.325000   1.820195   -15.758594
 0.330000   1.738246   -16.925586
 0.335000   1.650939   -17.883203
 0.340000   1.559414   -18.614648
 0.345000   1.464793   -19.140820
 0.350000   1.368006   -19.477344
 0.355000   1.270020   -19.809570
 0.360000   1.169910   -20.315430
 0.365000   1.066865   -20.995508
 0.370000   0.959955   -21.883398
 0.375000   0.848031   -23.023828
 0.380000   0.729717   -24.545703
 0.385000   0.602574   -26.289453
 0.390000   0.466822   -27.946875
 0.395000   0.323105   -29.444727
 0.400000   0.172375   -30.711719
 0.405000   0.015988   -31.681250
 0.410000   -0.144437   -32.354297
 0.415000   -0.307555   -33.141211
 0.420000   -0.475850   -34.547461
 0.425000   -0.653029   -36.746484
 0.430000   -0.843314   -39.799805
 0.435000   -1.051027   -43.789844
 0.440000   -1.281213   -49.014453
 0.445000   -1.541172   -54.678906
 0.450000   -1.828002   -59.951367
 0.455000   -2.140686   -64.814453
 0.460000   -2.476146   -68.839453
 0.465000   -2.829080   -71.606836
 0.470000   -3.192215   -72.360156
 0.475000   -3.552682   -70.472461
 0.480000   -3.896939   -66.269336
 0.485000   -4.215375   -60.375195
 0.490000   -4.500691   -53.302734
 0.495000   -4.748402   -45.360937
 0.500000   -4.954301   -37.161328
 0.505000   -5.120016   -29.847461
 0.510000   -5.252775   -23.792383
 0.515000   -5.357939   -18.829883
 0.520000   -5.441074   -14.956641
 0.525000   -5.507506   -12.101953
 0.530000   -5.562094   -10.283398
 0.535000   -5.610340   -9.191797
 0.540000   -5.654012   -8.290039
 0.545000   -5.693240   -7.349219
 0.550000   -5.727504   -6.261328
 0.555000   -5.755854   -4.976562
 0.560000   -5.777270   -3.429492
 0.565000   -5.790148   -1.602539
 0.570000   -5.793295   0.429297
 0.575000   -5.785855   2.592871
 0.580000   -5.767366   4.801563
 0.585000   -5.737840   6.931641
 0.590000   -5.698050   8.855664
 0.595000   -5.649283   10.496777
 0.600000   -5.593082   11.809766
 0.605000   -5.531186   12.769141
 0.610000   -5.465391   13.377539
 0.615000   -5.397410   13.585938
 0.620000   -5.329531   13.577832
 0.625000   -5.261632   13.543652
 0.630000   -5.194095   13.475977
 0.635000   -5.126872   13.445801
 0.640000   -5.059637   13.501758
 0.645000   -4.991854   13.659961
 0.650000   -4.923037   13.866016
 0.655000   -4.853194   14.047559
 0.660000   -4.782562   14.179883
 0.665000   -4.711396   14.265234
 0.670000   -4.639909   14.326660
 0.675000   -4.568129   14.459668
 0.680000   -4.495312   14.745508
 0.685000   -4.420674   15.172559
 0.690000   -4.343587   15.705078
 0.695000   -4.263623   16.286328
 0.700000   -4.180724   16.907813
 0.705000   -4.094545   17.460059
 0.710000   -4.006123   17.692480
 0.715000   -3.917620   17.523535
 0.720000   -3.830888   16.961719
 0.725000   -3.748003   15.981396
 0.730000   -3.671074   14.577979
 0.735000   -3.602223   12.763428
 0.740000   -3.543439   10.647021
 0.745000   -3.495753   8.393359
 0.750000   -3.459506   6.117676
 0.755000   -3.434576   3.929443
 0.760000   -3.420211   1.918848
 0.765000   -3.415388   0.118652
 0.770000   -3.419025   -1.585498
 0.775000   -3.431243   -3.438208
 0.780000   -3.453407   -5.696436
 0.785000   -3.488207   -8.629932
 0.790000   -3.539706   -12.743127
 0.795000   -3.615638   -18.110779
 0.800000   -3.720814   -24.443192
 0.805000   -3.860070   -31.588409
 0.810000   -4.036698   -39.144482
 0.815000   -4.251515   -46.558978
 0.820000   -4.502288   -53.118015
 0.825000   -4.782695   -57.850793
 0.830000   -5.080796   -60.243347
 0.835000   -5.385129   -60.318921
 0.840000   -5.683985   -58.159399
 0.845000   -5.966723   -53.966919
 0.850000   -6.223654   -48.002393
 0.855000   -6.446747   -41.532178
 0.860000   -6.638976   -35.596631
 0.865000   -6.802713   -30.309863
 0.870000   -6.942075   -25.924316
 0.875000   -7.061956   -22.531885
 0.880000   -7.167394   -20.084277
 0.885000   -7.262799   -18.013281
 0.890000   -7.347526   -15.638379
 0.895000   -7.419183   -12.616309
 0.900000   -7.473689   -8.525586
 0.905000   -7.504438   -2.705469
 0.910000   -7.500744   5.938281
 0.915000   -7.445056   18.482422
 0.920000   -7.315920   35.730859
 0.925000   -7.087747   58.429883
 0.930000   -6.731621   86.843457
 0.935000   -6.219313   121.417773
 0.940000   -5.517443   156.852930
 0.945000   -4.650783   180.219531
 0.950000   -3.715248   177.799414
 0.955000   -2.872789   138.989258
 0.960000   -2.325355   65.249219
 0.965000   -2.220297   -19.162109
 0.970000   -2.516977   -66.027344
 0.975000   -2.880570   -27.327344
 0.980000   -2.790250   102.891406
 0.985000   -1.851656   269.146484
 0.990000   -0.098785   381.130469
 0.995000   1.959648   369.969922
 1.000000   3.600914   286.536328
3 N Z A of ION SPECIES
 6.000000   6.000000   12.010700
 1.000000   1.000000   2.000000
 1.000000   1.000000   2.000000
