201 psinorm ne(10^20/m^3) dne/dpsiN
 0.000000   0.525143   -0.614646
 0.005000   0.522086   -0.608371
 0.010000   0.519060   -0.602130
 0.015000   0.516064   -0.595956
 0.020000   0.513100   -0.589849
 0.025000   0.510166   -0.583808
 0.030000   0.507262   -0.577832
 0.035000   0.504388   -0.571920
 0.040000   0.501543   -0.566071
 0.045000   0.498727   -0.560284
 0.050000   0.495940   -0.554559
 0.055000   0.493181   -0.548895
 0.060000   0.490451   -0.543291
 0.065000   0.487748   -0.537747
 0.070000   0.485073   -0.532261
 0.075000   0.482426   -0.526832
 0.080000   0.479805   -0.521461
 0.085000   0.477211   -0.516146
 0.090000   0.474644   -0.510886
 0.095000   0.472102   -0.505682
 0.100000   0.469587   -0.500531
 0.105000   0.467097   -0.495435
 0.110000   0.464632   -0.490390
 0.115000   0.462193   -0.485399
 0.120000   0.459778   -0.480458
 0.125000   0.457388   -0.475568
 0.130000   0.455023   -0.470729
 0.135000   0.452681   -0.465939
 0.140000   0.450363   -0.461198
 0.145000   0.448069   -0.456505
 0.150000   0.445798   -0.451860
 0.155000   0.443551   -0.447261
 0.160000   0.441326   -0.442710
 0.165000   0.439124   -0.438204
 0.170000   0.436944   -0.433743
 0.175000   0.434786   -0.429328
 0.180000   0.432650   -0.424956
 0.185000   0.430537   -0.420628
 0.190000   0.428444   -0.416343
 0.195000   0.426373   -0.412100
 0.200000   0.424323   -0.407900
 0.205000   0.422294   -0.403741
 0.210000   0.420286   -0.399622
 0.215000   0.418298   -0.395544
 0.220000   0.416330   -0.391506
 0.225000   0.414383   -0.387508
 0.230000   0.412455   -0.383548
 0.235000   0.410547   -0.379627
 0.240000   0.408659   -0.375743
 0.245000   0.406790   -0.371897
 0.250000   0.404940   -0.368088
 0.255000   0.403109   -0.364315
 0.260000   0.401297   -0.360579
 0.265000   0.399503   -0.356878
 0.270000   0.397728   -0.353212
 0.275000   0.395971   -0.349580
 0.280000   0.394232   -0.345983
 0.285000   0.392511   -0.342420
 0.290000   0.390808   -0.338890
 0.295000   0.389122   -0.335393
 0.300000   0.387454   -0.331929
 0.305000   0.385803   -0.328497
 0.310000   0.384169   -0.325096
 0.315000   0.382552   -0.321727
 0.320000   0.380952   -0.318389
 0.325000   0.379368   -0.315081
 0.330000   0.377801   -0.311804
 0.335000   0.376250   -0.308556
 0.340000   0.374716   -0.305338
 0.345000   0.373197   -0.302148
 0.350000   0.371694   -0.298987
 0.355000   0.370207   -0.295855
 0.360000   0.368735   -0.292751
 0.365000   0.367279   -0.289674
 0.370000   0.365839   -0.286624
 0.375000   0.364413   -0.283601
 0.380000   0.363003   -0.280605
 0.385000   0.361607   -0.277635
 0.390000   0.360226   -0.274691
 0.395000   0.358860   -0.271772
 0.400000   0.357509   -0.268879
 0.405000   0.356171   -0.266010
 0.410000   0.354849   -0.263166
 0.415000   0.353540   -0.260347
 0.420000   0.352245   -0.257551
 0.425000   0.350964   -0.254779
 0.430000   0.349697   -0.252030
 0.435000   0.348444   -0.249305
 0.440000   0.347204   -0.246602
 0.445000   0.345978   -0.243921
 0.450000   0.344765   -0.241263
 0.455000   0.343565   -0.238626
 0.460000   0.342379   -0.236012
 0.465000   0.341205   -0.233418
 0.470000   0.340045   -0.230846
 0.475000   0.338897   -0.228294
 0.480000   0.337762   -0.225763
 0.485000   0.336639   -0.223252
 0.490000   0.335529   -0.220761
 0.495000   0.334432   -0.218290
 0.500000   0.333346   -0.215838
 0.505000   0.332273   -0.213405
 0.510000   0.331212   -0.210991
 0.515000   0.330163   -0.208596
 0.520000   0.329126   -0.206220
 0.525000   0.328101   -0.203862
 0.530000   0.327088   -0.201521
 0.535000   0.326086   -0.199199
 0.540000   0.325096   -0.196893
 0.545000   0.324117   -0.194605
 0.550000   0.323150   -0.192335
 0.555000   0.322194   -0.190080
 0.560000   0.321249   -0.187843
 0.565000   0.320315   -0.185622
 0.570000   0.319393   -0.183417
 0.575000   0.318481   -0.181227
 0.580000   0.317580   -0.179054
 0.585000   0.316690   -0.176896
 0.590000   0.315811   -0.174753
 0.595000   0.314943   -0.172625
 0.600000   0.314085   -0.170513
 0.605000   0.313238   -0.168414
 0.610000   0.312401   -0.166330
 0.615000   0.311574   -0.164261
 0.620000   0.310758   -0.162205
 0.625000   0.309952   -0.160164
 0.630000   0.309157   -0.158135
 0.635000   0.308371   -0.156121
 0.640000   0.307595   -0.154119
 0.645000   0.306830   -0.152131
 0.650000   0.306074   -0.150156
 0.655000   0.305328   -0.148193
 0.660000   0.304592   -0.146242
 0.665000   0.303866   -0.144304
 0.670000   0.303149   -0.142379
 0.675000   0.302442   -0.140465
 0.680000   0.301745   -0.138563
 0.685000   0.301056   -0.136672
 0.690000   0.300378   -0.134793
 0.695000   0.299709   -0.132925
 0.700000   0.299049   -0.131068
 0.705000   0.298398   -0.129222
 0.710000   0.297756   -0.127387
 0.715000   0.297124   -0.125562
 0.720000   0.296501   -0.123748
 0.725000   0.295886   -0.121944
 0.730000   0.295281   -0.120149
 0.735000   0.294685   -0.118365
 0.740000   0.294098   -0.116589
 0.745000   0.293519   -0.114823
 0.750000   0.292949   -0.113066
 0.755000   0.292388   -0.111316
 0.760000   0.291836   -0.109575
 0.765000   0.291293   -0.107840
 0.770000   0.290758   -0.106111
 0.775000   0.290232   -0.104387
 0.780000   0.289714   -0.102665
 0.785000   0.289205   -0.100943
 0.790000   0.288705   -0.099218
 0.795000   0.288213   -0.097483
 0.800000   0.287730   -0.095733
 0.805000   0.287255   -0.093957
 0.810000   0.286790   -0.092141
 0.815000   0.286334   -0.090266
 0.820000   0.285887   -0.088305
 0.825000   0.285451   -0.086220
 0.830000   0.285025   -0.083961
 0.835000   0.284611   -0.081455
 0.840000   0.284211   -0.078605
 0.845000   0.283825   -0.075276
 0.850000   0.283458   -0.071286
 0.855000   0.283112   -0.066388
 0.860000   0.282794   -0.060252
 0.865000   0.282510   -0.052443
 0.870000   0.282270   -0.042389
 0.875000   0.282086   -0.029361
 0.880000   0.281976   -0.012445
 0.885000   0.281962   0.009459
 0.890000   0.282071   0.037598
 0.895000   0.282338   0.073242
 0.900000   0.282803   0.117393
 0.905000   0.283512   0.170181
 0.910000   0.284505   0.229731
 0.915000   0.285809   0.290135
 0.920000   0.287406   0.338123
 0.925000   0.289190   0.348151
 0.930000   0.290888   0.276670
 0.935000   0.291957   0.059113
 0.940000   0.291479   -0.381562
 0.945000   0.288141   -1.101924
 0.950000   0.280460   -2.078042
 0.955000   0.267361   -3.153271
 0.960000   0.248927   -4.064645
 0.965000   0.226714   -4.573143
 0.970000   0.203195   -4.601188
 0.975000   0.180702   -4.250420
 0.980000   0.160691   -3.703130
 0.985000   0.143671   -3.116987
 0.990000   0.129521   -2.582985
 0.995000   0.117841   -2.134903
 1.000000   0.108172   -1.732631
201 psinorm te(KeV) dte/dpsiN
 0.000000   4.020945   -2.967530
 0.005000   4.006059   -2.986815
 0.010000   3.991077   -3.005950
 0.015000   3.976000   -3.024786
 0.020000   3.960829   -3.043321
 0.025000   3.945566   -3.061554
 0.030000   3.930213   -3.079485
 0.035000   3.914772   -3.097112
 0.040000   3.899242   -3.114434
 0.045000   3.883627   -3.131452
 0.050000   3.867928   -3.148164
 0.055000   3.852146   -3.164570
 0.060000   3.836282   -3.180668
 0.065000   3.820339   -3.196459
 0.070000   3.804317   -3.211942
 0.075000   3.788219   -3.227116
 0.080000   3.772046   -3.241981
 0.085000   3.755800   -3.256537
 0.090000   3.739481   -3.270783
 0.095000   3.723092   -3.284719
 0.100000   3.706634   -3.298345
 0.105000   3.690108   -3.311660
 0.110000   3.673517   -3.324665
 0.115000   3.656862   -3.337359
 0.120000   3.640144   -3.349743
 0.125000   3.623364   -3.361816
 0.130000   3.606525   -3.373579
 0.135000   3.589629   -3.385031
 0.140000   3.572675   -3.396172
 0.145000   3.555667   -3.407004
 0.150000   3.538605   -3.417526
 0.155000   3.521492   -3.427738
 0.160000   3.504328   -3.437641
 0.165000   3.487115   -3.447235
 0.170000   3.469855   -3.456521
 0.175000   3.452550   -3.465499
 0.180000   3.435200   -3.474169
 0.185000   3.417808   -3.482533
 0.190000   3.400375   -3.490590
 0.195000   3.382902   -3.498342
 0.200000   3.365392   -3.505788
 0.205000   3.347844   -3.512931
 0.210000   3.330262   -3.519770
 0.215000   3.312647   -3.526306
 0.220000   3.294999   -3.532541
 0.225000   3.277321   -3.538475
 0.230000   3.259614   -3.544109
 0.235000   3.241880   -3.549444
 0.240000   3.224120   -3.554481
 0.245000   3.206335   -3.559221
 0.250000   3.188528   -3.563666
 0.255000   3.170699   -3.567816
 0.260000   3.152850   -3.571672
 0.265000   3.134982   -3.575236
 0.270000   3.117097   -3.578509
 0.275000   3.099197   -3.581493
 0.280000   3.081282   -3.584188
 0.285000   3.063355   -3.586596
 0.290000   3.045416   -3.588719
 0.295000   3.027468   -3.590558
 0.300000   3.009511   -3.592113
 0.305000   2.991547   -3.593388
 0.310000   2.973577   -3.594383
 0.315000   2.955603   -3.595099
 0.320000   2.937626   -3.595540
 0.325000   2.919648   -3.595705
 0.330000   2.901669   -3.595597
 0.335000   2.883692   -3.595218
 0.340000   2.865717   -3.594569
 0.345000   2.847746   -3.593652
 0.350000   2.829780   -3.592468
 0.355000   2.811821   -3.591020
 0.360000   2.793870   -3.589310
 0.365000   2.775928   -3.587339
 0.370000   2.757997   -3.585109
 0.375000   2.740077   -3.582622
 0.380000   2.722170   -3.579880
 0.385000   2.704278   -3.576885
 0.390000   2.686402   -3.573640
 0.395000   2.668542   -3.570145
 0.400000   2.650700   -3.566403
 0.405000   2.632878   -3.562417
 0.410000   2.615076   -3.558188
 0.415000   2.597296   -3.553718
 0.420000   2.579539   -3.549010
 0.425000   2.561806   -3.544065
 0.430000   2.544098   -3.538887
 0.435000   2.526417   -3.533476
 0.440000   2.508763   -3.527836
 0.445000   2.491139   -3.521969
 0.450000   2.473544   -3.515876
 0.455000   2.455980   -3.509560
 0.460000   2.438448   -3.503024
 0.465000   2.420950   -3.496270
 0.470000   2.403485   -3.489300
 0.475000   2.386057   -3.482116
 0.480000   2.368664   -3.474721
 0.485000   2.351309   -3.467117
 0.490000   2.333993   -3.459306
 0.495000   2.316716   -3.451292
 0.500000   2.299480   -3.443076
 0.505000   2.282286   -3.434660
 0.510000   2.265134   -3.426048
 0.515000   2.248025   -3.417242
 0.520000   2.230961   -3.408244
 0.525000   2.213943   -3.399056
 0.530000   2.196971   -3.389682
 0.535000   2.180046   -3.380124
 0.540000   2.163169   -3.370383
 0.545000   2.146342   -3.360463
 0.550000   2.129565   -3.350366
 0.555000   2.112838   -3.340095
 0.560000   2.096164   -3.329653
 0.565000   2.079542   -3.319041
 0.570000   2.062973   -3.308262
 0.575000   2.046459   -3.297319
 0.580000   2.030000   -3.286215
 0.585000   2.013597   -3.274952
 0.590000   1.997251   -3.263532
 0.595000   1.980962   -3.251958
 0.600000   1.964731   -3.240233
 0.605000   1.948559   -3.228360
 0.610000   1.932447   -3.216340
 0.615000   1.916396   -3.204176
 0.620000   1.900406   -3.191872
 0.625000   1.884477   -3.179429
 0.630000   1.868611   -3.166850
 0.635000   1.852809   -3.154138
 0.640000   1.837070   -3.141295
 0.645000   1.821396   -3.128324
 0.650000   1.805787   -3.115227
 0.655000   1.790244   -3.102007
 0.660000   1.774767   -3.088667
 0.665000   1.759357   -3.075209
 0.670000   1.744015   -3.061635
 0.675000   1.728740   -3.047949
 0.680000   1.713535   -3.034152
 0.685000   1.698399   -3.020248
 0.690000   1.683333   -3.006238
 0.695000   1.668337   -2.992126
 0.700000   1.653411   -2.977913
 0.705000   1.638557   -2.963603
 0.710000   1.623775   -2.949197
 0.715000   1.609065   -2.934699
 0.720000   1.594428   -2.920111
 0.725000   1.579864   -2.905434
 0.730000   1.565374   -2.890673
 0.735000   1.550958   -2.875829
 0.740000   1.536616   -2.860904
 0.745000   1.522349   -2.845901
 0.750000   1.508157   -2.830823
 0.755000   1.494040   -2.815672
 0.760000   1.480000   -2.800450
 0.765000   1.466036   -2.785160
 0.770000   1.452148   -2.769804
 0.775000   1.438338   -2.754384
 0.780000   1.424605   -2.738903
 0.785000   1.410949   -2.723363
 0.790000   1.397371   -2.707767
 0.795000   1.383871   -2.692116
 0.800000   1.370450   -2.676414
 0.805000   1.357107   -2.660662
 0.810000   1.343843   -2.644862
 0.815000   1.330658   -2.629017
 0.820000   1.317553   -2.613130
 0.825000   1.304527   -2.597202
 0.830000   1.291581   -2.581235
 0.835000   1.278715   -2.565232
 0.840000   1.265929   -2.549195
 0.845000   1.253223   -2.533126
 0.850000   1.240597   -2.517027
 0.855000   1.228053   -2.500900
 0.860000   1.215588   -2.484748
 0.865000   1.203205   -2.468573
 0.870000   1.190903   -2.452375
 0.875000   1.178681   -2.436159
 0.880000   1.166541   -2.419925
 0.885000   1.154482   -2.403675
 0.890000   1.142504   -2.387410
 0.895000   1.130608   -2.371131
 0.900000   1.118793   -2.354836
 0.905000   1.107060   -2.338522
 0.910000   1.095408   -2.322181
 0.915000   1.083838   -2.305804
 0.920000   1.072350   -2.289408
 0.925000   1.060944   -2.273123
 0.930000   1.049618   -2.257536
 0.935000   1.038368   -2.244794
 0.940000   1.027171   -2.242060
 0.945000   1.015948   -2.271970
 0.950000   1.004451   -2.403372
 0.955000   0.991914   -2.838475
 0.960000   0.976066   -4.143331
 0.965000   0.950481   -7.749427
 0.970000   0.898572   -16.392252
 0.975000   0.786558   -31.488525
 0.980000   0.583687   -44.242911
 0.985000   0.344129   -40.138749
 0.990000   0.182299   -23.473463
 0.995000   0.109394   -10.294234
 1.000000   0.079357   -1.720838
201 psinorm ni(10^20/m^3) dni/dpsiN
 0.000000   0.334476   -0.762330
 0.005000   0.330928   -0.656784
 0.010000   0.327908   -0.566245
 0.015000   0.325266   -0.496518
 0.020000   0.322943   -0.436904
 0.025000   0.320897   -0.384499
 0.030000   0.319098   -0.338617
 0.035000   0.317511   -0.299160
 0.040000   0.316106   -0.264114
 0.045000   0.314869   -0.233352
 0.050000   0.313773   -0.207189
 0.055000   0.312798   -0.184332
 0.060000   0.311930   -0.165052
 0.065000   0.311147   -0.148974
 0.070000   0.310440   -0.135559
 0.075000   0.309791   -0.124885
 0.080000   0.309191   -0.116268
 0.085000   0.308629   -0.109355
 0.090000   0.308097   -0.104301
 0.095000   0.307586   -0.100896
 0.100000   0.307089   -0.098655
 0.105000   0.306599   -0.097469
 0.110000   0.306114   -0.097247
 0.115000   0.305627   -0.098128
 0.120000   0.305133   -0.100135
 0.125000   0.304625   -0.102779
 0.130000   0.304105   -0.105700
 0.135000   0.303568   -0.109064
 0.140000   0.303014   -0.112818
 0.145000   0.302440   -0.116852
 0.150000   0.301846   -0.121165
 0.155000   0.301229   -0.125707
 0.160000   0.300589   -0.130349
 0.165000   0.299925   -0.135062
 0.170000   0.299238   -0.139828
 0.175000   0.298527   -0.144587
 0.180000   0.297792   -0.149308
 0.185000   0.297034   -0.153959
 0.190000   0.296252   -0.158527
 0.195000   0.295448   -0.163003
 0.200000   0.294622   -0.167636
 0.205000   0.293772   -0.172299
 0.210000   0.292899   -0.176554
 0.215000   0.292007   -0.180502
 0.220000   0.291094   -0.184296
 0.225000   0.290164   -0.187912
 0.230000   0.289215   -0.191313
 0.235000   0.288250   -0.194487
 0.240000   0.287270   -0.197567
 0.245000   0.286275   -0.200840
 0.250000   0.285262   -0.203792
 0.255000   0.284237   -0.206162
 0.260000   0.283200   -0.208395
 0.265000   0.282153   -0.210526
 0.270000   0.281095   -0.212563
 0.275000   0.280027   -0.214937
 0.280000   0.278946   -0.217185
 0.285000   0.277855   -0.218886
 0.290000   0.276757   -0.220519
 0.295000   0.275650   -0.222099
 0.300000   0.274536   -0.223830
 0.305000   0.273412   -0.225609
 0.310000   0.272280   -0.227077
 0.315000   0.271141   -0.228344
 0.320000   0.269996   -0.229541
 0.325000   0.268846   -0.230824
 0.330000   0.267688   -0.232061
 0.335000   0.266525   -0.232989
 0.340000   0.265358   -0.233743
 0.345000   0.264188   -0.234408
 0.350000   0.263014   -0.235166
 0.355000   0.261836   -0.235809
 0.360000   0.260656   -0.236173
 0.365000   0.259474   -0.236492
 0.370000   0.258291   -0.236858
 0.375000   0.257106   -0.237233
 0.380000   0.255919   -0.237463
 0.385000   0.254731   -0.237579
 0.390000   0.253543   -0.237671
 0.395000   0.252354   -0.237762
 0.400000   0.251165   -0.237720
 0.405000   0.249977   -0.237491
 0.410000   0.248790   -0.237149
 0.415000   0.247606   -0.236758
 0.420000   0.246423   -0.236211
 0.425000   0.245244   -0.235418
 0.430000   0.244069   -0.234458
 0.435000   0.242899   -0.233396
 0.440000   0.241735   -0.232140
 0.445000   0.240578   -0.230631
 0.450000   0.239428   -0.228969
 0.455000   0.238288   -0.227240
 0.460000   0.237156   -0.225380
 0.465000   0.236034   -0.223302
 0.470000   0.234923   -0.221103
 0.475000   0.233823   -0.218893
 0.480000   0.232734   -0.216594
 0.485000   0.231657   -0.214094
 0.490000   0.230593   -0.211445
 0.495000   0.229543   -0.208715
 0.500000   0.228506   -0.205822
 0.505000   0.227485   -0.202671
 0.510000   0.226479   -0.199328
 0.515000   0.225491   -0.195876
 0.520000   0.224521   -0.192258
 0.525000   0.223569   -0.188400
 0.530000   0.222637   -0.184366
 0.535000   0.221725   -0.180241
 0.540000   0.220834   -0.175983
 0.545000   0.219965   -0.171523
 0.550000   0.219119   -0.166921
 0.555000   0.218296   -0.162239
 0.560000   0.217497   -0.157442
 0.565000   0.216722   -0.152472
 0.570000   0.215972   -0.147372
 0.575000   0.215248   -0.142193
 0.580000   0.214550   -0.136916
 0.585000   0.213879   -0.131500
 0.590000   0.213235   -0.125979
 0.595000   0.212619   -0.120404
 0.600000   0.212031   -0.114788
 0.605000   0.211471   -0.109113
 0.610000   0.210940   -0.103400
 0.615000   0.210437   -0.097692
 0.620000   0.209963   -0.092004
 0.625000   0.209517   -0.086306
 0.630000   0.209100   -0.080583
 0.635000   0.208711   -0.074845
 0.640000   0.208351   -0.069079
 0.645000   0.208020   -0.063285
 0.650000   0.207718   -0.057446
 0.655000   0.207446   -0.051590
 0.660000   0.207203   -0.045763
 0.665000   0.206988   -0.039973
 0.670000   0.206803   -0.034266
 0.675000   0.206646   -0.028663
 0.680000   0.206516   -0.023042
 0.685000   0.206415   -0.017137
 0.690000   0.206345   -0.010814
 0.695000   0.206307   -0.004041
 0.700000   0.206304   0.003212
 0.705000   0.206339   0.010889
 0.710000   0.206413   0.019215
 0.715000   0.206531   0.027851
 0.720000   0.206692   0.036035
 0.725000   0.206892   0.043669
 0.730000   0.207128   0.050711
 0.735000   0.207399   0.056981
 0.740000   0.207698   0.062318
 0.745000   0.208022   0.066291
 0.750000   0.208361   0.068556
 0.755000   0.208707   0.069251
 0.760000   0.209054   0.068565
 0.765000   0.209393   0.066553
 0.770000   0.209719   0.063130
 0.775000   0.210024   0.058364
 0.780000   0.210303   0.052981
 0.785000   0.210554   0.047528
 0.790000   0.210778   0.042116
 0.795000   0.210975   0.036945
 0.800000   0.211148   0.032088
 0.805000   0.211296   0.027728
 0.810000   0.211425   0.024286
 0.815000   0.211539   0.021767
 0.820000   0.211643   0.019882
 0.825000   0.211738   0.018525
 0.830000   0.211828   0.017592
 0.835000   0.211914   0.017029
 0.840000   0.211998   0.016845
 0.845000   0.212082   0.017162
 0.850000   0.212170   0.018189
 0.855000   0.212264   0.020175
 0.860000   0.212371   0.023461
 0.865000   0.212499   0.028601
 0.870000   0.212657   0.036300
 0.875000   0.212862   0.047412
 0.880000   0.213132   0.062959
 0.885000   0.213491   0.084072
 0.890000   0.213972   0.112035
 0.895000   0.214612   0.148432
 0.900000   0.215457   0.194351
 0.905000   0.216555   0.250146
 0.910000   0.217958   0.314677
 0.915000   0.219702   0.382853
 0.920000   0.221787   0.442664
 0.925000   0.224129   0.471972
 0.930000   0.226506   0.430181
 0.935000   0.228431   0.255920
 0.940000   0.229066   -0.121897
 0.945000   0.227212   -0.753819
 0.950000   0.221527   -1.611342
 0.955000   0.211098   -2.532635
 0.960000   0.196201   -3.268545
 0.965000   0.178413   -3.610509
 0.970000   0.160096   -3.509941
 0.975000   0.143313   -3.097225
 0.980000   0.129124   -2.569735
 0.985000   0.117616   -2.076947
 0.990000   0.108354   -1.688479
 0.995000   0.100731   -1.407568
 1.000000   0.094278   -1.173487
201 psinorm ti(KeV) dti/dpsiN
 0.000000   6.012733   0.003364
 0.005000   6.011755   -0.394633
 0.010000   6.008786   -0.797390
 0.015000   6.003781   -1.209119
 0.020000   5.996695   -1.628657
 0.025000   5.987494   -2.054746
 0.030000   5.976148   -2.486090
 0.035000   5.962633   -2.921407
 0.040000   5.946934   -3.359250
 0.045000   5.929041   -3.798486
 0.050000   5.908949   -4.238119
 0.055000   5.886660   -4.676833
 0.060000   5.862181   -5.113234
 0.065000   5.835527   -5.545623
 0.070000   5.806724   -5.971207
 0.075000   5.775815   -6.388109
 0.080000   5.742843   -6.796020
 0.085000   5.707855   -7.194080
 0.090000   5.670902   -7.581251
 0.095000   5.632042   -7.956595
 0.100000   5.591337   -8.318573
 0.105000   5.548857   -8.666345
 0.110000   5.504673   -8.999549
 0.115000   5.458861   -9.317003
 0.120000   5.411503   -9.617808
 0.125000   5.362683   -9.901422
 0.130000   5.312489   -10.166865
 0.135000   5.261014   -10.413187
 0.140000   5.208357   -10.639835
 0.145000   5.154616   -10.845975
 0.150000   5.099897   -11.030987
 0.155000   5.044306   -11.194692
 0.160000   4.987950   -11.336204
 0.165000   4.930944   -11.454757
 0.170000   4.873403   -11.551223
 0.175000   4.815432   -11.625841
 0.180000   4.757144   -11.678309
 0.185000   4.698649   -11.709285
 0.190000   4.640051   -11.718658
 0.195000   4.581462   -11.707030
 0.200000   4.522981   -11.678520
 0.205000   4.464677   -11.635698
 0.210000   4.406624   -11.579149
 0.215000   4.348886   -11.510868
 0.220000   4.291515   -11.432795
 0.225000   4.234558   -11.347791
 0.230000   4.178038   -11.256503
 0.235000   4.121993   -11.157815
 0.240000   4.066459   -11.051924
 0.245000   4.011473   -10.938768
 0.250000   3.957072   -10.818355
 0.255000   3.903290   -10.689639
 0.260000   3.850175   -10.544191
 0.265000   3.797848   -10.378390
 0.270000   3.746391   -10.196305
 0.275000   3.695885   -9.998958
 0.280000   3.646402   -9.787273
 0.285000   3.598012   -9.559582
 0.290000   3.550806   -9.318771
 0.295000   3.504824   -9.069649
 0.300000   3.460110   -8.813011
 0.305000   3.416694   -8.550511
 0.310000   3.374604   -8.283414
 0.315000   3.333860   -8.005616
 0.320000   3.294548   -7.723155
 0.325000   3.256629   -7.448399
 0.330000   3.220064   -7.183450
 0.335000   3.184794   -6.932180
 0.340000   3.150743   -6.696593
 0.345000   3.117828   -6.479644
 0.350000   3.085946   -6.282144
 0.355000   3.055007   -6.099858
 0.360000   3.024948   -5.929445
 0.365000   2.995712   -5.769346
 0.370000   2.967254   -5.617827
 0.375000   2.939534   -5.479351
 0.380000   2.912461   -5.346247
 0.385000   2.886072   -5.204995
 0.390000   2.860411   -5.055993
 0.395000   2.835512   -4.899925
 0.400000   2.811411   -4.736856
 0.405000   2.788143   -4.567469
 0.410000   2.765737   -4.390403
 0.415000   2.744239   -4.207506
 0.420000   2.723662   -4.024194
 0.425000   2.703997   -3.843527
 0.430000   2.685226   -3.667859
 0.435000   2.667319   -3.496481
 0.440000   2.650262   -3.331180
 0.445000   2.634007   -3.177833
 0.450000   2.618483   -3.036940
 0.455000   2.603637   -2.906887
 0.460000   2.589414   -2.787939
 0.465000   2.575758   -2.678575
 0.470000   2.562629   -2.579623
 0.475000   2.549962   -2.495521
 0.480000   2.537673   -2.425866
 0.485000   2.525703   -2.368191
 0.490000   2.513991   -2.322314
 0.495000   2.502480   -2.288151
 0.500000   2.491110   -2.265706
 0.505000   2.479823   -2.252397
 0.510000   2.468586   -2.244717
 0.515000   2.457376   -2.241676
 0.520000   2.446169   -2.243307
 0.525000   2.434943   -2.249959
 0.530000   2.423670   -2.262038
 0.535000   2.412322   -2.279070
 0.540000   2.400879   -2.300419
 0.545000   2.389318   -2.325889
 0.550000   2.377620   -2.355104
 0.555000   2.365767   -2.387768
 0.560000   2.353742   -2.423890
 0.565000   2.341528   -2.462313
 0.570000   2.329119   -2.502043
 0.575000   2.316508   -2.543110
 0.580000   2.303688   -2.585000
 0.585000   2.290658   -2.627207
 0.590000   2.277416   -2.669348
 0.595000   2.263964   -2.710438
 0.600000   2.250312   -2.750029
 0.605000   2.236464   -2.788632
 0.610000   2.222425   -2.826469
 0.615000   2.208199   -2.863748
 0.620000   2.193788   -2.901258
 0.625000   2.179187   -2.938418
 0.630000   2.164404   -2.974042
 0.635000   2.149446   -3.008039
 0.640000   2.134323   -3.040026
 0.645000   2.119046   -3.069583
 0.650000   2.103627   -3.097255
 0.655000   2.088073   -3.121764
 0.660000   2.072410   -3.141852
 0.665000   2.056655   -3.158770
 0.670000   2.040822   -3.173191
 0.675000   2.024923   -3.185423
 0.680000   2.008968   -3.197151
 0.685000   1.992951   -3.206926
 0.690000   1.976899   -3.210930
 0.695000   1.960842   -3.208049
 0.700000   1.944818   -3.197571
 0.705000   1.928866   -3.179068
 0.710000   1.913027   -3.152870
 0.715000   1.897338   -3.119320
 0.720000   1.881834   -3.079193
 0.725000   1.866546   -3.033649
 0.730000   1.851498   -2.983356
 0.735000   1.836712   -2.928960
 0.740000   1.822208   -2.870263
 0.745000   1.808010   -2.807980
 0.750000   1.794128   -2.744700
 0.755000   1.780563   -2.681680
 0.760000   1.767312   -2.619704
 0.765000   1.754366   -2.560614
 0.770000   1.741705   -2.506767
 0.775000   1.729298   -2.461349
 0.780000   1.717092   -2.424066
 0.785000   1.705057   -2.391689
 0.790000   1.693175   -2.362553
 0.795000   1.681432   -2.335837
 0.800000   1.669817   -2.311627
 0.805000   1.658315   -2.290226
 0.810000   1.646914   -2.271396
 0.815000   1.635602   -2.257053
 0.820000   1.624344   -2.250083
 0.825000   1.613101   -2.251881
 0.830000   1.601825   -2.264079
 0.835000   1.590460   -2.289215
 0.840000   1.578933   -2.323898
 0.845000   1.567221   -2.365396
 0.850000   1.555279   -2.416738
 0.855000   1.543054   -2.480073
 0.860000   1.530478   -2.559229
 0.865000   1.517461   -2.663191
 0.870000   1.503846   -2.788589
 0.875000   1.489575   -2.930243
 0.880000   1.474544   -3.093628
 0.885000   1.458639   -3.280635
 0.890000   1.441738   -3.493788
 0.895000   1.423701   -3.747458
 0.900000   1.404263   -4.035149
 0.905000   1.383350   -4.353211
 0.910000   1.360731   -4.721386
 0.915000   1.336136   -5.146583
 0.920000   1.309265   -5.632955
 0.925000   1.279806   -6.220118
 0.930000   1.247064   -6.884585
 0.935000   1.210960   -7.577897
 0.940000   1.171285   -8.305661
 0.945000   1.127904   -9.046058
 0.950000   1.080824   -9.767577
 0.955000   1.030228   -10.470920
 0.960000   0.976115   -11.076869
 0.965000   0.919459   -11.500521
 0.970000   0.861110   -11.751713
 0.975000   0.801942   -11.819384
 0.980000   0.742916   -11.691899
 0.985000   0.685023   -11.382665
 0.990000   0.629089   -10.881825
 0.995000   0.576205   -10.194049
 1.000000   0.527149   -9.428381
201 psinorm nb(10^20/m^3) dnb/dpsiN
 0.000000   0.093988   0.147651
 0.005000   0.094484   0.050951
 0.010000   0.094497   -0.030726
 0.015000   0.094177   -0.091566
 0.020000   0.093582   -0.142279
 0.025000   0.092754   -0.185782
 0.030000   0.091724   -0.222780
 0.035000   0.090526   -0.253391
 0.040000   0.089190   -0.279659
 0.045000   0.087730   -0.301731
 0.050000   0.086173   -0.319308
 0.055000   0.084537   -0.333707
 0.060000   0.082836   -0.344675
 0.065000   0.081090   -0.352602
 0.070000   0.079310   -0.358050
 0.075000   0.077510   -0.360928
 0.080000   0.075700   -0.361901
 0.085000   0.073891   -0.361346
 0.090000   0.072087   -0.359120
 0.095000   0.070299   -0.355437
 0.100000   0.068532   -0.350795
 0.105000   0.066791   -0.345276
 0.110000   0.065080   -0.338931
 0.115000   0.063402   -0.331632
 0.120000   0.061763   -0.323364
 0.125000   0.060168   -0.314621
 0.130000   0.058617   -0.305765
 0.135000   0.057111   -0.296619
 0.140000   0.055651   -0.287227
 0.145000   0.054239   -0.277706
 0.150000   0.052874   -0.268066
 0.155000   0.051558   -0.258362
 0.160000   0.050290   -0.248721
 0.165000   0.049071   -0.239173
 0.170000   0.047899   -0.229739
 0.175000   0.046773   -0.220480
 0.180000   0.045694   -0.211428
 0.185000   0.044659   -0.202612
 0.190000   0.043668   -0.194047
 0.195000   0.042718   -0.185742
 0.200000   0.041810   -0.177452
 0.205000   0.040944   -0.169302
 0.210000   0.040117   -0.161725
 0.215000   0.039327   -0.154616
 0.220000   0.038571   -0.147812
 0.225000   0.037849   -0.141314
 0.230000   0.037158   -0.135136
 0.235000   0.036497   -0.129291
 0.240000   0.035865   -0.123649
 0.245000   0.035261   -0.117930
 0.250000   0.034686   -0.112650
 0.255000   0.034134   -0.108062
 0.260000   0.033605   -0.103749
 0.265000   0.033097   -0.099700
 0.270000   0.032608   -0.095891
 0.275000   0.032138   -0.091891
 0.280000   0.031689   -0.088160
 0.285000   0.031256   -0.085111
 0.290000   0.030838   -0.082265
 0.295000   0.030434   -0.079605
 0.300000   0.030042   -0.076911
 0.305000   0.029664   -0.074277
 0.310000   0.029299   -0.072050
 0.315000   0.028944   -0.070115
 0.320000   0.028598   -0.068315
 0.325000   0.028261   -0.066467
 0.330000   0.027933   -0.064693
 0.335000   0.027614   -0.063242
 0.340000   0.027301   -0.061969
 0.345000   0.026994   -0.060778
 0.350000   0.026693   -0.059481
 0.355000   0.026399   -0.058294
 0.360000   0.026110   -0.057392
 0.365000   0.025825   -0.056550
 0.370000   0.025545   -0.055677
 0.375000   0.025269   -0.054813
 0.380000   0.024997   -0.054099
 0.385000   0.024728   -0.053485
 0.390000   0.024462   -0.052870
 0.395000   0.024199   -0.052213
 0.400000   0.023940   -0.051631
 0.405000   0.023683   -0.051156
 0.410000   0.023428   -0.050693
 0.415000   0.023176   -0.050163
 0.420000   0.022926   -0.049660
 0.425000   0.022679   -0.049259
 0.430000   0.022434   -0.048869
 0.435000   0.022190   -0.048396
 0.440000   0.021950   -0.047926
 0.445000   0.021711   -0.047552
 0.450000   0.021474   -0.047185
 0.455000   0.021239   -0.046739
 0.460000   0.021007   -0.046289
 0.465000   0.020776   -0.045926
 0.470000   0.020548   -0.045574
 0.475000   0.020321   -0.045146
 0.480000   0.020096   -0.044711
 0.485000   0.019874   -0.044358
 0.490000   0.019653   -0.044019
 0.495000   0.019433   -0.043608
 0.500000   0.019217   -0.043191
 0.505000   0.019002   -0.042854
 0.510000   0.018788   -0.042530
 0.515000   0.018576   -0.042142
 0.520000   0.018367   -0.041748
 0.525000   0.018159   -0.041428
 0.530000   0.017952   -0.041123
 0.535000   0.017748   -0.040762
 0.540000   0.017545   -0.040400
 0.545000   0.017344   -0.040108
 0.550000   0.017144   -0.039833
 0.555000   0.016945   -0.039517
 0.560000   0.016749   -0.039200
 0.565000   0.016553   -0.038945
 0.570000   0.016359   -0.038711
 0.575000   0.016166   -0.038452
 0.580000   0.015975   -0.038195
 0.585000   0.015784   -0.037988
 0.590000   0.015595   -0.037807
 0.595000   0.015406   -0.037620
 0.600000   0.015218   -0.037432
 0.605000   0.015032   -0.037283
 0.610000   0.014846   -0.037168
 0.615000   0.014660   -0.037064
 0.620000   0.014475   -0.036973
 0.625000   0.014290   -0.036913
 0.630000   0.014106   -0.036882
 0.635000   0.013922   -0.036868
 0.640000   0.013737   -0.036881
 0.645000   0.013553   -0.036922
 0.650000   0.013368   -0.036981
 0.655000   0.013183   -0.037055
 0.660000   0.012997   -0.037157
 0.665000   0.012811   -0.037293
 0.670000   0.012624   -0.037436
 0.675000   0.012437   -0.037581
 0.680000   0.012249   -0.037739
 0.685000   0.012060   -0.037942
 0.690000   0.011869   -0.038157
 0.695000   0.011678   -0.038351
 0.700000   0.011486   -0.038551
 0.705000   0.011292   -0.038767
 0.710000   0.011098   -0.039031
 0.715000   0.010902   -0.039302
 0.720000   0.010705   -0.039545
 0.725000   0.010507   -0.039795
 0.730000   0.010307   -0.040056
 0.735000   0.010106   -0.040361
 0.740000   0.009904   -0.040665
 0.745000   0.009700   -0.040931
 0.750000   0.009494   -0.041195
 0.755000   0.009288   -0.041456
 0.760000   0.009080   -0.041736
 0.765000   0.008870   -0.042006
 0.770000   0.008660   -0.042230
 0.775000   0.008448   -0.042432
 0.780000   0.008235   -0.042620
 0.785000   0.008022   -0.042791
 0.790000   0.007807   -0.042955
 0.795000   0.007592   -0.043091
 0.800000   0.007376   -0.043186
 0.805000   0.007160   -0.043258
 0.810000   0.006944   -0.043304
 0.815000   0.006727   -0.043323
 0.820000   0.006511   -0.043305
 0.825000   0.006294   -0.043244
 0.830000   0.006078   -0.043142
 0.835000   0.005863   -0.043002
 0.840000   0.005648   -0.042820
 0.845000   0.005435   -0.042595
 0.850000   0.005222   -0.042324
 0.855000   0.005011   -0.041995
 0.860000   0.004802   -0.041602
 0.865000   0.004595   -0.041212
 0.870000   0.004390   -0.040874
 0.875000   0.004187   -0.040573
 0.880000   0.003984   -0.040308
 0.885000   0.003783   -0.040079
 0.890000   0.003584   -0.039884
 0.895000   0.003385   -0.039722
 0.900000   0.003186   -0.039592
 0.905000   0.002989   -0.039476
 0.910000   0.002792   -0.039344
 0.915000   0.002595   -0.039167
 0.920000   0.002400   -0.038902
 0.925000   0.002206   -0.038479
 0.930000   0.002015   -0.037826
 0.935000   0.001828   -0.036905
 0.940000   0.001646   -0.035761
 0.945000   0.001470   -0.034612
 0.950000   0.001300   -0.033783
 0.955000   0.001133   -0.033287
 0.960000   0.000967   -0.032616
 0.965000   0.000806   -0.030946
 0.970000   0.000658   -0.027675
 0.975000   0.000530   -0.023050
 0.980000   0.000427   -0.018508
 0.985000   0.000345   -0.015830
 0.990000   0.000269   -0.014745
 0.995000   0.000197   -0.014373
 1.000000   0.000125   -0.014417
201 psinorm pb(KPa) dpb/dpsiN
 0.000000   38.274026   42.429241
 0.005000   38.397816   7.086696
 0.010000   38.344893   -24.015016
 0.015000   38.157666   -48.716523
 0.020000   37.857728   -69.117272
 0.025000   37.466493   -86.097309
 0.030000   36.996755   -99.981707
 0.035000   36.466676   -111.248884
 0.040000   35.884266   -121.134153
 0.045000   35.255335   -129.399007
 0.050000   34.590276   -136.019192
 0.055000   33.895143   -141.388255
 0.060000   33.176394   -145.227512
 0.065000   32.442868   -147.811772
 0.070000   31.698276   -149.437708
 0.075000   30.948491   -149.966062
 0.080000   30.198615   -149.743292
 0.085000   29.451058   -149.062337
 0.090000   28.707992   -147.770884
 0.095000   27.973349   -145.925055
 0.100000   27.248741   -143.731673
 0.105000   26.536032   -141.257612
 0.110000   25.836165   -138.488065
 0.115000   25.151152   -135.312560
 0.120000   24.483040   -131.755389
 0.125000   23.833598   -128.044019
 0.130000   23.202599   -124.310358
 0.135000   22.590494   -120.476084
 0.140000   21.997839   -116.565395
 0.145000   21.424840   -112.621035
 0.150000   20.871628   -108.639989
 0.155000   20.338440   -104.650130
 0.160000   19.825127   -100.700220
 0.165000   19.331438   -96.797120
 0.170000   18.857156   -92.951835
 0.175000   18.401920   -89.186598
 0.180000   17.965290   -85.511208
 0.185000   17.546808   -81.937828
 0.190000   17.145911   -78.473907
 0.195000   16.762069   -75.121419
 0.200000   16.394697   -71.783221
 0.205000   16.044236   -68.508777
 0.210000   15.709610   -65.466903
 0.215000   15.389567   -62.615090
 0.220000   15.083459   -59.889414
 0.225000   14.790673   -57.287111
 0.230000   14.510588   -54.815120
 0.235000   14.242522   -52.482322
 0.240000   13.985764   -50.238364
 0.245000   13.740138   -47.972065
 0.250000   13.506044   -45.881658
 0.255000   13.281322   -44.062978
 0.260000   13.065414   -42.354744
 0.265000   12.857774   -40.751990
 0.270000   12.657894   -39.245574
 0.275000   12.465319   -37.670048
 0.280000   12.281193   -36.201188
 0.285000   12.103307   -34.995726
 0.290000   11.931236   -33.870200
 0.295000   11.764605   -32.817844
 0.300000   11.603058   -31.755377
 0.305000   11.447051   -30.718396
 0.310000   11.295874   -29.836558
 0.315000   11.148685   -29.065625
 0.320000   11.005218   -28.347139
 0.325000   10.865214   -27.614051
 0.330000   10.729077   -26.914697
 0.335000   10.596067   -26.337890
 0.340000   10.465698   -25.825213
 0.345000   10.337815   -25.344231
 0.350000   10.212256   -24.826972
 0.355000   10.089545   -24.351050
 0.360000   9.968745   -23.981064
 0.365000   9.849734   -23.634161
 0.370000   9.732404   -23.277445
 0.375000   9.616960   -22.925539
 0.380000   9.503148   -22.629033
 0.385000   9.390670   -22.368657
 0.390000   9.279462   -22.109675
 0.395000   9.169573   -21.838205
 0.400000   9.061080   -21.592260
 0.405000   8.953650   -21.383372
 0.410000   8.847246   -21.179444
 0.415000   8.741856   -20.952050
 0.420000   8.637725   -20.733988
 0.425000   8.534516   -20.551705
 0.430000   8.432208   -20.373152
 0.435000   8.330784   -20.165382
 0.440000   8.230555   -19.957847
 0.445000   8.131206   -19.783351
 0.450000   8.032721   -19.611566
 0.455000   7.935090   -19.410400
 0.460000   7.838617   -19.207447
 0.465000   7.743016   -19.036739
 0.470000   7.648250   -18.870723
 0.475000   7.554309   -18.678636
 0.480000   7.461463   -18.484634
 0.485000   7.369462   -18.319964
 0.490000   7.278264   -18.160252
 0.495000   7.187860   -17.976502
 0.500000   7.098499   -17.791404
 0.505000   7.009946   -17.634252
 0.510000   6.922156   -17.482406
 0.515000   6.835122   -17.308646
 0.520000   6.749070   -17.132979
 0.525000   6.663792   -16.982099
 0.530000   6.579249   -16.835611
 0.535000   6.495436   -16.670775
 0.540000   6.412541   -16.506316
 0.545000   6.330373   -16.365984
 0.550000   6.248881   -16.231538
 0.555000   6.168057   -16.083073
 0.560000   6.088050   -15.934387
 0.565000   6.008713   -15.806599
 0.570000   5.929984   -15.686295
 0.575000   5.851850   -15.557378
 0.580000   5.774411   -15.428325
 0.585000   5.697567   -15.316438
 0.590000   5.621246   -15.213549
 0.595000   5.545432   -15.107853
 0.600000   5.470168   -15.002034
 0.605000   5.395411   -14.909833
 0.610000   5.321069   -14.829703
 0.615000   5.247114   -14.753886
 0.620000   5.173531   -14.683708
 0.625000   5.100277   -14.624123
 0.630000   5.027289   -14.574247
 0.635000   4.954535   -14.531090
 0.640000   4.881978   -14.497983
 0.645000   4.809555   -14.475304
 0.650000   4.737225   -14.460056
 0.655000   4.664954   -14.451312
 0.660000   4.592712   -14.451486
 0.665000   4.520440   -14.463753
 0.670000   4.448075   -14.478725
 0.675000   4.375652   -14.492491
 0.680000   4.303150   -14.511250
 0.685000   4.230540   -14.546179
 0.690000   4.157688   -14.582197
 0.695000   4.084718   -14.607187
 0.700000   4.011616   -14.635565
 0.705000   3.938362   -14.669277
 0.710000   3.864923   -14.720402
 0.715000   3.791158   -14.774517
 0.720000   3.717178   -14.819067
 0.725000   3.642967   -14.866552
 0.730000   3.568513   -14.917604
 0.735000   3.493791   -14.983924
 0.740000   3.418673   -15.050058
 0.745000   3.343291   -15.102406
 0.750000   3.267649   -15.153419
 0.755000   3.191757   -15.202702
 0.760000   3.115622   -15.257850
 0.765000   3.039178   -15.306533
 0.770000   2.962557   -15.337046
 0.775000   2.885808   -15.359963
 0.780000   2.808957   -15.376891
 0.785000   2.732039   -15.386923
 0.790000   2.655088   -15.392571
 0.795000   2.578113   -15.387821
 0.800000   2.501210   -15.369109
 0.805000   2.424422   -15.341623
 0.810000   2.347794   -15.304816
 0.815000   2.271374   -15.257722
 0.820000   2.195217   -15.195798
 0.825000   2.119416   -15.117388
 0.830000   2.044043   -15.025628
 0.835000   1.969160   -14.920298
 0.840000   1.894840   -14.800405
 0.845000   1.821156   -14.665623
 0.850000   1.748183   -14.514812
 0.855000   1.676007   -14.343473
 0.860000   1.604749   -14.148389
 0.865000   1.534524   -13.950040
 0.870000   1.465248   -13.762487
 0.875000   1.396899   -13.580259
 0.880000   1.329446   -13.404487
 0.885000   1.262854   -13.236668
 0.890000   1.197079   -13.078222
 0.895000   1.132072   -12.930444
 0.900000   1.067775   -12.794849
 0.905000   1.004123   -12.667798
 0.910000   0.941097   -12.533461
 0.915000   0.878788   -12.386103
 0.920000   0.817236   -12.214346
 0.925000   0.756645   -11.985184
 0.930000   0.697384   -11.662004
 0.935000   0.640025   -11.214602
 0.940000   0.585238   -10.640455
 0.945000   0.533620   -9.999651
 0.950000   0.485241   -9.439796
 0.955000   0.439222   -9.116429
 0.960000   0.394077   -9.106748
 0.965000   0.348155   -9.348033
 0.970000   0.300597   -9.625303
 0.975000   0.251902   -9.825699
 0.980000   0.202340   -10.178440
 0.985000   0.150118   -10.286138
 0.990000   0.099478   -8.688731
 0.995000   0.063230   -6.020387
 1.000000   0.039274   -3.561959
201 psinorm ptot(KPa) dptot/dpsiN
 0.000000   105.879018   -95.573909
 0.005000   105.334003   -122.432137
 0.010000   104.654697   -146.500315
 0.015000   103.869000   -166.185184
 0.020000   102.992845   -182.558034
 0.025000   102.043419   -196.219897
 0.030000   101.030646   -207.428135
 0.035000   99.969138   -216.648933
 0.040000   98.864157   -224.920077
 0.045000   97.719937   -231.987019
 0.050000   96.544286   -237.851266
 0.055000   95.341425   -242.776850
 0.060000   94.116518   -246.502761
 0.065000   92.876397   -249.258473
 0.070000   91.623933   -251.273412
 0.075000   90.363663   -252.404299
 0.080000   89.099890   -252.930494
 0.085000   87.834358   -253.105481
 0.090000   86.568835   -252.783186
 0.095000   85.306526   -251.993140
 0.100000   84.048904   -250.887370
 0.105000   82.797652   -249.517233
 0.110000   81.553732   -247.856148
 0.115000   80.319091   -245.797478
 0.120000   79.095757   -243.359849
 0.125000   77.885492   -240.723165
 0.130000   76.688525   -237.981825
 0.135000   75.505674   -235.066198
 0.140000   74.337863   -231.992316
 0.145000   73.185751   -228.788651
 0.150000   72.049977   -225.448147
 0.155000   70.931270   -221.993287
 0.160000   69.830044   -218.458092
 0.165000   68.746689   -214.843438
 0.170000   67.681609   -211.163857
 0.175000   66.635050   -207.438978
 0.180000   65.607220   -203.675531
 0.185000   64.598295   -199.887985
 0.190000   63.608340   -196.083422
 0.195000   62.637461   -192.267814
 0.200000   61.685662   -188.383642
 0.205000   60.753624   -184.484837
 0.210000   59.840813   -180.713151
 0.215000   58.946493   -177.045311
 0.220000   58.070360   -173.439506
 0.225000   57.212098   -169.906924
 0.230000   56.371291   -166.456697
 0.235000   55.547531   -163.092833
 0.240000   54.740363   -159.775907
 0.245000   53.949772   -156.413652
 0.250000   53.176226   -153.172325
 0.255000   52.418048   -150.127961
 0.260000   51.674946   -147.109150
 0.265000   50.946957   -144.097311
 0.270000   50.233973   -141.105122
 0.275000   49.535906   -137.998805
 0.280000   48.853985   -134.932381
 0.285000   48.186582   -132.031909
 0.290000   47.533666   -129.157518
 0.295000   46.895007   -126.326903
 0.300000   46.270397   -123.472779
 0.305000   45.660279   -120.633273
 0.310000   45.064064   -117.924989
 0.315000   44.481029   -115.283089
 0.320000   43.911234   -112.685004
 0.325000   43.354179   -110.128498
 0.330000   42.809949   -107.664131
 0.335000   42.277538   -105.384186
 0.340000   41.756107   -103.245732
 0.345000   41.245080   -101.233007
 0.350000   40.743777   -99.289374
 0.355000   40.252186   -97.462123
 0.360000   39.769155   -95.792085
 0.365000   39.294266   -94.200393
 0.370000   38.827151   -92.650176
 0.375000   38.367764   -91.172824
 0.380000   37.915423   -89.777934
 0.385000   37.469985   -88.389503
 0.390000   37.031528   -86.979374
 0.395000   36.600191   -85.538385
 0.400000   36.176144   -84.099510
 0.405000   35.759196   -82.675527
 0.410000   35.349389   -81.232737
 0.415000   34.946868   -79.753908
 0.420000   34.551850   -78.290283
 0.425000   34.163965   -76.877308
 0.430000   33.783077   -75.496038
 0.435000   33.409005   -74.113329
 0.440000   33.041944   -72.761718
 0.445000   32.681388   -71.494730
 0.450000   32.326996   -70.287502
 0.455000   31.978513   -69.104069
 0.460000   31.635956   -67.969505
 0.465000   31.298818   -66.907353
 0.470000   30.966882   -65.896490
 0.475000   30.639853   -64.927379
 0.480000   30.317608   -64.018357
 0.485000   29.999669   -63.185566
 0.490000   29.685753   -62.405392
 0.495000   29.375615   -61.650534
 0.500000   29.069247   -60.939829
 0.505000   28.766217   -60.288160
 0.510000   28.466366   -59.661508
 0.515000   28.169602   -59.031832
 0.520000   27.876047   -58.416798
 0.525000   27.585434   -57.841249
 0.530000   27.297635   -57.288688
 0.535000   27.012547   -56.737523
 0.540000   26.730260   -56.202179
 0.545000   26.450525   -55.702915
 0.550000   26.173231   -55.222219
 0.555000   25.898303   -54.741368
 0.560000   25.625817   -54.272761
 0.565000   25.355576   -53.830990
 0.570000   25.087507   -53.400626
 0.575000   24.821569   -52.967640
 0.580000   24.557831   -52.537941
 0.585000   24.296190   -52.125540
 0.590000   24.036575   -51.722249
 0.595000   23.778968   -51.314534
 0.600000   23.523430   -50.904022
 0.605000   23.269927   -50.505664
 0.610000   23.018373   -50.119548
 0.615000   22.768732   -49.740178
 0.620000   22.520971   -49.372229
 0.625000   22.275010   -49.017717
 0.630000   22.030794   -48.671105
 0.635000   21.788298   -48.329607
 0.640000   21.547498   -47.994933
 0.645000   21.308349   -47.666066
 0.650000   21.070837   -47.341647
 0.655000   20.834933   -47.017170
 0.660000   20.600666   -46.691942
 0.665000   20.368013   -46.373812
 0.670000   20.136928   -46.057193
 0.675000   19.907441   -45.739928
 0.680000   19.679528   -45.430745
 0.685000   19.453134   -45.128570
 0.690000   19.228243   -44.801763
 0.695000   19.005116   -44.434056
 0.700000   18.783902   -44.036829
 0.705000   18.564748   -43.612285
 0.710000   18.347779   -43.168153
 0.715000   18.133066   -42.700318
 0.720000   17.920776   -42.218371
 0.725000   17.710883   -41.740644
 0.730000   17.503370   -41.270451
 0.735000   17.298178   -40.825349
 0.740000   17.095116   -40.392502
 0.745000   16.894253   -39.970415
 0.750000   16.695412   -39.587589
 0.755000   16.498377   -39.243459
 0.760000   16.302977   -38.942651
 0.765000   16.108951   -38.677243
 0.770000   15.916205   -38.445164
 0.775000   15.724499   -38.265787
 0.780000   15.533547   -38.122350
 0.785000   15.343276   -37.989651
 0.790000   15.153651   -37.861727
 0.795000   14.964658   -37.725228
 0.800000   14.776398   -37.575359
 0.805000   14.588905   -37.414288
 0.810000   14.402255   -37.231442
 0.815000   14.216590   -37.032666
 0.820000   14.031929   -36.830017
 0.825000   13.848290   -36.628675
 0.830000   13.665642   -36.438926
 0.835000   13.483901   -36.269517
 0.840000   13.302947   -36.105175
 0.845000   13.122849   -35.930648
 0.850000   12.943640   -35.747714
 0.855000   12.765372   -35.549814
 0.860000   12.588142   -35.334334
 0.865000   12.412029   -35.134589
 0.870000   12.236796   -34.928436
 0.875000   12.062744   -34.662982
 0.880000   11.890167   -34.324767
 0.885000   11.719497   -33.884421
 0.890000   11.551322   -33.312205
 0.895000   11.386375   -32.619508
 0.900000   11.225127   -31.763325
 0.905000   11.068741   -30.743597
 0.910000   10.917691   -29.706466
 0.915000   10.771677   -28.916416
 0.920000   10.628527   -28.881436
 0.925000   10.482862   -30.604390
 0.930000   10.322483   -35.424579
 0.935000   10.128617   -45.163649
 0.940000   9.870847   -61.981937
 0.945000   9.508797   -86.968781
 0.950000   9.001159   -118.455648
 0.955000   8.324241   -151.097281
 0.960000   7.490186   -177.872160
 0.965000   6.545519   -195.788848
 0.970000   5.532298   -209.609996
 0.975000   4.449419   -222.850978
 0.980000   3.303788   -216.926512
 0.985000   2.280154   -169.878809
 0.990000   1.605000   -105.442964
 0.995000   1.225724   -61.254702
 1.000000   0.992453   -32.053973
201 psinorm omeg(kRad/s) domeg/dpsiN
 0.000000   59.517921   0.030663
 0.005000   59.517576   -0.168489
 0.010000   59.516236   -0.420534
 0.015000   59.513371   -0.792879
 0.020000   59.508307   -1.311701
 0.025000   59.500254   -1.998153
 0.030000   59.488325   -2.867237
 0.035000   59.471581   -3.924677
 0.040000   59.449079   -5.152967
 0.045000   59.420052   -6.528030
 0.050000   59.383798   -8.027132
 0.055000   59.339780   -9.613776
 0.060000   59.287661   -11.246450
 0.065000   59.227316   -12.881615
 0.070000   59.158844   -14.423439
 0.075000   59.083081   -15.867827
 0.080000   59.000166   -17.278053
 0.085000   58.910301   -18.644064
 0.090000   58.813725   -19.972605
 0.095000   58.710575   -21.284174
 0.100000   58.600884   -22.557631
 0.105000   58.484999   -23.806592
 0.110000   58.362818   -25.056325
 0.115000   58.234435   -26.273483
 0.120000   58.100083   -27.450294
 0.125000   57.959932   -28.602458
 0.130000   57.814058   -29.731947
 0.135000   57.662613   -30.861751
 0.140000   57.505441   -32.015890
 0.145000   57.342454   -33.176621
 0.150000   57.173675   -34.338252
 0.155000   56.999071   -35.512518
 0.160000   56.818550   -36.711779
 0.165000   56.631954   -37.946157
 0.170000   56.439088   -39.204376
 0.175000   56.239910   -40.467477
 0.180000   56.034413   -41.731228
 0.185000   55.822598   -42.994613
 0.190000   55.604467   -44.263654
 0.195000   55.379961   -45.541537
 0.200000   55.149052   -46.790797
 0.205000   54.912053   -47.966722
 0.210000   54.669384   -49.041814
 0.215000   54.421635   -49.984433
 0.220000   54.169540   -50.759327
 0.225000   53.914042   -51.314123
 0.230000   53.656399   -51.668442
 0.235000   53.397357   -51.859121
 0.240000   53.137808   -51.874602
 0.245000   52.878611   -51.721743
 0.250000   52.620590   -51.391156
 0.255000   52.364700   -50.814077
 0.260000   52.112449   -50.088609
 0.265000   51.863814   -49.312622
 0.270000   51.619323   -48.447113
 0.275000   51.379342   -47.525377
 0.280000   51.144069   -46.573356
 0.285000   50.913609   -45.574139
 0.290000   50.688328   -44.660461
 0.295000   50.467004   -43.913416
 0.300000   50.249194   -43.262718
 0.305000   50.034377   -42.718211
 0.310000   49.822012   -42.278193
 0.315000   49.611595   -41.937856
 0.320000   49.402633   -41.618526
 0.325000   49.195410   -41.250318
 0.330000   48.990130   -40.842342
 0.335000   48.786986   -40.395673
 0.340000   48.586173   -39.909315
 0.345000   48.387893   -39.391621
 0.350000   48.192257   -38.824918
 0.355000   47.999644   -38.193821
 0.360000   47.810319   -37.511910
 0.365000   47.624525   -36.781832
 0.370000   47.442501   -36.005081
 0.375000   47.264474   -35.178935
 0.380000   47.090711   -34.303359
 0.385000   46.921441   -33.387707
 0.390000   46.756834   -32.439597
 0.395000   46.597045   -31.463866
 0.400000   46.442196   -30.466687
 0.405000   46.292378   -29.442237
 0.410000   46.147773   -28.403419
 0.415000   46.008344   -27.381599
 0.420000   45.873957   -26.394085
 0.425000   45.744403   -25.462857
 0.430000   45.619329   -24.614169
 0.435000   45.498261   -23.886897
 0.440000   45.380460   -23.298700
 0.445000   45.265274   -22.797108
 0.450000   45.152489   -22.337585
 0.455000   45.041898   -21.911227
 0.460000   44.933376   -21.503707
 0.465000   44.826861   -21.129111
 0.470000   44.722085   -20.777052
 0.475000   44.619091   -20.376753
 0.480000   44.518318   -19.918839
 0.485000   44.419902   -19.434840
 0.490000   44.323969   -18.928525
 0.495000   44.230617   -18.414137
 0.500000   44.139828   -17.892707
 0.505000   44.051690   -17.348305
 0.510000   43.966345   -16.815602
 0.515000   43.883534   -16.356134
 0.520000   43.802783   -16.009912
 0.525000   43.723435   -15.818781
 0.530000   43.644596   -15.831742
 0.535000   43.565117   -16.031817
 0.540000   43.484278   -16.401295
 0.545000   43.401104   -16.975300
 0.550000   43.314525   -17.776699
 0.555000   43.223337   -18.842967
 0.560000   43.126095   -20.252587
 0.565000   43.020812   -21.969289
 0.570000   42.906402   -23.969006
 0.575000   42.781122   -26.327879
 0.580000   42.643123   -29.061447
 0.585000   42.490507   -32.176009
 0.590000   42.321363   -35.689630
 0.595000   42.133611   -39.493982
 0.600000   41.926423   -43.495219
 0.605000   41.698659   -47.692632
 0.610000   41.449497   -52.017360
 0.615000   41.178485   -56.393742
 0.620000   40.885560   -60.654855
 0.625000   40.571936   -64.740718
 0.630000   40.238152   -68.662416
 0.635000   39.885312   -72.332156
 0.640000   39.514831   -75.698483
 0.645000   39.128327   -78.728720
 0.650000   38.727544   -81.253604
 0.655000   38.315791   -83.424557
 0.660000   37.893298   -85.513699
 0.665000   37.460654   -87.521503
 0.670000   37.018083   -89.547426
 0.675000   36.565180   -91.710957
 0.680000   36.100973   -94.208006
 0.685000   35.623100   -97.156203
 0.690000   35.129411   -100.313490
 0.695000   34.619965   -103.325452
 0.700000   34.096157   -105.951241
 0.705000   33.560453   -108.011107
 0.710000   33.016046   -109.477315
 0.715000   32.465680   -110.277557
 0.720000   31.913270   -110.302451
 0.725000   31.362655   -109.591576
 0.730000   30.817354   -108.179485
 0.735000   30.280860   -106.081334
 0.740000   29.756541   -103.300172
 0.745000   29.247859   -99.862975
 0.750000   28.757911   -95.901125
 0.755000   28.288847   -91.561275
 0.760000   27.842299   -86.990915
 0.765000   27.418938   -82.384595
 0.770000   27.018453   -77.983023
 0.775000   26.639108   -74.031554
 0.780000   26.278137   -70.409871
 0.785000   25.935009   -66.837721
 0.790000   25.609760   -63.234579
 0.795000   25.302663   -59.586839
 0.800000   25.013892   -55.988541
 0.805000   24.742778   -52.570323
 0.810000   24.488188   -49.385312
 0.815000   24.248925   -46.660378
 0.820000   24.021585   -44.730344
 0.825000   23.801621   -43.827208
 0.830000   23.583312   -44.236211
 0.835000   23.359259   -46.343744
 0.840000   23.119875   -50.272841
 0.845000   22.856531   -56.186409
 0.850000   22.558011   -64.475865
 0.855000   22.211772   -75.377246
 0.860000   21.804238   -89.116370
 0.865000   21.320609   -106.130983
 0.870000   20.742929   -125.982332
 0.875000   20.060785   -147.861156
 0.880000   19.264317   -171.206644
 0.885000   18.348719   -194.823152
 0.890000   17.316086   -217.189168
 0.895000   16.176827   -236.834253
 0.900000   14.947743   -251.386330
 0.905000   13.662964   -259.015041
 0.910000   12.357593   -259.302144
 0.915000   11.069942   -251.963319
 0.920000   9.837959   -237.441844
 0.925000   8.695524   -216.531776
 0.930000   7.672642   -191.209450
 0.935000   6.783429   -163.963104
 0.940000   6.033011   -136.605055
 0.945000   5.417379   -110.858334
 0.950000   4.924427   -88.133958
 0.955000   4.536039   -69.134937
 0.960000   4.233078   -54.531100
 0.965000   3.990728   -44.497811
 0.970000   3.788100   -38.219172
 0.975000   3.608537   -34.856048
 0.980000   3.439539   -33.598009
 0.985000   3.272557   -33.586159
 0.990000   3.103678   -34.342919
 0.995000   2.929127   -35.588993
 1.000000   2.747788   -36.946819
201 psinorm omegp(kRad/s) domegp/dpsiN
 0.000000   0.012529   100.672005
 0.005000   0.418007   61.519159
 0.010000   0.627721   39.851159
 0.015000   0.816519   36.943829
 0.020000   0.997159   35.459563
 0.025000   1.171114   33.823837
 0.030000   1.335398   31.584331
 0.035000   1.486958   29.396342
 0.040000   1.629361   27.462250
 0.045000   1.761580   25.649962
 0.050000   1.885861   24.278451
 0.055000   2.004365   23.483132
 0.060000   2.120692   23.338662
 0.065000   2.237751   23.496179
 0.070000   2.355654   23.768200
 0.075000   2.475433   24.084194
 0.080000   2.596496   24.232262
 0.085000   2.717756   24.113328
 0.090000   2.837629   23.756868
 0.095000   2.955325   23.043210
 0.100000   3.068061   21.991466
 0.105000   3.175239   20.745377
 0.110000   3.275515   19.373701
 0.115000   3.368976   17.839667
 0.120000   3.453911   16.240608
 0.125000   3.531382   14.864651
 0.130000   3.602558   13.656743
 0.135000   3.667950   12.571818
 0.140000   3.728276   11.647693
 0.145000   3.784427   10.827893
 0.150000   3.836555   10.000530
 0.155000   3.884432   9.056650
 0.160000   3.927122   8.065168
 0.165000   3.965084   6.990636
 0.170000   3.997028   5.864131
 0.175000   4.023725   4.687325
 0.180000   4.043901   3.450370
 0.185000   4.058229   2.247225
 0.190000   4.066373   0.997051
 0.195000   4.068199   -0.140560
 0.200000   4.064968   -1.262730
 0.205000   4.055572   -2.342475
 0.210000   4.041543   -3.277354
 0.215000   4.022798   -4.193333
 0.220000   3.999610   -4.996580
 0.225000   3.972833   -5.807429
 0.230000   3.941535   -6.650746
 0.235000   3.906325   -7.495035
 0.240000   3.866585   -8.487896
 0.245000   3.821446   -9.475884
 0.250000   3.771826   -10.509652
 0.255000   3.716350   -11.668190
 0.260000   3.655144   -12.788051
 0.265000   3.588469   -13.930545
 0.270000   3.515839   -15.080112
 0.275000   3.437668   -16.149353
 0.280000   3.354345   -17.230051
 0.285000   3.265368   -18.280434
 0.290000   3.171541   -19.252848
 0.295000   3.072839   -20.215831
 0.300000   2.969383   -21.079603
 0.305000   2.862043   -21.876270
 0.310000   2.750620   -22.685597
 0.315000   2.635187   -23.422172
 0.320000   2.516398   -24.105758
 0.325000   2.394129   -24.835906
 0.330000   2.268039   -25.553229
 0.335000   2.138597   -26.205403
 0.340000   2.005985   -26.806504
 0.345000   1.870532   -27.258790
 0.350000   1.733397   -27.483540
 0.355000   1.595697   -27.586018
 0.360000   1.457537   -27.670017
 0.365000   1.318997   -27.753548
 0.370000   1.180002   -27.897300
 0.375000   1.040024   -28.122259
 0.380000   0.898779   -28.477531
 0.385000   0.755248   -29.013678
 0.390000   0.608642   -29.666862
 0.395000   0.458580   -30.358223
 0.400000   0.305060   -31.036825
 0.405000   0.148211   -31.642102
 0.410000   -0.011361   -32.097752
 0.415000   -0.172766   -32.383836
 0.420000   -0.335199   -32.666360
 0.425000   -0.499430   -33.240879
 0.430000   -0.667608   -34.347875
 0.435000   -0.842908   -36.237616
 0.440000   -1.029984   -39.379793
 0.445000   -1.236706   -43.336987
 0.450000   -1.463354   -47.459746
 0.455000   -1.711304   -51.769778
 0.460000   -1.981052   -56.067638
 0.465000   -2.271980   -60.187490
 0.470000   -2.582927   -63.737023
 0.475000   -2.909350   -65.911705
 0.480000   -3.242044   -66.419016
 0.485000   -3.573541   -65.442059
 0.490000   -3.896464   -63.087225
 0.495000   -4.204413   -59.281845
 0.500000   -4.489283   -54.023172
 0.505000   -4.744645   -48.142772
 0.510000   -4.970711   -42.372499
 0.515000   -5.168370   -36.745307
 0.520000   -5.338164   -31.421458
 0.525000   -5.482584   -26.547334
 0.530000   -5.603637   -22.616300
 0.535000   -5.708747   -20.103153
 0.540000   -5.804669   -18.727753
 0.545000   -5.896025   -18.194833
 0.550000   -5.986617   -18.166216
 0.555000   -6.077687   -18.419277
 0.560000   -6.170810   -18.798778
 0.565000   -6.265675   -18.995424
 0.570000   -6.360764   -18.917511
 0.575000   -6.454850   -18.601983
 0.580000   -6.546784   -18.107715
 0.585000   -6.635927   -17.360891
 0.590000   -6.720393   -16.231103
 0.595000   -6.798238   -14.878561
 0.600000   -6.869178   -13.431064
 0.605000   -6.932549   -11.873875
 0.610000   -6.987917   -10.286021
 0.615000   -7.035409   -8.730494
 0.620000   -7.075222   -7.279945
 0.625000   -7.108208   -5.988439
 0.630000   -7.135106   -4.870363
 0.635000   -7.156912   -3.948310
 0.640000   -7.174589   -3.172140
 0.645000   -7.188633   -2.515669
 0.650000   -7.199746   -2.056695
 0.655000   -7.209200   -1.722863
 0.660000   -7.216975   -1.403893
 0.665000   -7.223239   -1.118244
 0.670000   -7.228157   -0.887405
 0.675000   -7.232113   -0.674999
 0.680000   -7.234907   -0.453943
 0.685000   -7.236653   -0.308765
 0.690000   -7.237995   -0.242592
 0.695000   -7.239079   -0.201774
 0.700000   -7.240013   -0.213519
 0.705000   -7.241214   -0.307108
 0.710000   -7.243084   -0.403936
 0.715000   -7.245253   -0.452756
 0.720000   -7.247611   -0.511233
 0.725000   -7.250365   -0.597695
 0.730000   -7.253588   -0.697930
 0.735000   -7.257345   -0.776507
 0.740000   -7.261353   -0.856269
 0.745000   -7.265907   -0.938599
 0.750000   -7.270739   -0.989402
 0.755000   -7.275801   -1.009130
 0.760000   -7.280831   -0.977685
 0.765000   -7.285578   -0.887755
 0.770000   -7.289708   -0.741775
 0.775000   -7.292996   -0.581376
 0.780000   -7.295522   -0.453351
 0.785000   -7.297530   -0.349208
 0.790000   -7.299014   -0.314710
 0.795000   -7.300677   -0.470951
 0.800000   -7.303723   -0.789727
 0.805000   -7.308574   -1.151236
 0.810000   -7.315236   -1.521257
 0.815000   -7.323786   -1.919673
 0.820000   -7.334433   -2.281628
 0.825000   -7.346603   -2.432189
 0.830000   -7.358754   -2.325912
 0.835000   -7.369862   -2.091420
 0.840000   -7.379669   -1.679753
 0.845000   -7.386659   -1.061786
 0.850000   -7.390286   -0.386604
 0.855000   -7.390525   0.188734
 0.860000   -7.388399   0.715451
 0.865000   -7.383371   1.202432
 0.870000   -7.376375   1.442138
 0.875000   -7.368950   1.454997
 0.880000   -7.361825   1.364035
 0.885000   -7.355309   1.160156
 0.890000   -7.350223   0.681272
 0.895000   -7.348496   -0.003860
 0.900000   -7.350262   -0.736404
 0.905000   -7.355861   -1.568559
 0.910000   -7.365947   -2.634533
 0.915000   -7.382206   -3.745489
 0.920000   -7.403402   -4.717164
 0.925000   -7.429377   -5.531595
 0.930000   -7.458718   -5.858684
 0.935000   -7.487964   -6.702899
 0.940000   -7.525747   -9.190047
 0.945000   -7.579865   -12.542139
 0.950000   -7.651169   -16.735191
 0.955000   -7.747217   -23.877566
 0.960000   -7.889944   -32.994517
 0.965000   -8.077162   -37.631186
 0.970000   -8.266256   -20.358025
 0.975000   -8.280742   50.895462
 0.980000   -7.757302   214.313401
 0.985000   -6.137608   485.514703
 0.990000   -2.902155   808.224827
 0.995000   1.944640   1017.286424
 1.000000   7.270710   1113.141388
201 psinorm omgvb(kRad/s) domgvb/dpsiN
 0.000000   59.530450   100.702668
 0.005000   59.935583   61.350670
 0.010000   60.143957   39.430624
 0.015000   60.329889   36.150950
 0.020000   60.505466   34.147863
 0.025000   60.671368   31.825684
 0.030000   60.823723   28.717094
 0.035000   60.958539   25.471665
 0.040000   61.078440   22.309283
 0.045000   61.181632   19.121931
 0.050000   61.269659   16.251319
 0.055000   61.344145   13.869356
 0.060000   61.408352   12.092212
 0.065000   61.465067   10.614564
 0.070000   61.514498   9.344760
 0.075000   61.558515   8.216367
 0.080000   61.596662   6.954209
 0.085000   61.628057   5.469264
 0.090000   61.651354   3.784263
 0.095000   61.665899   1.759036
 0.100000   61.668945   -0.566166
 0.105000   61.660238   -3.061215
 0.110000   61.638333   -5.682624
 0.115000   61.603412   -8.433816
 0.120000   61.553994   -11.209686
 0.125000   61.491315   -13.737807
 0.130000   61.416616   -16.075204
 0.135000   61.330563   -18.289933
 0.140000   61.233717   -20.368197
 0.145000   61.126881   -22.348728
 0.150000   61.010230   -24.337722
 0.155000   60.883503   -26.455867
 0.160000   60.745671   -28.646611
 0.165000   60.597037   -30.955521
 0.170000   60.436116   -33.340245
 0.175000   60.263635   -35.780152
 0.180000   60.078314   -38.280858
 0.185000   59.880826   -40.747388
 0.190000   59.670840   -43.266603
 0.195000   59.448160   -45.682096
 0.200000   59.214019   -48.053527
 0.205000   58.967625   -50.309196
 0.210000   58.710928   -52.319168
 0.215000   58.444433   -54.177766
 0.220000   58.169150   -55.755907
 0.225000   57.886874   -57.121552
 0.230000   57.597934   -58.319188
 0.235000   57.303682   -59.354155
 0.240000   57.004393   -60.362498
 0.245000   56.700057   -61.197626
 0.250000   56.392417   -61.900808
 0.255000   56.081049   -62.482267
 0.260000   55.767594   -62.876660
 0.265000   55.452283   -63.243167
 0.270000   55.135162   -63.527225
 0.275000   54.817011   -63.674730
 0.280000   54.498415   -63.803407
 0.285000   54.178976   -63.854573
 0.290000   53.859869   -63.913309
 0.295000   53.539843   -64.129248
 0.300000   53.218577   -64.342322
 0.305000   52.896420   -64.594482
 0.310000   52.572632   -64.963789
 0.315000   52.246782   -65.360028
 0.320000   51.919032   -65.724284
 0.325000   51.589539   -66.086224
 0.330000   51.258169   -66.395571
 0.335000   50.925584   -66.601076
 0.340000   50.592159   -66.715819
 0.345000   50.258425   -66.650412
 0.350000   49.925654   -66.308458
 0.355000   49.595341   -65.779839
 0.360000   49.267856   -65.181927
 0.365000   48.943522   -64.535380
 0.370000   48.622502   -63.902382
 0.375000   48.304498   -63.301194
 0.380000   47.989490   -62.780890
 0.385000   47.676689   -62.401384
 0.390000   47.365476   -62.106459
 0.395000   47.055624   -61.822089
 0.400000   46.747256   -61.503512
 0.405000   46.440589   -61.084339
 0.410000   46.136412   -60.501171
 0.415000   45.835578   -59.765434
 0.420000   45.538758   -59.060445
 0.425000   45.244973   -58.703736
 0.430000   44.951721   -58.962043
 0.435000   44.655353   -60.124514
 0.440000   44.350475   -62.678493
 0.445000   44.028568   -66.134094
 0.450000   43.689134   -69.797331
 0.455000   43.330594   -73.681005
 0.460000   42.952324   -77.571345
 0.465000   42.554881   -81.316600
 0.470000   42.139158   -84.514075
 0.475000   41.709740   -86.288458
 0.480000   41.276274   -86.337855
 0.485000   40.846362   -84.876899
 0.490000   40.427505   -82.015749
 0.495000   40.026204   -77.695982
 0.500000   39.650545   -71.915879
 0.505000   39.307045   -65.491077
 0.510000   38.995634   -59.188101
 0.515000   38.715164   -53.101441
 0.520000   38.464620   -47.431371
 0.525000   38.240851   -42.366115
 0.530000   38.040959   -38.448043
 0.535000   37.856370   -36.134970
 0.540000   37.679609   -35.129048
 0.545000   37.505080   -35.170133
 0.550000   37.327908   -35.942915
 0.555000   37.145651   -37.262245
 0.560000   36.955285   -39.051365
 0.565000   36.755137   -40.964712
 0.570000   36.545638   -42.886517
 0.575000   36.326272   -44.929862
 0.580000   36.096339   -47.169162
 0.585000   35.854580   -49.536900
 0.590000   35.600970   -51.920734
 0.595000   35.335373   -54.372543
 0.600000   35.057245   -56.926283
 0.605000   34.766110   -59.566507
 0.610000   34.461580   -62.303381
 0.615000   34.143076   -65.124236
 0.620000   33.810338   -67.934800
 0.625000   33.463728   -70.729157
 0.630000   33.103046   -73.532779
 0.635000   32.728400   -76.280467
 0.640000   32.340241   -78.870623
 0.645000   31.939694   -81.244389
 0.650000   31.527797   -83.310299
 0.655000   31.106591   -85.147420
 0.660000   30.676323   -86.917593
 0.665000   30.237415   -88.639747
 0.670000   29.789926   -90.434830
 0.675000   29.333067   -92.385957
 0.680000   28.866066   -94.661949
 0.685000   28.386447   -97.464968
 0.690000   27.891417   -100.556083
 0.695000   27.380887   -103.527225
 0.700000   26.856144   -106.164759
 0.705000   26.319239   -108.318215
 0.710000   25.772962   -109.881251
 0.715000   25.220427   -110.730314
 0.720000   24.665659   -110.813684
 0.725000   24.112290   -110.189270
 0.730000   23.563766   -108.877414
 0.735000   23.023516   -106.857841
 0.740000   22.495188   -104.156441
 0.745000   21.981951   -100.801574
 0.750000   21.487172   -96.890527
 0.755000   21.013046   -92.570405
 0.760000   20.561468   -87.968600
 0.765000   20.133360   -83.272350
 0.770000   19.728745   -78.724799
 0.775000   19.346112   -74.612929
 0.780000   18.982615   -70.863221
 0.785000   18.637480   -67.186929
 0.790000   18.310746   -63.549289
 0.795000   18.001987   -60.057790
 0.800000   17.710168   -56.778268
 0.805000   17.434204   -53.721559
 0.810000   17.172953   -50.906568
 0.815000   16.925138   -48.580050
 0.820000   16.687152   -47.011972
 0.825000   16.455019   -46.259397
 0.830000   16.224558   -46.562122
 0.835000   15.989397   -48.435164
 0.840000   15.740206   -51.952594
 0.845000   15.469872   -57.248195
 0.850000   15.167724   -64.862469
 0.855000   14.821247   -75.188512
 0.860000   14.415839   -88.400918
 0.865000   13.937238   -104.928551
 0.870000   13.366554   -124.540194
 0.875000   12.691836   -146.406159
 0.880000   11.902492   -169.842608
 0.885000   10.993410   -193.662996
 0.890000   9.965862   -216.507896
 0.895000   8.828331   -236.838113
 0.900000   7.597481   -252.122734
 0.905000   6.307103   -260.583600
 0.910000   4.991645   -261.936677
 0.915000   3.687737   -255.708808
 0.920000   2.434557   -242.159008
 0.925000   1.266146   -222.063372
 0.930000   0.213923   -197.068134
 0.935000   -0.704535   -170.666003
 0.940000   -1.492737   -145.795102
 0.945000   -2.162486   -123.400473
 0.950000   -2.726741   -104.869149
 0.955000   -3.211177   -93.012502
 0.960000   -3.656866   -87.525616
 0.965000   -4.086434   -82.128997
 0.970000   -4.478156   -58.577197
 0.975000   -4.672206   16.039415
 0.980000   -4.317762   180.715392
 0.985000   -2.865052   451.928544
 0.990000   0.201523   773.881908
 0.995000   4.873767   981.697431
 1.000000   10.018497   1076.194569
201 psinorm omgpp(kRad/s) domgpp/dpsiN
 0.000000   -0.071050   -35.353639
 0.005000   -0.287316   -51.152695
 0.010000   -0.582577   -59.819139
 0.015000   -0.885508   -61.249968
 0.020000   -1.195077   -62.441769
 0.025000   -1.509925   -63.348498
 0.030000   -1.828562   -63.991414
 0.035000   -2.149839   -64.366823
 0.040000   -2.472230   -64.441390
 0.045000   -2.794253   -64.219626
 0.050000   -3.114426   -63.654641
 0.055000   -3.430800   -62.740519
 0.060000   -3.741832   -61.683331
 0.065000   -4.047633   -60.419408
 0.070000   -4.346026   -58.826391
 0.075000   -4.635897   -57.033319
 0.080000   -4.916359   -55.029950
 0.085000   -5.186196   -52.772716
 0.090000   -5.444086   -50.626167
 0.095000   -5.692458   -48.501293
 0.100000   -5.929099   -46.128235
 0.105000   -6.153740   -43.709179
 0.110000   -6.366191   -41.232830
 0.115000   -6.566069   -38.615419
 0.120000   -6.752345   -36.082935
 0.125000   -6.926898   -33.560073
 0.130000   -7.087946   -30.824672
 0.135000   -7.235145   -28.019037
 0.140000   -7.368136   -25.135386
 0.145000   -7.486499   -22.066663
 0.150000   -7.588803   -19.035482
 0.155000   -7.676853   -16.088477
 0.160000   -7.749688   -13.029466
 0.165000   -7.807148   -9.942202
 0.170000   -7.849110   -6.835386
 0.175000   -7.875502   -3.520667
 0.180000   -7.884316   -0.444290
 0.185000   -7.879945   2.276476
 0.190000   -7.861551   5.031934
 0.195000   -7.829626   7.662932
 0.200000   -7.784922   10.130588
 0.205000   -7.728320   12.482956
 0.210000   -7.660093   14.307921
 0.215000   -7.585240   15.679652
 0.220000   -7.503296   17.026134
 0.225000   -7.414979   18.216776
 0.230000   -7.321128   19.260023
 0.235000   -7.222379   19.883090
 0.240000   -7.122297   20.554634
 0.245000   -7.016833   21.803948
 0.250000   -6.904258   23.294406
 0.255000   -6.783889   24.985965
 0.260000   -6.654398   26.906436
 0.265000   -6.514824   28.892010
 0.270000   -6.365478   31.056232
 0.275000   -6.204262   33.190775
 0.280000   -6.033570   34.919813
 0.285000   -5.855064   36.384684
 0.290000   -5.669724   37.648830
 0.295000   -5.478575   38.953686
 0.300000   -5.280187   40.099822
 0.305000   -5.077577   40.573471
 0.310000   -4.874452   40.848144
 0.315000   -4.669096   41.170790
 0.320000   -4.462744   41.164344
 0.325000   -4.257452   40.769091
 0.330000   -4.055053   39.348647
 0.335000   -3.863966   36.826095
 0.340000   -3.686792   34.417002
 0.345000   -3.519796   32.427024
 0.350000   -3.362522   30.551352
 0.355000   -3.214282   28.626637
 0.360000   -3.076256   26.506054
 0.365000   -2.949222   25.232008
 0.370000   -2.823936   24.653092
 0.375000   -2.702691   23.976644
 0.380000   -2.584169   23.574138
 0.385000   -2.466949   23.354741
 0.390000   -2.350622   23.344811
 0.395000   -2.233501   24.143896
 0.400000   -2.109183   24.930145
 0.405000   -1.984200   24.956636
 0.410000   -1.859616   24.764241
 0.415000   -1.736558   24.380115
 0.420000   -1.615815   24.064100
 0.425000   -1.495917   23.151641
 0.430000   -1.384299   21.560500
 0.435000   -1.280312   19.988145
 0.440000   -1.184417   18.348716
 0.445000   -1.096824   16.693497
 0.450000   -1.017482   15.450928
 0.455000   -0.942315   13.771865
 0.460000   -0.879764   11.672883
 0.465000   -0.825586   10.013672
 0.470000   -0.779627   8.384831
 0.475000   -0.741738   6.780731
 0.480000   -0.711820   5.338555
 0.485000   -0.688352   3.554979
 0.490000   -0.676270   1.524166
 0.495000   -0.673111   -0.176712
 0.500000   -0.678037   -1.699771
 0.505000   -0.690108   -3.008844
 0.510000   -0.708125   -4.096532
 0.515000   -0.731074   -5.074244
 0.520000   -0.758868   -6.066831
 0.525000   -0.791742   -7.058772
 0.530000   -0.829456   -7.996397
 0.535000   -0.871706   -8.870621
 0.540000   -0.918162   -9.723630
 0.545000   -0.968942   -10.492344
 0.550000   -1.023085   -11.133777
 0.555000   -1.080280   -11.729680
 0.560000   -1.140382   -12.279611
 0.565000   -1.203076   -12.763786
 0.570000   -1.268020   -13.213358
 0.575000   -1.335210   -13.567279
 0.580000   -1.403693   -13.777779
 0.585000   -1.472988   -13.919913
 0.590000   -1.542892   -13.994558
 0.595000   -1.612933   -13.976337
 0.600000   -1.682655   -13.881388
 0.605000   -1.751747   -13.760043
 0.610000   -1.820256   -13.636631
 0.615000   -1.888113   -13.488167
 0.620000   -1.955137   -13.307696
 0.625000   -2.021190   -13.106449
 0.630000   -2.086202   -12.955066
 0.635000   -2.150741   -12.864912
 0.640000   -2.214851   -12.603518
 0.645000   -2.276776   -12.203421
 0.650000   -2.336885   -11.808406
 0.655000   -2.394860   -11.353621
 0.660000   -2.450421   -10.931552
 0.665000   -2.504176   -10.645120
 0.670000   -2.556873   -10.119939
 0.675000   -2.605375   -9.553899
 0.680000   -2.652412   -9.440406
 0.685000   -2.699779   -9.685226
 0.690000   -2.749264   -10.427919
 0.695000   -2.804058   -11.970579
 0.700000   -2.868970   -12.391169
 0.705000   -2.927970   -11.743270
 0.710000   -2.986402   -11.482031
 0.715000   -3.042790   -10.887957
 0.720000   -3.095282   -9.985117
 0.725000   -3.142642   -9.261346
 0.730000   -3.187895   -6.808279
 0.735000   -3.210724   -3.110561
 0.740000   -3.219001   -0.036032
 0.745000   -3.211085   3.320258
 0.750000   -3.185798   6.847565
 0.755000   -3.142609   11.043875
 0.760000   -3.075360   14.835932
 0.765000   -2.994250   17.380326
 0.770000   -2.901556   19.405264
 0.775000   -2.800197   20.822767
 0.780000   -2.693329   21.596427
 0.785000   -2.584233   22.504895
 0.790000   -2.468280   21.932972
 0.795000   -2.364903   19.881507
 0.800000   -2.269465   18.257995
 0.805000   -2.182323   16.475981
 0.810000   -2.104705   14.471036
 0.815000   -2.037613   12.075460
 0.820000   -1.983950   9.418560
 0.825000   -1.943427   7.391554
 0.830000   -1.910035   6.057628
 0.835000   -1.882851   4.844753
 0.840000   -1.861587   3.651444
 0.845000   -1.846336   2.126959
 0.850000   -1.840318   0.564878
 0.855000   -1.840688   -0.946563
 0.860000   -1.849783   -2.989755
 0.865000   -1.870585   -5.505950
 0.870000   -1.904843   -8.370532
 0.875000   -1.954291   -12.333762
 0.880000   -2.028180   -16.800805
 0.885000   -2.122299   -20.366249
 0.890000   -2.231843   -24.067012
 0.895000   -2.362969   -28.796799
 0.900000   -2.519811   -34.598716
 0.905000   -2.708956   -43.872175
 0.910000   -2.958533   -57.202420
 0.915000   -3.280980   -70.535398
 0.920000   -3.663887   -86.274254
 0.925000   -4.143723   -108.524359
 0.930000   -4.749130   -137.247289
 0.935000   -5.516195   -177.923009
 0.940000   -6.528360   -232.846632
 0.945000   -7.844662   -285.284059
 0.950000   -9.381201   -334.940195
 0.955000   -11.194064   -385.071061
 0.960000   -13.231911   -417.655366
 0.965000   -15.370617   -423.244818
 0.970000   -17.464360   -387.792979
 0.975000   -19.248547   -272.896591
 0.980000   -20.193326   -103.379442
 0.985000   -20.282342   69.518294
 0.990000   -19.498143   231.505223
 0.995000   -17.967289   354.695733
 1.000000   -15.951185   451.745905
201 psinorm omgeb(kRad/s) domgeb/dpsiN
 0.000000   59.459400   65.349029
 0.005000   59.648267   10.197975
 0.010000   59.561379   -20.388515
 0.015000   59.444382   -25.099018
 0.020000   59.310389   -28.293906
 0.025000   59.161443   -31.522814
 0.030000   58.995161   -35.274320
 0.035000   58.808700   -38.895158
 0.040000   58.606209   -42.132107
 0.045000   58.387379   -45.097695
 0.050000   58.155232   -47.403322
 0.055000   57.913345   -48.871163
 0.060000   57.666521   -49.591120
 0.065000   57.417434   -49.804845
 0.070000   57.168472   -49.481630
 0.075000   56.922618   -48.816952
 0.080000   56.680303   -48.075741
 0.085000   56.441860   -47.303452
 0.090000   56.207268   -46.841903
 0.095000   55.973441   -46.742257
 0.100000   55.739846   -46.694400
 0.105000   55.506497   -46.770394
 0.110000   55.272142   -46.915453
 0.115000   55.037343   -47.049235
 0.120000   54.801649   -47.292621
 0.125000   54.564417   -47.297880
 0.130000   54.328671   -46.899876
 0.135000   54.095418   -46.308970
 0.140000   53.865581   -45.503583
 0.145000   53.640382   -44.415391
 0.150000   53.421427   -43.373204
 0.155000   53.206650   -42.544345
 0.160000   52.995984   -41.676077
 0.165000   52.789889   -40.897723
 0.170000   52.587006   -40.175631
 0.175000   52.388133   -39.300819
 0.180000   52.193998   -38.725149
 0.185000   52.000881   -38.470911
 0.190000   51.809289   -38.234670
 0.195000   51.618535   -38.019165
 0.200000   51.429097   -37.922939
 0.205000   51.239305   -37.826240
 0.210000   51.050835   -38.011247
 0.215000   50.859193   -38.498114
 0.220000   50.665854   -38.729773
 0.225000   50.471895   -38.904776
 0.230000   50.276806   -39.059165
 0.235000   50.081303   -39.471066
 0.240000   49.882095   -39.807864
 0.245000   49.683225   -39.393678
 0.250000   49.488159   -38.606402
 0.255000   49.297161   -37.496302
 0.260000   49.113196   -35.970224
 0.265000   48.937459   -34.351157
 0.270000   48.769684   -32.470993
 0.275000   48.612749   -30.483956
 0.280000   48.464844   -28.883595
 0.285000   48.323913   -27.469889
 0.290000   48.190146   -26.264479
 0.295000   48.061268   -25.175562
 0.300000   47.938390   -24.242499
 0.305000   47.818843   -24.021011
 0.310000   47.698180   -24.115645
 0.315000   47.577686   -24.189238
 0.320000   47.456287   -24.559940
 0.325000   47.332087   -25.317133
 0.330000   47.203116   -27.046924
 0.335000   47.061618   -29.774981
 0.340000   46.905366   -32.298817
 0.345000   46.738630   -34.223388
 0.350000   46.563132   -35.757106
 0.355000   46.381059   -37.153201
 0.360000   46.191600   -38.675874
 0.365000   45.994300   -39.303373
 0.370000   45.798567   -39.249290
 0.375000   45.601807   -39.324550
 0.380000   45.405321   -39.206752
 0.385000   45.209739   -39.046643
 0.390000   45.014855   -38.761648
 0.395000   44.822123   -37.678192
 0.400000   44.638073   -36.573367
 0.405000   44.456389   -36.127703
 0.410000   44.276796   -35.736930
 0.415000   44.099020   -35.385319
 0.420000   43.922943   -34.996345
 0.425000   43.749057   -35.552095
 0.430000   43.567422   -37.401543
 0.435000   43.375041   -40.136369
 0.440000   43.166058   -44.329777
 0.445000   42.931743   -49.440597
 0.450000   42.671652   -54.346403
 0.455000   42.388279   -59.909140
 0.460000   42.072561   -65.898461
 0.465000   41.729295   -71.302928
 0.470000   41.359531   -76.129243
 0.475000   40.968002   -79.507728
 0.480000   40.564454   -80.999300
 0.485000   40.158009   -81.321921
 0.490000   39.751235   -80.491583
 0.495000   39.353093   -77.872694
 0.500000   38.972508   -73.615649
 0.505000   38.616937   -68.499921
 0.510000   38.287509   -63.284633
 0.515000   37.984091   -58.175685
 0.520000   37.705752   -53.498201
 0.525000   37.449109   -49.424888
 0.530000   37.211503   -46.444440
 0.535000   36.984664   -45.005590
 0.540000   36.761447   -44.852677
 0.545000   36.536137   -45.662477
 0.550000   36.304822   -47.076692
 0.555000   36.065371   -48.991924
 0.560000   35.814903   -51.330976
 0.565000   35.552061   -53.728498
 0.570000   35.277618   -56.099875
 0.575000   34.991062   -58.497142
 0.580000   34.692647   -60.946942
 0.585000   34.381593   -63.456813
 0.590000   34.058079   -65.915292
 0.595000   33.722440   -68.348880
 0.600000   33.374590   -70.807671
 0.605000   33.014363   -73.326550
 0.610000   32.641324   -75.940012
 0.615000   32.254963   -78.612403
 0.620000   31.855200   -81.242496
 0.625000   31.442538   -83.835606
 0.630000   31.016844   -86.487845
 0.635000   30.577659   -89.145379
 0.640000   30.125390   -91.474141
 0.645000   29.662918   -93.447809
 0.650000   29.190912   -95.118705
 0.655000   28.711731   -96.501042
 0.660000   28.225902   -97.849145
 0.665000   27.733240   -99.284867
 0.670000   27.233053   -100.554770
 0.675000   26.727692   -101.939855
 0.680000   26.213655   -104.102355
 0.685000   25.686668   -107.150193
 0.690000   25.142153   -110.984002
 0.695000   24.576828   -115.497804
 0.700000   23.987175   -118.555929
 0.705000   23.391269   -120.061485
 0.710000   22.786560   -121.363282
 0.715000   22.177636   -121.618271
 0.720000   21.570377   -120.798800
 0.725000   20.969648   -119.450616
 0.730000   20.375871   -115.685694
 0.735000   19.812791   -109.968402
 0.740000   19.276187   -104.192473
 0.745000   18.770866   -97.481316
 0.750000   18.301374   -90.042961
 0.755000   17.870437   -81.526530
 0.760000   17.486108   -73.132668
 0.765000   17.139110   -65.892024
 0.770000   16.827188   -59.319534
 0.775000   16.545915   -53.790162
 0.780000   16.289287   -49.266795
 0.785000   16.053247   -44.682034
 0.790000   15.842466   -41.616317
 0.795000   15.637084   -40.176283
 0.800000   15.440703   -38.520273
 0.805000   15.251881   -37.245578
 0.810000   15.068248   -36.435532
 0.815000   14.887526   -36.504590
 0.820000   14.703202   -37.593412
 0.825000   14.511592   -38.867843
 0.830000   14.314523   -40.504495
 0.835000   14.106547   -43.590411
 0.840000   13.878619   -48.301149
 0.845000   13.623535   -55.121237
 0.850000   13.327407   -64.297591
 0.855000   12.980559   -76.135074
 0.860000   12.566056   -91.390674
 0.865000   12.066652   -110.434501
 0.870000   11.461711   -132.910726
 0.875000   10.737545   -158.739920
 0.880000   9.874312   -186.643413
 0.885000   8.871111   -214.029246
 0.890000   7.734019   -240.574908
 0.895000   6.465362   -265.634912
 0.900000   5.077670   -286.721449
 0.905000   3.598147   -304.455775
 0.910000   2.033113   -319.139096
 0.915000   0.406757   -326.244207
 0.920000   -1.229330   -328.433263
 0.925000   -2.877576   -330.587731
 0.930000   -4.535207   -334.315423
 0.935000   -6.220730   -348.589012
 0.940000   -8.021097   -378.641734
 0.945000   -10.007148   -408.684532
 0.950000   -12.107942   -439.809344
 0.955000   -14.405241   -478.083563
 0.960000   -16.888778   -505.180982
 0.965000   -19.457051   -505.373815
 0.970000   -21.942516   -446.370177
 0.975000   -23.920753   -256.857176
 0.980000   -24.511088   77.335950
 0.985000   -23.147393   521.446838
 0.990000   -19.296619   1005.387131
 0.995000   -13.093522   1336.393164
 1.000000   -5.932688   1527.940474
201 psinorm er(kV/m) der/dpsiN
 0.000000   0.970274   1121.416292
 0.005000   5.489955   686.456125
 0.010000   7.834835   414.940577
 0.015000   9.639360   330.505881
 0.020000   11.139894   282.358255
 0.025000   12.462943   250.897191
 0.030000   13.648866   226.055331
 0.035000   14.723496   205.954550
 0.040000   15.708411   189.612582
 0.045000   16.619622   175.186500
 0.050000   17.460276   163.243567
 0.055000   18.252058   154.699432
 0.060000   19.007270   145.708525
 0.065000   19.709143   134.476021
 0.070000   20.352031   128.566129
 0.075000   20.994804   125.477032
 0.080000   21.606801   114.926843
 0.085000   22.144073   111.235613
 0.090000   22.719157   108.555643
 0.095000   23.229629   100.724440
 0.100000   23.726401   99.027626
 0.105000   24.219905   91.719338
 0.110000   24.643595   90.160653
 0.115000   25.121512   84.094986
 0.120000   25.484545   81.859240
 0.125000   25.940104   77.449966
 0.130000   26.259044   74.852605
 0.135000   26.688630   71.824928
 0.140000   26.977294   68.702339
 0.145000   27.375654   67.636039
 0.150000   27.653654   63.650372
 0.155000   28.012158   63.899970
 0.160000   28.292654   58.973909
 0.165000   28.601897   60.338195
 0.170000   28.896036   54.738305
 0.175000   29.149280   56.672194
 0.180000   29.462758   50.972790
 0.185000   29.659008   49.917223
 0.190000   29.961930   50.695124
 0.195000   30.165959   44.640089
 0.200000   30.408331   48.569299
 0.205000   30.651652   41.086976
 0.210000   30.819201   41.691809
 0.215000   31.068570   40.431684
 0.220000   31.223517   34.789216
 0.225000   31.416462   39.719641
 0.230000   31.620714   31.604193
 0.235000   31.732504   30.660396
 0.240000   31.927318   33.644171
 0.245000   32.068946   26.456463
 0.250000   32.191882   29.832908
 0.255000   32.367275   27.417863
 0.260000   32.466061   24.236746
 0.265000   32.609642   31.059497
 0.270000   32.776656   24.563580
 0.275000   32.855278   24.031581
 0.280000   33.016972   31.218669
 0.285000   33.167465   24.407783
 0.290000   33.261050   24.787368
 0.295000   33.415338   29.109895
 0.300000   33.552149   23.523804
 0.305000   33.650576   23.927990
 0.310000   33.791428   25.972720
 0.315000   33.910304   20.750984
 0.320000   33.998938   20.882550
 0.325000   34.119129   21.783176
 0.330000   34.216770   16.083633
 0.335000   34.279965   14.276180
 0.340000   34.359532   13.692128
 0.345000   34.416887   8.280722
 0.350000   34.442339   6.927990
 0.355000   34.486167   7.274967
 0.360000   34.515089   2.452375
 0.365000   34.510690   1.332318
 0.370000   34.528412   3.032108
 0.375000   34.541012   -0.452631
 0.380000   34.523886   -1.420895
 0.385000   34.526803   0.460786
 0.390000   34.528493   -2.078580
 0.395000   34.506017   -2.657785
 0.400000   34.501916   -0.602889
 0.405000   34.499988   -1.763905
 0.410000   34.484277   -3.125385
 0.415000   34.468734   -2.588362
 0.420000   34.458393   -2.616608
 0.425000   34.442568   -4.801942
 0.430000   34.410374   -6.732166
 0.435000   34.375246   -8.622214
 0.440000   34.324151   -13.531698
 0.445000   34.239929   -18.487573
 0.450000   34.139276   -22.147192
 0.455000   34.018457   -27.721780
 0.460000   33.862058   -33.690509
 0.465000   33.681552   -38.282739
 0.470000   33.479230   -42.653066
 0.475000   33.255022   -46.677955
 0.480000   33.012451   -48.648335
 0.485000   32.768538   -49.005835
 0.490000   32.522393   -49.445766
 0.495000   32.274081   -48.195231
 0.500000   32.040440   -44.802417
 0.505000   31.826056   -41.220796
 0.510000   31.628232   -37.884775
 0.515000   31.447209   -34.049489
 0.520000   31.287737   -30.264892
 0.525000   31.144560   -27.802364
 0.530000   31.009714   -25.891648
 0.535000   30.885643   -24.564348
 0.540000   30.764070   -25.048637
 0.545000   30.635157   -26.483844
 0.550000   30.499232   -27.760613
 0.555000   30.357551   -29.451082
 0.560000   30.204721   -32.350092
 0.565000   30.034050   -34.801129
 0.570000   29.856710   -36.549836
 0.575000   29.668552   -39.277517
 0.580000   29.463935   -42.101719
 0.585000   29.247534   -44.188973
 0.590000   29.022045   -46.321104
 0.595000   28.784323   -49.434979
 0.600000   28.527695   -51.911222
 0.605000   28.265211   -53.666097
 0.610000   27.991034   -56.595964
 0.615000   27.699251   -59.698380
 0.620000   27.394050   -61.883785
 0.625000   27.080414   -63.948892
 0.630000   26.754561   -67.435020
 0.635000   26.406063   -70.143638
 0.640000   26.053125   -71.557874
 0.645000   25.690485   -73.846540
 0.650000   25.314660   -76.233283
 0.655000   24.928152   -77.426093
 0.660000   24.540399   -78.237273
 0.665000   24.145779   -80.531120
 0.670000   23.735087   -82.189858
 0.675000   23.323880   -82.895768
 0.680000   22.906130   -84.958194
 0.685000   22.474299   -88.772300
 0.690000   22.018407   -92.286550
 0.695000   21.551433   -95.629747
 0.700000   21.062109   -99.090962
 0.705000   20.560523   -101.253914
 0.710000   20.049570   -102.156305
 0.715000   19.538960   -102.087203
 0.720000   19.028698   -102.596703
 0.725000   18.512993   -101.868801
 0.730000   18.010010   -97.826156
 0.735000   17.534732   -93.026293
 0.740000   17.079747   -89.100702
 0.745000   16.643725   -83.210358
 0.750000   16.247644   -75.879789
 0.755000   15.884927   -69.006824
 0.760000   15.557575   -62.307715
 0.765000   15.261850   -55.555912
 0.770000   15.002016   -49.301828
 0.775000   14.768831   -45.224597
 0.780000   14.549770   -41.559806
 0.785000   14.353233   -36.914452
 0.790000   14.180626   -34.140444
 0.795000   14.011829   -33.681885
 0.800000   13.843807   -32.325524
 0.805000   13.688574   -30.621090
 0.810000   13.537596   -30.166687
 0.815000   13.386907   -30.799219
 0.820000   13.229604   -31.777138
 0.825000   13.069135   -32.617328
 0.830000   12.903431   -34.454114
 0.835000   12.724594   -37.660787
 0.840000   12.526823   -41.837464
 0.845000   12.306220   -47.862545
 0.850000   12.048197   -56.618843
 0.855000   11.740031   -67.659857
 0.860000   11.371599   -81.345821
 0.865000   10.926573   -98.633536
 0.870000   10.385263   -119.518673
 0.875000   9.731386   -143.231240
 0.880000   8.952951   -168.433634
 0.885000   8.047050   -193.448357
 0.890000   7.018467   -217.967187
 0.895000   5.867378   -240.947490
 0.900000   4.608992   -260.051398
 0.905000   3.266864   -276.248381
 0.910000   1.846509   -289.723041
 0.915000   0.369634   -296.206470
 0.920000   -1.115556   -298.101386
 0.925000   -2.611380   -299.926205
 0.930000   -4.114818   -303.380029
 0.935000   -5.645180   -316.627164
 0.940000   -7.281090   -343.948409
 0.945000   -9.084665   -376.519093
 0.950000   -11.046281   -406.518994
 0.955000   -13.149854   -438.489174
 0.960000   -15.431172   -469.216212
 0.965000   -17.842017   -497.988632
 0.970000   -20.411059   -443.536960
 0.975000   -22.277386   -243.790478
 0.980000   -22.848964   61.202713
 0.985000   -21.665359   460.326993
 0.990000   -18.245694   924.070830
 0.995000   -12.424651   1256.015225
 1.000000   -5.685541   1439.628527
201 psinorm ommvb() dommvb/dpsiN
 0.000000   -36.974554   24010.351520
 0.005000   59.942172   14756.339051
 0.010000   110.588836   10082.440232
 0.015000   160.766574   9455.007829
 0.020000   205.138914   8067.332665
 0.025000   241.439901   6749.819459
 0.030000   272.637109   5778.822341
 0.035000   299.228124   5213.415208
 0.040000   324.771261   4782.261209
 0.045000   347.050737   4214.678248
 0.050000   366.918044   3815.880680
 0.055000   385.209543   3398.338980
 0.060000   400.901433   2862.384921
 0.065000   413.833393   2486.975380
 0.070000   425.771187   2154.544477
 0.075000   435.378837   1781.076803
 0.080000   443.581955   1528.569629
 0.085000   450.664534   1339.963514
 0.090000   456.981590   1144.003691
 0.095000   462.104570   926.485216
 0.100000   466.246442   641.160799
 0.105000   468.516178   465.863449
 0.110000   470.905077   328.800146
 0.115000   471.804180   94.958173
 0.120000   471.854659   -83.101152
 0.125000   470.973168   -257.052339
 0.130000   469.284135   -417.300363
 0.135000   466.800165   -573.369463
 0.140000   463.550441   -703.332448
 0.145000   459.766840   -838.044793
 0.150000   455.169993   -981.793662
 0.155000   449.948904   -1085.001055
 0.160000   444.319982   -1177.239326
 0.165000   438.176510   -1272.660058
 0.170000   431.593382   -1347.795912
 0.175000   424.698551   -1412.254805
 0.180000   417.470834   -1466.381047
 0.185000   410.034741   -1507.522558
 0.190000   402.395608   -1543.477947
 0.195000   394.599961   -1566.629835
 0.200000   386.729310   -1580.809484
 0.205000   378.791867   -1589.937170
 0.210000   370.829938   -1588.848419
 0.215000   362.903382   -1581.253842
 0.220000   355.017400   -1667.295756
 0.225000   346.230425   -1763.538168
 0.230000   337.382018   -1625.406602
 0.235000   329.976359   -1459.211246
 0.240000   322.789905   -1414.228944
 0.245000   315.834069   -1369.698762
 0.250000   309.092918   -1324.604014
 0.255000   302.588029   -1372.965711
 0.260000   295.363261   -1419.235882
 0.265000   288.395670   -1246.124044
 0.270000   282.902020   -1070.571601
 0.275000   277.689954   -1017.142439
 0.280000   272.730596   -964.161369
 0.285000   268.048341   -1042.659372
 0.290000   262.304002   -1022.290199
 0.295000   257.825439   -815.195168
 0.300000   254.152050   -711.340435
 0.305000   250.712034   -664.829359
 0.310000   247.503757   -709.832549
 0.315000   243.613709   -712.178593
 0.320000   240.381971   -556.317321
 0.325000   238.050536   -443.457899
 0.330000   235.947392   -397.681045
 0.335000   234.073725   -460.399449
 0.340000   231.343397   -441.861371
 0.345000   229.655111   -299.107652
 0.350000   228.352321   -248.988760
 0.355000   227.165224   -249.157546
 0.360000   225.860745   -278.834203
 0.365000   224.376882   -214.568236
 0.370000   223.715063   -122.448883
 0.375000   223.152393   -102.220898
 0.380000   222.692854   -146.909629
 0.385000   221.683297   -127.092919
 0.390000   221.421925   -38.821259
 0.395000   221.295084   -19.261501
 0.400000   221.229310   -49.682461
 0.405000   220.798259   -52.834457
 0.410000   220.700965   2.484222
 0.415000   220.823102   26.171852
 0.420000   220.962684   1.380233
 0.425000   220.836904   -17.444441
 0.430000   220.788239   14.705990
 0.435000   220.983964   36.795819
 0.440000   221.156198   6.768316
 0.445000   221.051647   -27.085522
 0.450000   220.885342   -6.647453
 0.455000   220.985173   16.182089
 0.460000   221.047163   -12.310714
 0.465000   220.862065   -47.657077
 0.470000   220.570593   -26.877574
 0.475000   220.593290   2.986169
 0.480000   220.600454   -20.312955
 0.485000   220.390160   -53.082732
 0.490000   220.069627   -27.439106
 0.495000   220.115769   11.039414
 0.500000   220.180021   -4.655400
 0.505000   220.069215   -30.802446
 0.510000   219.871997   -0.943236
 0.515000   220.059783   39.983172
 0.520000   220.271828   25.710190
 0.525000   220.316885   -5.264830
 0.530000   220.219180   21.564520
 0.535000   220.532530   64.663535
 0.540000   220.865815   52.917095
 0.545000   221.061701   22.911853
 0.550000   221.094934   45.508133
 0.555000   221.516782   85.645623
 0.560000   221.951390   78.182879
 0.565000   222.298611   50.745091
 0.570000   222.458841   71.430235
 0.575000   223.012913   113.721944
 0.580000   223.596060   116.354404
 0.585000   224.176457   94.348515
 0.590000   224.539546   113.198385
 0.595000   225.308441   158.470639
 0.600000   226.124252   168.365762
 0.605000   226.992099   163.507280
 0.610000   227.759325   189.587605
 0.615000   228.887975   238.347452
 0.620000   230.142799   260.954311
 0.625000   231.497518   276.690874
 0.630000   232.909708   308.091151
 0.635000   234.578429   349.360912
 0.640000   236.403317   379.067121
 0.645000   238.369101   412.303040
 0.650000   240.526348   468.345914
 0.655000   243.052560   507.422206
 0.660000   245.600570   527.421921
 0.665000   248.326779   563.521928
 0.670000   251.235789   619.057432
 0.675000   254.517353   671.275401
 0.680000   257.948543   694.560353
 0.685000   261.462957   715.679228
 0.690000   265.105335   737.527656
 0.695000   268.838233   812.655584
 0.700000   273.231891   865.083575
 0.705000   277.489069   877.592585
 0.710000   282.007817   930.911369
 0.715000   286.798183   991.239971
 0.720000   291.920217   1099.117359
 0.725000   297.789356   1158.992016
 0.730000   303.510137   1178.711231
 0.735000   309.576469   1249.798492
 0.740000   316.008122   1323.944056
 0.745000   322.815909   1453.207697
 0.750000   330.540199   1527.310277
 0.755000   338.089012   1545.494587
 0.760000   345.995144   1614.697454
 0.765000   354.235987   1680.452926
 0.770000   362.799674   1771.723398
 0.775000   371.953221   1865.582329
 0.780000   381.455497   1915.280785
 0.785000   391.106028   1972.282508
 0.790000   401.178322   2058.390984
 0.795000   411.689938   2148.279502
 0.800000   422.661117   2242.055526
 0.805000   434.110494   2326.617559
 0.810000   445.927293   2404.514436
 0.815000   458.155638   2492.770047
 0.820000   470.854993   2588.665331
 0.825000   484.042291   2687.276051
 0.830000   497.727754   2785.749406
 0.835000   511.899785   2833.957248
 0.840000   526.067326   2893.085383
 0.845000   540.830639   3011.451114
 0.850000   556.181837   3123.259133
 0.855000   572.063230   3237.302446
 0.860000   588.554862   3386.025409
 0.865000   605.923485   3612.212417
 0.870000   624.676986   3932.101308
 0.875000   645.244498   4286.150080
 0.880000   667.538487   4681.545462
 0.885000   692.059952   5285.545795
 0.890000   720.393945   6040.540540
 0.895000   752.465358   6879.709022
 0.900000   789.191035   7869.757065
 0.905000   831.162928   8976.126010
 0.910000   878.952295   10203.353151
 0.915000   933.196460   11484.210852
 0.920000   993.794404   12635.957116
 0.925000   1059.556031   13401.752222
 0.930000   1127.811926   13481.431447
 0.935000   1194.370345   12840.609184
 0.940000   1256.218018   12231.922428
 0.945000   1316.689570   14227.819999
 0.950000   1398.496218   22895.579329
 0.955000   1545.645363   41095.994433
 0.960000   1809.456162   69911.665465
 0.965000   2244.762018   105700.886677
 0.970000   2866.465029   142201.567062
 0.975000   3666.777688   184436.106900
 0.980000   4710.826098   232581.717466
 0.985000   5992.594863   180589.416448
 0.990000   6516.720262   -53347.469985
 0.995000   5459.120163   57801.765650
 1.000000   7094.737919   596445.336606
201 psinorm ommpp() dommpp/dpsiN
 0.000000   96.433954   -23945.002491
 0.005000   -0.293905   -14746.141076
 0.010000   -51.027457   -10102.828747
 0.015000   -101.322192   -9480.106846
 0.020000   -145.828525   -8095.626571
 0.025000   -182.278458   -6781.342273
 0.030000   -213.641948   -5814.096662
 0.035000   -240.419425   -5252.310366
 0.040000   -266.165052   -4824.393316
 0.045000   -288.663358   -4259.775943
 0.050000   -308.762811   -3863.284001
 0.055000   -327.296198   -3447.210143
 0.060000   -343.234913   -2911.976040
 0.065000   -356.415958   -2536.780224
 0.070000   -368.602715   -2204.026107
 0.075000   -378.456219   -1829.893755
 0.080000   -386.901652   -1576.645370
 0.085000   -394.222673   -1387.266967
 0.090000   -400.774322   -1190.845594
 0.095000   -406.131129   -973.227473
 0.100000   -410.506597   -687.855200
 0.105000   -413.009681   -512.633843
 0.110000   -415.632935   -375.715600
 0.115000   -416.766837   -142.007408
 0.120000   -417.053009   35.808531
 0.125000   -416.408752   209.754459
 0.130000   -414.955465   370.400487
 0.135000   -412.704747   527.060492
 0.140000   -409.684860   657.828865
 0.145000   -406.126458   793.629401
 0.150000   -401.748566   938.420458
 0.155000   -396.742254   1042.456711
 0.160000   -391.323999   1135.563249
 0.165000   -385.386621   1231.762335
 0.170000   -379.006375   1307.620280
 0.175000   -372.310418   1372.953985
 0.180000   -365.276835   1427.655898
 0.185000   -358.033859   1469.051647
 0.190000   -350.586319   1505.243278
 0.195000   -342.981427   1528.610671
 0.200000   -335.300212   1542.886545
 0.205000   -327.552561   1552.110929
 0.210000   -319.779103   1550.837171
 0.215000   -312.044189   1542.755728
 0.220000   -304.351546   1628.565983
 0.225000   -295.758530   1724.633392
 0.230000   -287.105212   1586.347437
 0.235000   -279.895055   1419.740180
 0.240000   -272.907810   1374.421080
 0.245000   -266.150844   1330.305084
 0.250000   -259.604759   1285.997613
 0.255000   -253.290868   1335.469409
 0.260000   -246.250065   1383.265658
 0.265000   -239.458212   1211.772887
 0.270000   -234.132336   1038.100608
 0.275000   -229.077206   986.658484
 0.280000   -224.265751   935.277774
 0.285000   -219.724428   1015.189484
 0.290000   -214.113857   996.025720
 0.295000   -209.764171   790.019606
 0.300000   -206.213660   687.097935
 0.305000   -202.893191   640.808348
 0.310000   -199.805577   685.716904
 0.315000   -196.036022   687.989355
 0.320000   -192.925683   531.757381
 0.325000   -190.718449   418.140766
 0.330000   -188.744276   370.634121
 0.335000   -187.012107   430.624467
 0.340000   -184.438031   409.562555
 0.345000   -182.916482   264.884264
 0.350000   -181.789188   213.231655
 0.355000   -180.784165   212.004345
 0.360000   -179.669145   240.158330
 0.365000   -178.382582   175.264864
 0.370000   -177.916496   83.199593
 0.375000   -177.550586   62.896348
 0.380000   -177.287533   107.702877
 0.385000   -176.473557   88.046276
 0.390000   -176.407070   0.059611
 0.395000   -176.472961   -18.416691
 0.400000   -176.591237   13.109094
 0.405000   -176.341870   16.706754
 0.410000   -176.424169   -38.221151
 0.415000   -176.724082   -61.557172
 0.420000   -177.039741   -36.376578
 0.425000   -177.087848   -18.107654
 0.430000   -177.220818   -52.107533
 0.435000   -177.608923   -76.932188
 0.440000   -177.990140   -51.098093
 0.445000   -178.119904   -22.355075
 0.450000   -178.213690   -47.698950
 0.455000   -178.596893   -76.091229
 0.460000   -178.974603   -53.587748
 0.465000   -179.132771   -23.645851
 0.470000   -179.211061   -49.251669
 0.475000   -179.625287   -82.493896
 0.480000   -180.036000   -60.686345
 0.485000   -180.232151   -28.239188
 0.490000   -180.318392   -53.052477
 0.495000   -180.762676   -88.912108
 0.500000   -181.207513   -68.960249
 0.505000   -181.452278   -37.697475
 0.510000   -181.584488   -62.341397
 0.515000   -182.075692   -98.158858
 0.520000   -182.566076   -79.208392
 0.525000   -182.867776   -44.160058
 0.530000   -183.007677   -68.008959
 0.535000   -183.547866   -109.669125
 0.540000   -184.104368   -97.769772
 0.545000   -184.525563   -68.574330
 0.550000   -184.790112   -92.584824
 0.555000   -185.451412   -134.637547
 0.560000   -186.136487   -129.513855
 0.565000   -186.746550   -104.473589
 0.570000   -187.181223   -127.530110
 0.575000   -188.021851   -172.219086
 0.580000   -188.903414   -177.301345
 0.585000   -189.794865   -157.805327
 0.590000   -190.481467   -179.113676
 0.595000   -191.586001   -226.819519
 0.600000   -192.749662   -239.173433
 0.605000   -193.977736   -236.833829
 0.610000   -195.118001   -265.527617
 0.615000   -196.633012   -316.959855
 0.620000   -198.287599   -342.196807
 0.625000   -200.054980   -360.526480
 0.630000   -201.892864   -394.578996
 0.635000   -204.000770   -438.506291
 0.640000   -206.277927   -470.541262
 0.645000   -208.706183   -505.750849
 0.650000   -211.335435   -563.464619
 0.655000   -214.340829   -603.923247
 0.660000   -217.374668   -625.271066
 0.665000   -220.593539   -662.806794
 0.670000   -224.002736   -719.612202
 0.675000   -227.789661   -773.215257
 0.680000   -231.734888   -798.662708
 0.685000   -235.776289   -822.829421
 0.690000   -239.963182   -848.511657
 0.695000   -244.261405   -928.153388
 0.700000   -249.244716   -983.639504
 0.705000   -254.097800   -997.654069
 0.710000   -259.221257   -1052.274651
 0.715000   -264.620547   -1112.858242
 0.720000   -270.349839   -1219.916159
 0.725000   -276.819708   -1278.442632
 0.730000   -283.134266   -1294.396925
 0.735000   -289.763678   -1359.766894
 0.740000   -296.731935   -1428.136529
 0.745000   -304.045043   -1550.689013
 0.750000   -312.238825   -1617.353238
 0.755000   -320.218575   -1627.021117
 0.760000   -328.509036   -1687.830122
 0.765000   -337.096876   -1746.344950
 0.770000   -345.972486   -1831.042932
 0.775000   -355.407306   -1919.372491
 0.780000   -365.166210   -1964.547580
 0.785000   -375.052782   -2016.964542
 0.790000   -385.335856   -2100.007301
 0.795000   -396.052855   -2188.455785
 0.800000   -407.220414   -2280.575799
 0.805000   -418.858613   -2363.863137
 0.810000   -430.859045   -2440.949969
 0.815000   -443.268112   -2529.274637
 0.820000   -456.151791   -2626.258743
 0.825000   -469.530700   -2726.143895
 0.830000   -483.413230   -2826.253900
 0.835000   -497.793239   -2877.547659
 0.840000   -512.188707   -2941.386532
 0.845000   -527.207104   -3066.572350
 0.850000   -542.854430   -3187.556724
 0.855000   -559.082671   -3313.437520
 0.860000   -575.988806   -3477.416082
 0.865000   -593.856832   -3722.646918
 0.870000   -613.215275   -4065.012034
 0.875000   -634.506952   -4444.890001
 0.880000   -657.664175   -4868.188875
 0.885000   -683.188841   -5499.575041
 0.890000   -712.659925   -6281.115448
 0.895000   -745.999996   -7145.343934
 0.900000   -784.113365   -8156.478514
 0.905000   -827.564781   -9280.581785
 0.910000   -876.919182   -10522.492247
 0.915000   -932.789703   -11810.455058
 0.920000   -995.023733   -12964.390379
 0.925000   -1062.433607   -13732.339953
 0.930000   -1132.347133   -13815.746870
 0.935000   -1200.591076   -13189.198196
 0.940000   -1264.239115   -12610.564162
 0.945000   -1326.696717   -14636.504532
 0.950000   -1410.604160   -23335.388673
 0.955000   -1560.050604   -41574.077996
 0.960000   -1826.344940   -70416.846447
 0.965000   -2264.219069   -106206.260492
 0.970000   -2888.407545   -142647.937239
 0.975000   -3690.698441   -184692.964076
 0.980000   -4735.337186   -232504.381516
 0.985000   -6015.742256   -180067.969611
 0.990000   -6536.016882   54352.857116
 0.995000   -5472.213685   -56465.372486
 1.000000   -7100.670606   -594917.396132
201 psinorm omevb() domevb/dpsiN
 0.000000   35.451490   70.323370
 0.005000   35.676976   19.871056
 0.010000   35.650201   -8.286944
 0.015000   35.594107   -12.839897
 0.020000   35.521802   -15.878625
 0.025000   35.435320   -18.952777
 0.030000   35.332274   -22.550946
 0.035000   35.209811   -26.019878
 0.040000   35.072075   -29.106368
 0.045000   34.918747   -31.922957
 0.050000   34.752846   -34.081058
 0.055000   34.577937   -35.402860
 0.060000   34.398817   -35.978276
 0.065000   34.218154   -36.048972
 0.070000   34.038327   -35.584254
 0.075000   33.862311   -34.779607
 0.080000   33.690531   -33.899975
 0.085000   33.523312   -32.990824
 0.090000   33.360623   -32.393983
 0.095000   33.199372   -32.160626
 0.100000   33.039017   -31.980650
 0.105000   32.879565   -31.926127
 0.110000   32.719755   -31.942280
 0.115000   32.560143   -31.948778
 0.120000   32.400268   -32.066510
 0.125000   32.239477   -31.947757
 0.130000   32.080790   -31.427388
 0.135000   31.925204   -30.715775
 0.140000   31.773632   -29.791346
 0.145000   31.627290   -28.585787
 0.150000   31.487774   -27.427913
 0.155000   31.353011   -26.485056
 0.160000   31.222924   -25.504486
 0.165000   31.097966   -24.615533
 0.170000   30.976769   -23.784550
 0.175000   30.860121   -22.802562
 0.180000   30.748743   -22.121437
 0.185000   30.638906   -21.763471
 0.190000   30.531108   -21.425234
 0.195000   30.424654   -21.109469
 0.200000   30.320014   -20.914726
 0.205000   30.215507   -20.721256
 0.210000   30.112801   -20.811241
 0.215000   30.007394   -21.204841
 0.220000   29.900753   -21.344991
 0.225000   29.793944   -21.430245
 0.230000   29.686450   -21.496649
 0.235000   29.578978   -21.822331
 0.240000   29.468227   -22.074679
 0.245000   29.358231   -21.577815
 0.250000   29.252449   -20.709632
 0.255000   29.151135   -19.520402
 0.260000   29.057245   -17.916967
 0.265000   28.971965   -16.222321
 0.270000   28.895021   -14.268354
 0.275000   28.829282   -12.209292
 0.280000   28.772929   -10.538684
 0.285000   28.723895   -9.056508
 0.290000   28.682363   -7.784406
 0.295000   28.646051   -6.630573
 0.300000   28.616058   -5.634369
 0.305000   28.589707   -5.351514
 0.310000   28.562543   -5.386553
 0.315000   28.535841   -5.402322
 0.320000   28.508519   -5.716969
 0.325000   28.478672   -6.419872
 0.330000   28.444321   -8.097137
 0.335000   28.397700   -10.774430
 0.340000   28.336576   -13.249258
 0.345000   28.265208   -15.126576
 0.350000   28.185311   -16.614791
 0.355000   28.099060   -17.967130
 0.360000   28.005639   -19.447788
 0.365000   27.904582   -20.035011
 0.370000   27.805289   -19.942386
 0.375000   27.705158   -19.980832
 0.380000   27.605481   -19.827943
 0.385000   27.506879   -19.634461
 0.390000   27.409136   -19.317804
 0.395000   27.313701   -18.204394
 0.400000   27.227092   -17.071314
 0.405000   27.142988   -16.599089
 0.410000   27.061101   -16.183442
 0.415000   26.981153   -15.808638
 0.420000   26.903015   -15.398144
 0.425000   26.827172   -15.934040
 0.430000   26.743675   -17.765293
 0.435000   26.649519   -20.483575
 0.440000   26.538839   -24.662083
 0.445000   26.402898   -29.759636
 0.450000   26.241243   -34.653803
 0.455000   26.056360   -40.206519
 0.460000   25.839177   -46.187429
 0.465000   25.594486   -51.585085
 0.470000   25.323326   -56.406181
 0.475000   25.030424   -59.781027
 0.480000   24.725516   -61.270535
 0.485000   24.417718   -61.592654
 0.490000   24.109590   -60.763368
 0.495000   23.810085   -58.147073
 0.500000   23.528119   -53.894156
 0.505000   23.271143   -48.784077
 0.510000   23.040278   -43.575951
 0.515000   22.835384   -38.475665
 0.520000   22.655522   -33.808335
 0.525000   22.497300   -29.746653
 0.530000   22.358055   -26.779305
 0.535000   22.229507   -25.355013
 0.540000   22.104505   -25.218101
 0.545000   21.977326   -26.045336
 0.550000   21.844051   -27.478408
 0.555000   21.702542   -29.413907
 0.560000   21.549912   -31.774622
 0.565000   21.384796   -34.195194
 0.570000   21.207960   -36.590993
 0.575000   21.018886   -39.014042
 0.580000   20.817820   -41.490973
 0.585000   20.603976   -44.029309
 0.590000   20.377527   -46.517576
 0.595000   20.138801   -48.982262
 0.600000   19.887704   -51.473446
 0.605000   19.624066   -54.026001
 0.610000   19.347444   -56.674409
 0.615000   19.057322   -59.383002
 0.620000   18.753614   -62.050541
 0.625000   18.436817   -64.682324
 0.630000   18.106791   -67.374453
 0.635000   17.763072   -70.073078
 0.640000   17.406060   -72.444119
 0.645000   17.038631   -74.461239
 0.650000   16.661448   -76.176746
 0.655000   16.276863   -77.604838
 0.660000   15.885400   -78.999828
 0.665000   15.486865   -80.483552
 0.670000   15.080564   -81.802557
 0.675000   14.668840   -83.237829
 0.680000   14.248186   -85.451584
 0.685000   13.814324   -88.551729
 0.690000   13.362668   -92.438877
 0.695000   12.889935   -97.007033
 0.700000   12.392598   -100.120502
 0.705000   11.888730   -101.682370
 0.710000   11.375774   -103.041416
 0.715000   10.858316   -103.354556
 0.720000   10.342229   -102.594095
 0.725000   9.832375   -101.305722
 0.730000   9.329172   -97.601341
 0.735000   8.856361   -91.945223
 0.740000   8.409719   -86.230969
 0.745000   7.994052   -79.581812
 0.750000   7.613901   -72.205537
 0.755000   7.271996   -63.750928
 0.760000   6.976392   -55.418164
 0.765000   6.717815   -48.237240
 0.770000   6.494020   -41.722189
 0.775000   6.300593   -36.246711
 0.780000   6.131552   -31.771934
 0.785000   5.982873   -27.228012
 0.790000   5.859272   -24.191978
 0.795000   5.740954   -22.765744
 0.800000   5.631615   -21.101104
 0.805000   5.529943   -19.786293
 0.810000   5.433752   -18.892164
 0.815000   5.341021   -18.816014
 0.820000   5.245592   -19.675011
 0.825000   5.144271   -20.602973
 0.830000   5.039562   -21.733059
 0.835000   4.926940   -24.093728
 0.840000   4.798625   -27.782102
 0.845000   4.649119   -33.178624
 0.850000   4.466839   -40.393590
 0.855000   4.245183   -49.555004
 0.860000   3.971289   -61.195062
 0.865000   3.633233   -75.405226
 0.870000   3.217236   -91.496544
 0.875000   2.718267   -109.013325
 0.880000   2.127103   -126.292735
 0.885000   1.455340   -140.430831
 0.890000   0.722795   -151.025935
 0.895000   -0.054919   -157.886449
 0.900000   -0.856070   -160.044803
 0.905000   -1.655367   -161.612460
 0.910000   -2.472194   -169.798210
 0.915000   -3.353349   -192.531897
 0.920000   -4.397513   -253.175692
 0.925000   -5.885106   -387.847834
 0.930000   -8.275992   -638.976268
 0.935000   -12.274869   -1056.034604
 0.940000   -18.836338   -1658.970092
 0.945000   -28.864570   -2383.209167
 0.950000   -42.668429   -3102.437862
 0.955000   -59.888949   -3699.756559
 0.960000   -79.665995   -4281.624670
 0.965000   -102.705195   -5472.645493
 0.970000   -134.392450   -7755.571924
 0.975000   -180.260915   -7992.304140
 0.980000   -214.315491   188.722610
 0.985000   -178.373688   11351.800613
 0.990000   -100.797485   12998.348032
 0.995000   -48.390208   7823.353801
 1.000000   -22.563947   2507.150586
201 psinorm omepp() domepp/dpsiN
 0.000000   24.007909   -4.974341
 0.005000   23.971291   -9.673081
 0.010000   23.911179   -12.101571
 0.015000   23.850275   -12.259121
 0.020000   23.788587   -12.415281
 0.025000   23.726122   -12.570037
 0.030000   23.662887   -12.723375
 0.035000   23.598889   -12.875280
 0.040000   23.534134   -13.025739
 0.045000   23.468631   -13.174738
 0.050000   23.402387   -13.322264
 0.055000   23.335409   -13.468303
 0.060000   23.267704   -13.612844
 0.065000   23.199280   -13.755872
 0.070000   23.130145   -13.897377
 0.075000   23.060306   -14.037345
 0.080000   22.989772   -14.175766
 0.085000   22.918549   -14.312628
 0.090000   22.846645   -14.447920
 0.095000   22.774069   -14.581631
 0.100000   22.700829   -14.713750
 0.105000   22.626932   -14.844268
 0.110000   22.552386   -14.973173
 0.115000   22.477200   -15.100457
 0.120000   22.401382   -15.226111
 0.125000   22.324939   -15.350124
 0.130000   22.247881   -15.472488
 0.135000   22.170214   -15.593195
 0.140000   22.091949   -15.712236
 0.145000   22.013092   -15.829604
 0.150000   21.933653   -15.945291
 0.155000   21.853639   -16.059289
 0.160000   21.773060   -16.171591
 0.165000   21.691923   -16.282191
 0.170000   21.610238   -16.391081
 0.175000   21.528012   -16.498257
 0.180000   21.445255   -16.603712
 0.185000   21.361975   -16.707440
 0.190000   21.278181   -16.809436
 0.195000   21.193881   -16.909695
 0.200000   21.109084   -17.008213
 0.205000   21.023799   -17.104985
 0.210000   20.938034   -17.200006
 0.215000   20.851799   -17.293273
 0.220000   20.765101   -17.384783
 0.225000   20.677951   -17.474532
 0.230000   20.590356   -17.562517
 0.235000   20.502326   -17.648735
 0.240000   20.413869   -17.733185
 0.245000   20.324994   -17.815863
 0.250000   20.235710   -17.896769
 0.255000   20.146026   -17.975901
 0.260000   20.055951   -18.053257
 0.265000   19.965494   -18.128836
 0.270000   19.874663   -18.202639
 0.275000   19.783467   -18.274664
 0.280000   19.691916   -18.344911
 0.285000   19.600018   -18.413380
 0.290000   19.507782   -18.480073
 0.295000   19.415217   -18.544989
 0.300000   19.322332   -18.608130
 0.305000   19.229136   -18.669498
 0.310000   19.135637   -18.729092
 0.315000   19.041845   -18.786916
 0.320000   18.947768   -18.842972
 0.325000   18.853415   -18.897261
 0.330000   18.758796   -18.949786
 0.335000   18.663917   -19.000551
 0.340000   18.568790   -19.049559
 0.345000   18.473422   -19.096812
 0.350000   18.377822   -19.142315
 0.355000   18.281999   -19.186071
 0.360000   18.185961   -19.228085
 0.365000   18.089718   -19.268361
 0.370000   17.993278   -19.306904
 0.375000   17.896649   -19.343718
 0.380000   17.799840   -19.378809
 0.385000   17.702861   -19.412183
 0.390000   17.605719   -19.443844
 0.395000   17.508422   -19.473799
 0.400000   17.410981   -19.502053
 0.405000   17.313402   -19.528614
 0.410000   17.215694   -19.553488
 0.415000   17.117867   -19.576681
 0.420000   17.019928   -19.598201
 0.425000   16.921885   -19.618055
 0.430000   16.823747   -19.636250
 0.435000   16.725522   -19.652794
 0.440000   16.627219   -19.667695
 0.445000   16.528845   -19.680961
 0.450000   16.430410   -19.692600
 0.455000   16.331919   -19.702621
 0.460000   16.233383   -19.711032
 0.465000   16.134809   -19.717843
 0.470000   16.036205   -19.723063
 0.475000   15.937578   -19.726700
 0.480000   15.838938   -19.728765
 0.485000   15.740291   -19.729267
 0.490000   15.641645   -19.728215
 0.495000   15.543009   -19.725621
 0.500000   15.444389   -19.721494
 0.505000   15.345794   -19.715844
 0.510000   15.247231   -19.708682
 0.515000   15.148707   -19.700020
 0.520000   15.050230   -19.689867
 0.525000   14.951808   -19.678235
 0.530000   14.853448   -19.665134
 0.535000   14.755157   -19.650578
 0.540000   14.656942   -19.634576
 0.545000   14.558811   -19.617141
 0.550000   14.460771   -19.598284
 0.555000   14.362828   -19.578018
 0.560000   14.264991   -19.556354
 0.565000   14.167265   -19.533304
 0.570000   14.069658   -19.508882
 0.575000   13.972176   -19.483099
 0.580000   13.874827   -19.455969
 0.585000   13.777616   -19.427503
 0.590000   13.680552   -19.397716
 0.595000   13.583639   -19.366618
 0.600000   13.486885   -19.334225
 0.605000   13.390297   -19.300549
 0.610000   13.293880   -19.265603
 0.615000   13.197641   -19.229401
 0.620000   13.101586   -19.191956
 0.625000   13.005721   -19.153282
 0.630000   12.910053   -19.113392
 0.635000   12.814587   -19.072301
 0.640000   12.719330   -19.030023
 0.645000   12.624287   -18.986571
 0.650000   12.529464   -18.941959
 0.655000   12.434868   -18.896203
 0.660000   12.340502   -18.849317
 0.665000   12.246374   -18.801315
 0.670000   12.152489   -18.752213
 0.675000   12.058852   -18.702026
 0.680000   11.965469   -18.650771
 0.685000   11.872345   -18.598464
 0.690000   11.779484   -18.545125
 0.695000   11.686893   -18.490772
 0.700000   11.594577   -18.435427
 0.705000   11.502539   -18.379115
 0.710000   11.410785   -18.321866
 0.715000   11.319320   -18.263715
 0.720000   11.228148   -18.204705
 0.725000   11.137273   -18.144894
 0.730000   11.046699   -18.084353
 0.735000   10.956430   -18.023179
 0.740000   10.866468   -17.961504
 0.745000   10.776815   -17.899504
 0.750000   10.687472   -17.837424
 0.755000   10.598440   -17.775602
 0.760000   10.509716   -17.714504
 0.765000   10.421295   -17.654784
 0.770000   10.333169   -17.597345
 0.775000   10.245322   -17.543451
 0.780000   10.157734   -17.494861
 0.785000   10.070373   -17.454022
 0.790000   9.983194   -17.424339
 0.795000   9.896130   -17.410539
 0.800000   9.809089   -17.419169
 0.805000   9.721938   -17.459285
 0.810000   9.634496   -17.543368
 0.815000   9.546505   -17.688576
 0.820000   9.457610   -17.918400
 0.825000   9.367321   -18.264870
 0.830000   9.274961   -18.771435
 0.835000   9.179606   -19.496683
 0.840000   9.079994   -20.519048
 0.845000   8.974416   -21.942612
 0.850000   8.860568   -23.904001
 0.855000   8.735376   -26.580070
 0.860000   8.594768   -30.195611
 0.865000   8.433420   -35.029275
 0.870000   8.244475   -41.414182
 0.875000   8.019278   -49.726595
 0.880000   7.747209   -60.350678
 0.885000   7.415771   -73.598415
 0.890000   7.011225   -89.548973
 0.895000   6.520281   -107.748463
 0.900000   5.933740   -126.676646
 0.905000   5.253515   -142.843314
 0.910000   4.505307   -149.340887
 0.915000   3.760106   -133.712310
 0.920000   3.168184   -75.257570
 0.925000   3.007530   57.260103
 0.930000   3.740785   304.660845
 0.935000   6.054139   707.445592
 0.940000   10.815241   1280.328358
 0.945000   18.857422   1974.524635
 0.950000   30.560487   2662.628518
 0.955000   45.483708   3221.672996
 0.960000   62.777217   3776.443688
 0.965000   83.248144   4967.271678
 0.970000   112.449934   7309.201747
 0.975000   156.340162   7735.446963
 0.980000   189.804404   -111.386660
 0.985000   155.226295   -10830.353775
 0.990000   81.500866   -11992.960901
 0.995000   35.296686   -6486.960637
 1.000000   16.631259   -979.210112
201 psinorm kpol(km/s/T) dkpol/dpsiN
 0.000000   0.012310   101.920160
 0.005000   0.426916   63.922058
 0.010000   0.651531   43.099418
 0.015000   0.857910   40.682652
 0.020000   1.058357   39.602831
 0.025000   1.253938   38.284914
 0.030000   1.441206   36.253846
 0.035000   1.616477   34.193668
 0.040000   1.783143   32.346172
 0.045000   1.939938   30.596454
 0.050000   2.089107   29.290441
 0.055000   2.232843   28.590140
 0.060000   2.375009   28.603959
 0.065000   2.518882   28.959228
 0.070000   2.664601   29.437913
 0.075000   2.813261   29.963217
 0.080000   2.964233   30.303801
 0.085000   3.116299   30.339329
 0.090000   3.267627   30.087717
 0.095000   3.417177   29.415526
 0.100000   3.561782   28.344705
 0.105000   3.700624   27.025907
 0.110000   3.832041   25.540441
 0.115000   3.956028   23.847364
 0.120000   4.070515   22.059625
 0.125000   4.176624   20.511002
 0.130000   4.275625   19.145800
 0.135000   4.368082   17.915576
 0.140000   4.454780   16.863757
 0.145000   4.536720   15.926199
 0.150000   4.614042   14.970548
 0.155000   4.686425   13.866852
 0.160000   4.752711   12.692268
 0.165000   4.813348   11.407305
 0.170000   4.866784   10.050813
 0.175000   4.913856   8.619894
 0.180000   4.952983   7.103052
 0.185000   4.984887   5.614681
 0.190000   5.009130   4.060671
 0.195000   5.025493   2.630011
 0.200000   5.035430   1.207845
 0.205000   5.037572   -0.168692
 0.210000   5.033743   -1.375426
 0.215000   5.023818   -2.566182
 0.220000   5.008081   -3.625332
 0.225000   4.987564   -4.698194
 0.230000   4.961099   -5.819127
 0.235000   4.929373   -6.950892
 0.240000   4.891590   -8.273748
 0.245000   4.846635   -9.599928
 0.250000   4.795591   -10.994686
 0.255000   4.736689   -12.553946
 0.260000   4.670051   -14.074391
 0.265000   4.595945   -15.632827
 0.270000   4.513723   -17.209166
 0.275000   4.423853   -18.692542
 0.280000   4.326798   -20.197495
 0.285000   4.221878   -21.673052
 0.290000   4.110067   -23.056490
 0.295000   3.991313   -24.431906
 0.300000   3.865748   -25.686560
 0.305000   3.734448   -26.861539
 0.310000   3.597133   -28.056884
 0.315000   3.453879   -29.163685
 0.320000   3.305496   -30.206750
 0.325000   3.151811   -31.313943
 0.330000   2.992357   -32.410227
 0.335000   2.827709   -33.426155
 0.340000   2.658095   -34.377737
 0.345000   2.483932   -35.136017
 0.350000   2.306735   -35.593860
 0.355000   2.127993   -35.888685
 0.360000   1.947848   -36.159793
 0.365000   1.766395   -36.430118
 0.370000   1.583547   -36.780015
 0.375000   1.398595   -37.240166
 0.380000   1.211145   -37.877827
 0.385000   1.019817   -38.761337
 0.390000   0.823532   -39.806873
 0.395000   0.621748   -40.909274
 0.400000   0.414439   -41.999067
 0.405000   0.201757   -42.993545
 0.410000   -0.015496   -43.788035
 0.415000   -0.236123   -44.353542
 0.420000   -0.459032   -44.916184
 0.425000   -0.685285   -45.881518
 0.430000   -0.917847   -47.583623
 0.435000   -1.161121   -50.373958
 0.440000   -1.421587   -54.909502
 0.445000   -1.710216   -60.596381
 0.450000   -2.027550   -66.544379
 0.455000   -2.375660   -72.785226
 0.460000   -2.755403   -79.041905
 0.465000   -3.166079   -85.083400
 0.470000   -3.606237   -90.360952
 0.475000   -4.069689   -93.739063
 0.480000   -4.543627   -94.793793
 0.485000   -5.017626   -93.767985
 0.490000   -5.481307   -90.793425
 0.495000   -5.925561   -85.751119
 0.500000   -6.338818   -78.625809
 0.505000   -6.711819   -70.581294
 0.510000   -7.044631   -62.642853
 0.515000   -7.338247   -54.862265
 0.520000   -7.593254   -47.473534
 0.525000   -7.812983   -40.681264
 0.530000   -8.000067   -35.197854
 0.535000   -8.164961   -31.716507
 0.540000   -8.317232   -29.846933
 0.545000   -8.463431   -29.173629
 0.550000   -8.608968   -29.222992
 0.555000   -8.755660   -29.681242
 0.560000   -8.905780   -30.321094
 0.565000   -9.058871   -30.697823
 0.570000   -9.212759   -30.680707
 0.575000   -9.365678   -30.319282
 0.580000   -9.515951   -29.691070
 0.585000   -9.662589   -28.691471
 0.590000   -9.802866   -27.131638
 0.595000   -9.933906   -25.233780
 0.600000   -10.055204   -23.184718
 0.605000   -10.165753   -20.967052
 0.610000   -10.264874   -18.693537
 0.615000   -10.352688   -16.450932
 0.620000   -10.429384   -14.351581
 0.625000   -10.496204   -12.480847
 0.630000   -10.554192   -10.855006
 0.635000   -10.604754   -9.508272
 0.640000   -10.649275   -8.373821
 0.645000   -10.688492   -7.414602
 0.650000   -10.723421   -6.739668
 0.655000   -10.755889   -6.247973
 0.660000   -10.785901   -5.780252
 0.665000   -10.813691   -5.359185
 0.670000   -10.839493   -5.014926
 0.675000   -10.863841   -4.697474
 0.680000   -10.886467   -4.369712
 0.685000   -10.907538   -4.151344
 0.690000   -10.927981   -4.049145
 0.695000   -10.948029   -3.988532
 0.700000   -10.967866   -4.008941
 0.705000   -10.988119   -4.148727
 0.710000   -11.009353   -4.294019
 0.715000   -11.031059   -4.371935
 0.720000   -11.053073   -4.463868
 0.725000   -11.075697   -4.595094
 0.730000   -11.099024   -4.749867
 0.735000   -11.123196   -4.875877
 0.740000   -11.147782   -5.000818
 0.745000   -11.173204   -5.128708
 0.750000   -11.199069   -5.211546
 0.755000   -11.225320   -5.249028
 0.760000   -11.251560   -5.202639
 0.765000   -11.277346   -5.064767
 0.770000   -11.302207   -4.844740
 0.775000   -11.325794   -4.600012
 0.780000   -11.348208   -4.400724
 0.785000   -11.369801   -4.238575
 0.790000   -11.390593   -4.188700
 0.795000   -11.411688   -4.434798
 0.800000   -11.434941   -4.933607
 0.805000   -11.461024   -5.504878
 0.810000   -11.489990   -6.094953
 0.815000   -11.521973   -6.728528
 0.820000   -11.557275   -7.306218
 0.825000   -11.595036   -7.556831
 0.830000   -11.632844   -7.403875
 0.835000   -11.669074   -7.041564
 0.840000   -11.703259   -6.396347
 0.845000   -11.733038   -5.425692
 0.850000   -11.757516   -4.358009
 0.855000   -11.776618   -3.440620
 0.860000   -11.791922   -2.597783
 0.865000   -11.802596   -1.819128
 0.870000   -11.810114   -1.430341
 0.875000   -11.816899   -1.401024
 0.880000   -11.824124   -1.541493
 0.885000   -11.832314   -1.867468
 0.890000   -11.842799   -2.634693
 0.895000   -11.858661   -3.737058
 0.900000   -11.880169   -4.925706
 0.905000   -11.907918   -6.283014
 0.910000   -11.942999   -8.021038
 0.915000   -11.988128   -9.840093
 0.920000   -12.041400   -11.446873
 0.925000   -12.102597   -12.804232
 0.930000   -12.169443   -13.367474
 0.935000   -12.236272   -14.780875
 0.940000   -12.317251   -18.894795
 0.945000   -12.425220   -24.441871
 0.950000   -12.561670   -31.391056
 0.955000   -12.739130   -43.225878
 0.960000   -12.993929   -58.365781
 0.965000   -13.322788   -66.162406
 0.970000   -13.655553   -37.750435
 0.975000   -13.700293   80.186916
 0.980000   -12.853684   351.509223
 0.985000   -10.185200   803.043188
 0.990000   -4.823252   1342.192480
 0.995000   3.236724   1694.290018
 1.000000   12.119648   1858.879549
201 psinorm omghb() domghb/dpsiN
 0.000000   -0.000042   0.094839
 0.005000   0.000366   0.068398
 0.010000   0.000642   0.082863
 0.015000   0.001194   0.120596
 0.020000   0.001848   0.141556
 0.025000   0.002610   0.162235
 0.030000   0.003470   0.189231
 0.035000   0.004502   0.214931
 0.040000   0.005619   0.235368
 0.045000   0.006856   0.240592
 0.050000   0.008025   0.230553
 0.055000   0.009162   0.215807
 0.060000   0.010183   0.192770
 0.065000   0.011089   0.162375
 0.070000   0.011807   0.148042
 0.075000   0.012570   0.149243
 0.080000   0.013300   0.137466
 0.085000   0.013944   0.133283
 0.090000   0.014632   0.143170
 0.095000   0.015376   0.139478
 0.100000   0.016027   0.171195
 0.105000   0.017088   0.203659
 0.110000   0.018064   0.190089
 0.115000   0.018989   0.169301
 0.120000   0.019757   0.160200
 0.125000   0.020591   0.146257
 0.130000   0.021219   0.128520
 0.135000   0.021876   0.102120
 0.140000   0.022241   0.068790
 0.145000   0.022564   0.050007
 0.150000   0.022741   0.043595
 0.155000   0.023000   0.042769
 0.160000   0.023168   0.044638
 0.165000   0.023446   0.061723
 0.170000   0.023786   0.055675
 0.175000   0.024003   0.062427
 0.180000   0.024410   0.069627
 0.185000   0.024699   0.068018
 0.190000   0.025090   0.077550
 0.195000   0.025475   0.117789
 0.200000   0.026268   0.148993
 0.205000   0.026965   0.135468
 0.210000   0.027623   0.145044
 0.215000   0.028415   0.151321
 0.220000   0.029136   0.178988
 0.225000   0.030205   0.192002
 0.230000   0.031056   0.145255
 0.235000   0.031658   0.118815
 0.240000   0.032244   0.097718
 0.245000   0.032635   0.073336
 0.250000   0.032977   0.056484
 0.255000   0.033200   -0.148088
 0.260000   0.031496   -0.266596
 0.265000   0.030534   -0.209358
 0.270000   0.029403   -0.235917
 0.275000   0.028175   -0.220849
 0.280000   0.027194   -0.238745
 0.285000   0.025787   -0.202939
 0.290000   0.025165   -0.105175
 0.295000   0.024735   -0.065136
 0.300000   0.024514   -0.025817
 0.305000   0.024477   0.027712
 0.310000   0.024791   -0.081265
 0.315000   0.023665   0.061861
 0.320000   0.025409   0.357803
 0.325000   0.027243   0.419343
 0.330000   0.029603   0.502411
 0.335000   0.032267   0.539969
 0.340000   0.035002   0.586866
 0.345000   0.038135   0.567415
 0.350000   0.040677   0.430742
 0.355000   0.042443   0.319104
 0.360000   0.043868   0.243359
 0.365000   0.044876   0.189348
 0.370000   0.045761   0.322305
 0.375000   0.048099   0.159064
 0.380000   0.047352   -0.146135
 0.385000   0.046638   -0.108395
 0.390000   0.046268   -0.064930
 0.395000   0.045989   -0.046090
 0.400000   0.045807   -0.044189
 0.405000   0.045547   -0.110550
 0.410000   0.044701   -0.092582
 0.415000   0.044621   0.029062
 0.420000   0.044992   0.142864
 0.425000   0.046050   0.378253
 0.430000   0.048775   0.628996
 0.435000   0.052340   0.911620
 0.440000   0.057891   1.271200
 0.445000   0.065052   1.465093
 0.450000   0.072542   1.682104
 0.455000   0.081873   1.785595
 0.460000   0.090398   1.565537
 0.465000   0.097528   1.379806
 0.470000   0.104196   1.256563
 0.475000   0.110094   0.951495
 0.480000   0.113711   0.486767
 0.485000   0.114961   -0.032556
 0.490000   0.113385   -0.468456
 0.495000   0.110277   -0.774661
 0.500000   0.105638   -1.100979
 0.505000   0.099267   -1.350362
 0.510000   0.092135   -1.570339
 0.515000   0.083564   -1.484516
 0.520000   0.077290   -1.128590
 0.525000   0.072278   -0.835653
 0.530000   0.068933   -0.558282
 0.535000   0.066695   -0.262898
 0.540000   0.066304   0.158848
 0.545000   0.068283   0.476248
 0.550000   0.071067   0.596027
 0.555000   0.074244   0.686493
 0.560000   0.077932   0.746740
 0.565000   0.081711   0.790421
 0.570000   0.085836   0.851140
 0.575000   0.090222   0.864991
 0.580000   0.094486   0.841385
 0.585000   0.098636   0.838560
 0.590000   0.102871   0.829846
 0.595000   0.106935   0.852533
 0.600000   0.111397   0.880338
 0.605000   0.115738   0.880572
 0.610000   0.120202   0.922930
 0.615000   0.124967   0.978006
 0.620000   0.129982   0.977436
 0.625000   0.134742   0.935585
 0.630000   0.139338   0.914837
 0.635000   0.143890   0.850106
 0.640000   0.147839   0.785194
 0.645000   0.151742   0.802527
 0.650000   0.155865   0.684375
 0.655000   0.158586   0.521389
 0.660000   0.161078   0.474946
 0.665000   0.163335   0.468902
 0.670000   0.165767   0.560462
 0.675000   0.168940   0.833575
 0.680000   0.174103   1.084815
 0.685000   0.179788   1.208548
 0.690000   0.186189   1.309176
 0.695000   0.192880   1.285883
 0.700000   0.199048   1.051156
 0.705000   0.203391   0.980100
 0.710000   0.208849   0.530646
 0.715000   0.208698   -0.264330
 0.720000   0.206205   -0.556537
 0.725000   0.203132   -0.820048
 0.730000   0.198005   -1.245133
 0.735000   0.190681   -1.609178
 0.740000   0.181913   -2.149482
 0.745000   0.169186   -2.611671
 0.750000   0.155796   -2.663297
 0.755000   0.142553   -2.687792
 0.760000   0.128918   -2.632700
 0.765000   0.116226   -2.561221
 0.770000   0.103306   -2.360352
 0.775000   0.092623   -1.659507
 0.780000   0.086711   -1.212108
 0.785000   0.080502   -1.089508
 0.790000   0.075816   -0.892419
 0.795000   0.071578   -0.818267
 0.800000   0.067633   -0.604877
 0.805000   0.065529   -0.149876
 0.810000   0.066135   0.063171
 0.815000   0.066160   0.146541
 0.820000   0.067600   0.371525
 0.825000   0.069876   0.607813
 0.830000   0.073678   1.037143
 0.835000   0.080247   1.381795
 0.840000   0.087496   1.909989
 0.845000   0.099347   2.893378
 0.850000   0.116430   3.973816
 0.855000   0.139085   5.145943
 0.860000   0.167889   6.604713
 0.865000   0.205132   7.670881
 0.870000   0.244598   8.677006
 0.875000   0.291902   9.914976
 0.880000   0.343748   10.506248
 0.885000   0.396965   10.428547
 0.890000   0.448033   10.430695
 0.895000   0.501272   8.785169
 0.900000   0.535885   6.737668
 0.905000   0.568649   5.612339
 0.910000   0.592008   3.609290
 0.915000   0.604741   1.749745
 0.920000   0.609506   3.311732
 0.925000   0.637859   2.387493
 0.930000   0.633381   1.467898
 0.935000   0.652538   5.735255
 0.940000   0.690733   9.669849
 0.945000   0.749236   13.199335
 0.950000   0.822727   22.280685
 0.955000   0.972043   17.766960
 0.960000   1.000396   1.192127
 0.965000   0.983964   -14.683238
 0.970000   0.853564   -45.674882
 0.975000   0.527216   -94.386090
 0.980000   -0.090297   -152.944363
 0.985000   -1.002228   -200.021783
 0.990000   -2.090515   -182.255788
 0.995000   -2.824786   -61.992201
 1.000000   -2.710437   107.731850
201 psinorm nz1(10^20/m^3) dnz1/dpsiN
 0.000000   0.016113   0.000005
 0.005000   0.016112   -0.000423
 0.010000   0.016109   -0.000860
 0.015000   0.016104   -0.001312
 0.020000   0.016096   -0.001778
 0.025000   0.016086   -0.002255
 0.030000   0.016073   -0.002739
 0.035000   0.016058   -0.003228
 0.040000   0.016041   -0.003716
 0.045000   0.016021   -0.004200
 0.050000   0.015999   -0.004677
 0.055000   0.015974   -0.005143
 0.060000   0.015948   -0.005594
 0.065000   0.015919   -0.006028
 0.070000   0.015887   -0.006442
 0.075000   0.015854   -0.006837
 0.080000   0.015819   -0.007215
 0.085000   0.015782   -0.007574
 0.090000   0.015743   -0.007911
 0.095000   0.015703   -0.008225
 0.100000   0.015661   -0.008514
 0.105000   0.015618   -0.008782
 0.110000   0.015573   -0.009035
 0.115000   0.015527   -0.009273
 0.120000   0.015480   -0.009493
 0.125000   0.015432   -0.009695
 0.130000   0.015383   -0.009877
 0.135000   0.015334   -0.010043
 0.140000   0.015283   -0.010192
 0.145000   0.015232   -0.010324
 0.150000   0.015180   -0.010438
 0.155000   0.015127   -0.010532
 0.160000   0.015074   -0.010607
 0.165000   0.015021   -0.010661
 0.170000   0.014968   -0.010696
 0.175000   0.014914   -0.010710
 0.180000   0.014861   -0.010703
 0.185000   0.014807   -0.010676
 0.190000   0.014754   -0.010628
 0.195000   0.014701   -0.010559
 0.200000   0.014648   -0.010469
 0.205000   0.014596   -0.010357
 0.210000   0.014545   -0.010224
 0.215000   0.014494   -0.010071
 0.220000   0.014444   -0.009900
 0.225000   0.014395   -0.009714
 0.230000   0.014347   -0.009516
 0.235000   0.014300   -0.009308
 0.240000   0.014254   -0.009088
 0.245000   0.014209   -0.008854
 0.250000   0.014165   -0.008608
 0.255000   0.014123   -0.008349
 0.260000   0.014082   -0.008072
 0.265000   0.014042   -0.007775
 0.270000   0.014004   -0.007460
 0.275000   0.013968   -0.007125
 0.280000   0.013933   -0.006773
 0.285000   0.013900   -0.006404
 0.290000   0.013869   -0.006018
 0.295000   0.013840   -0.005615
 0.300000   0.013813   -0.005198
 0.305000   0.013788   -0.004768
 0.310000   0.013765   -0.004328
 0.315000   0.013744   -0.003878
 0.320000   0.013726   -0.003422
 0.325000   0.013710   -0.002965
 0.330000   0.013697   -0.002508
 0.335000   0.013685   -0.002054
 0.340000   0.013676   -0.001604
 0.345000   0.013669   -0.001160
 0.350000   0.013664   -0.000723
 0.355000   0.013662   -0.000292
 0.360000   0.013662   0.000136
 0.365000   0.013663   0.000561
 0.370000   0.013667   0.000985
 0.375000   0.013673   0.001407
 0.380000   0.013681   0.001826
 0.385000   0.013691   0.002238
 0.390000   0.013704   0.002642
 0.395000   0.013718   0.003034
 0.400000   0.013734   0.003412
 0.405000   0.013752   0.003773
 0.410000   0.013772   0.004113
 0.415000   0.013793   0.004429
 0.420000   0.013816   0.004720
 0.425000   0.013840   0.004983
 0.430000   0.013866   0.005216
 0.435000   0.013892   0.005415
 0.440000   0.013920   0.005577
 0.445000   0.013948   0.005710
 0.450000   0.013977   0.005815
 0.455000   0.014006   0.005892
 0.460000   0.014036   0.005943
 0.465000   0.014066   0.005968
 0.470000   0.014096   0.005972
 0.475000   0.014125   0.005958
 0.480000   0.014155   0.005924
 0.485000   0.014185   0.005867
 0.490000   0.014214   0.005784
 0.495000   0.014243   0.005672
 0.500000   0.014271   0.005529
 0.505000   0.014298   0.005353
 0.510000   0.014324   0.005144
 0.515000   0.014349   0.004904
 0.520000   0.014373   0.004631
 0.525000   0.014396   0.004328
 0.530000   0.014416   0.003995
 0.535000   0.014436   0.003634
 0.540000   0.014453   0.003248
 0.545000   0.014468   0.002838
 0.550000   0.014481   0.002403
 0.555000   0.014492   0.001946
 0.560000   0.014501   0.001467
 0.565000   0.014507   0.000966
 0.570000   0.014510   0.000444
 0.575000   0.014511   -0.000097
 0.580000   0.014509   -0.000657
 0.585000   0.014505   -0.001235
 0.590000   0.014497   -0.001828
 0.595000   0.014486   -0.002434
 0.600000   0.014473   -0.003049
 0.605000   0.014456   -0.003670
 0.610000   0.014436   -0.004294
 0.615000   0.014413   -0.004917
 0.620000   0.014387   -0.005538
 0.625000   0.014358   -0.006157
 0.630000   0.014325   -0.006778
 0.635000   0.014290   -0.007401
 0.640000   0.014251   -0.008027
 0.645000   0.014209   -0.008654
 0.650000   0.014165   -0.009288
 0.655000   0.014117   -0.009925
 0.660000   0.014065   -0.010554
 0.665000   0.014011   -0.011173
 0.670000   0.013954   -0.011779
 0.675000   0.013893   -0.012370
 0.680000   0.013830   -0.012964
 0.685000   0.013764   -0.013599
 0.690000   0.013694   -0.014304
 0.695000   0.013621   -0.015089
 0.700000   0.013543   -0.015955
 0.705000   0.013461   -0.016891
 0.710000   0.013374   -0.017929
 0.715000   0.013282   -0.019019
 0.720000   0.013184   -0.020040
 0.725000   0.013081   -0.020970
 0.730000   0.012974   -0.021801
 0.735000   0.012863   -0.022498
 0.740000   0.012749   -0.023040
 0.745000   0.012633   -0.023364
 0.750000   0.012516   -0.023404
 0.755000   0.012399   -0.023185
 0.760000   0.012284   -0.022734
 0.765000   0.012172   -0.022065
 0.770000   0.012063   -0.021169
 0.775000   0.011960   -0.020053
 0.780000   0.011863   -0.018838
 0.785000   0.011771   -0.017613
 0.790000   0.011687   -0.016396
 0.795000   0.011608   -0.015223
 0.800000   0.011534   -0.014106
 0.805000   0.011466   -0.013071
 0.810000   0.011404   -0.012187
 0.815000   0.011345   -0.011452
 0.820000   0.011289   -0.010814
 0.825000   0.011236   -0.010250
 0.830000   0.011187   -0.009735
 0.835000   0.011139   -0.009247
 0.840000   0.011094   -0.008772
 0.845000   0.011051   -0.008307
 0.850000   0.011011   -0.007858
 0.855000   0.010973   -0.007428
 0.860000   0.010937   -0.007018
 0.865000   0.010903   -0.006639
 0.870000   0.010870   -0.006303
 0.875000   0.010840   -0.006033
 0.880000   0.010810   -0.005849
 0.885000   0.010781   -0.005756
 0.890000   0.010752   -0.005759
 0.895000   0.010724   -0.005911
 0.900000   0.010693   -0.006228
 0.905000   0.010661   -0.006748
 0.910000   0.010626   -0.007600
 0.915000   0.010585   -0.008925
 0.920000   0.010537   -0.010940
 0.925000   0.010476   -0.014224
 0.930000   0.010394   -0.019281
 0.935000   0.010283   -0.026650
 0.940000   0.010128   -0.037317
 0.945000   0.009910   -0.052249
 0.950000   0.009605   -0.072153
 0.955000   0.009188   -0.097891
 0.960000   0.008626   -0.127247
 0.965000   0.007916   -0.155281
 0.970000   0.007074   -0.177262
 0.975000   0.006143   -0.188358
 0.980000   0.005190   -0.185815
 0.985000   0.004285   -0.170702
 0.990000   0.003483   -0.146627
 0.995000   0.002819   -0.118827
 1.000000   0.002295   -0.090788
201 psinorm vtor1(km/s) dvtor1/dpsiN
 0.000000   103.832985   523.558473
 0.005000   105.863328   288.578560
 0.010000   106.718771   150.425778
 0.015000   107.367586   118.402064
 0.020000   107.902791   99.471508
 0.025000   108.362301   86.752506
 0.030000   108.770316   77.312160
 0.035000   109.135422   68.844808
 0.040000   109.458765   61.264982
 0.045000   109.748072   54.682597
 0.050000   110.005591   48.391033
 0.055000   110.231982   42.227188
 0.060000   110.427862   36.445372
 0.065000   110.596436   31.129281
 0.070000   110.739155   26.058011
 0.075000   110.857016   21.324334
 0.080000   110.952399   16.948839
 0.085000   111.026505   12.809268
 0.090000   111.080491   8.744857
 0.095000   111.113953   4.827852
 0.100000   111.128770   1.182439
 0.105000   111.125778   -2.407301
 0.110000   111.104697   -5.965840
 0.115000   111.066119   -9.350406
 0.120000   111.011193   -12.585775
 0.125000   110.940261   -15.786786
 0.130000   110.853325   -18.891366
 0.135000   110.751348   -21.923078
 0.140000   110.634094   -24.983173
 0.145000   110.501516   -28.036423
 0.150000   110.353730   -31.055898
 0.155000   110.190957   -34.064607
 0.160000   110.013084   -37.129184
 0.165000   109.819665   -40.237030
 0.170000   109.610713   -43.340369
 0.175000   109.386261   -46.446256
 0.180000   109.146251   -49.566318
 0.185000   108.890598   -52.664199
 0.190000   108.619609   -55.739922
 0.195000   108.333199   -58.848930
 0.200000   108.031120   -61.899667
 0.205000   107.714202   -64.773293
 0.210000   107.383387   -67.437652
 0.215000   107.039826   -69.855145
 0.220000   106.684835   -71.930216
 0.225000   106.320524   -73.542433
 0.230000   105.949411   -74.765180
 0.235000   105.572872   -75.662764
 0.240000   105.192783   -76.187284
 0.245000   104.810999   -76.357489
 0.250000   104.429208   -76.180536
 0.255000   104.049194   -75.499722
 0.260000   103.674211   -74.491246
 0.265000   103.304281   -73.374325
 0.270000   102.940468   -72.072687
 0.275000   102.583554   -70.636835
 0.280000   102.234100   -69.123678
 0.285000   101.892318   -67.515852
 0.290000   101.558941   -66.060290
 0.295000   101.231715   -64.911370
 0.300000   100.909827   -63.945985
 0.305000   100.592255   -63.192231
 0.310000   100.277905   -62.641039
 0.315000   99.965845   -62.277151
 0.320000   99.655134   -61.949450
 0.325000   99.346350   -61.514093
 0.330000   99.039993   -60.983325
 0.335000   98.736517   -60.372756
 0.340000   98.436265   -59.684741
 0.345000   98.139669   -58.916286
 0.350000   97.847102   -58.029832
 0.355000   97.559371   -57.012820
 0.360000   97.276974   -55.894721
 0.365000   97.000424   -54.662058
 0.370000   96.730353   -53.315448
 0.375000   96.467269   -51.869786
 0.380000   96.211656   -50.321599
 0.385000   95.964053   -48.672443
 0.390000   95.724931   -46.943794
 0.395000   95.494615   -45.158116
 0.400000   95.273350   -43.321365
 0.405000   95.061402   -41.411277
 0.410000   94.859237   -39.463984
 0.415000   94.666762   -37.550396
 0.420000   94.483733   -35.694321
 0.425000   94.309819   -33.940169
 0.430000   94.144332   -32.355384
 0.435000   93.986265   -31.016952
 0.440000   93.834162   -29.951518
 0.445000   93.686750   -29.061201
 0.450000   93.543550   -28.261025
 0.455000   93.404139   -27.519491
 0.460000   93.268355   -26.806301
 0.465000   93.136076   -26.168870
 0.470000   93.006666   -25.573103
 0.475000   92.880345   -24.862431
 0.480000   92.758042   -24.037081
 0.485000   92.639975   -23.154764
 0.490000   92.526494   -22.213433
 0.495000   92.417840   -21.254559
 0.500000   92.313949   -20.280170
 0.505000   92.215039   -19.249073
 0.510000   92.121458   -18.238476
 0.515000   92.032654   -17.378751
 0.520000   91.947671   -16.751578
 0.525000   91.865138   -16.449213
 0.530000   91.783178   -16.572149
 0.535000   91.699417   -17.087142
 0.540000   91.612307   -17.964204
 0.545000   91.519774   -19.270432
 0.550000   91.419603   -21.056478
 0.555000   91.309210   -23.411757
 0.560000   91.185485   -26.495478
 0.565000   91.044255   -30.234515
 0.570000   90.883140   -34.586171
 0.575000   90.698393   -39.707704
 0.580000   90.486063   -45.636900
 0.585000   90.242024   -52.390807
 0.590000   89.962155   -60.009327
 0.595000   89.641931   -68.267515
 0.600000   89.279480   -76.963423
 0.605000   88.872297   -86.098595
 0.610000   88.418494   -95.531321
 0.615000   87.916983   -105.094375
 0.620000   87.367550   -114.434692
 0.625000   86.772637   -123.425644
 0.630000   86.133294   -132.084244
 0.635000   85.451794   -140.223950
 0.640000   84.731054   -147.732336
 0.645000   83.974471   -154.536976
 0.650000   83.185684   -160.272395
 0.655000   82.371747   -165.257144
 0.660000   81.533113   -170.079680
 0.665000   80.670950   -174.738191
 0.670000   79.785731   -179.442748
 0.675000   78.876523   -184.456733
 0.680000   77.941164   -190.202079
 0.685000   76.974502   -196.935320
 0.690000   75.971810   -204.135904
 0.695000   74.933143   -211.037615
 0.700000   73.861434   -217.119833
 0.705000   72.761944   -221.986397
 0.710000   71.641570   -225.574432
 0.715000   70.506200   -227.724403
 0.720000   69.364326   -228.190424
 0.725000   68.224296   -227.054874
 0.730000   67.093778   -224.387395
 0.735000   65.980422   -220.216409
 0.740000   64.891613   -214.543291
 0.745000   63.834989   -207.420619
 0.750000   62.817407   -199.134239
 0.755000   61.843647   -189.998640
 0.760000   60.917421   -180.333482
 0.765000   60.040312   -170.565336
 0.770000   59.211768   -161.220395
 0.775000   58.428108   -152.839647
 0.780000   57.683371   -145.159957
 0.785000   56.976508   -137.570248
 0.790000   56.307669   -129.893037
 0.795000   55.677578   -122.096399
 0.800000   55.086705   -114.389761
 0.805000   54.533680   -107.060298
 0.810000   54.016102   -100.227046
 0.815000   53.531410   -94.392095
 0.820000   53.072181   -90.299571
 0.825000   52.628414   -88.468499
 0.830000   52.187496   -89.536192
 0.835000   51.733052   -94.369413
 0.840000   51.243802   -103.252399
 0.845000   50.700528   -116.559725
 0.850000   50.078204   -135.174308
 0.855000   49.348785   -159.637751
 0.860000   48.481827   -190.471177
 0.865000   47.444073   -228.668242
 0.870000   46.195144   -273.274071
 0.875000   44.711333   -322.504949
 0.880000   42.970095   -375.122989
 0.885000   40.960103   -428.468180
 0.890000   38.685413   -479.141810
 0.895000   36.168685   -523.846541
 0.900000   33.446948   -557.252187
 0.905000   30.596163   -575.224076
 0.910000   27.694707   -576.775737
 0.915000   24.828405   -561.217802
 0.920000   22.082529   -529.492456
 0.925000   19.533481   -483.333791
 0.930000   17.249191   -427.143041
 0.935000   15.262050   -366.489544
 0.940000   13.584296   -305.442318
 0.945000   12.207627   -247.884460
 0.950000   11.105451   -197.010691
 0.955000   10.237520   -154.429385
 0.960000   9.561157   -121.680471
 0.965000   9.020716   -99.191603
 0.970000   8.569241   -85.146259
 0.975000   8.169253   -77.669030
 0.980000   7.792551   -74.943984
 0.985000   7.419813   -75.037130
 0.990000   7.042179   -76.872917
 0.995000   6.651084   -79.821134
 1.000000   6.243968   -83.025229
201 psinorm vpol1(km/s) dvpol1/dpsiN
 0.000000   0.000082   4.007031
 0.005000   0.022027   4.771094
 0.010000   0.047793   5.514453
 0.015000   0.077172   6.200781
 0.020000   0.109801   6.794531
 0.025000   0.145117   7.258984
 0.030000   0.182391   7.550391
 0.035000   0.220621   7.721875
 0.040000   0.259609   7.834766
 0.045000   0.298969   7.912109
 0.050000   0.338730   8.000000
 0.055000   0.378969   8.141016
 0.060000   0.420141   8.383984
 0.065000   0.462809   8.689844
 0.070000   0.507039   9.013672
 0.075000   0.552945   9.335937
 0.080000   0.600398   9.627344
 0.085000   0.649219   9.860547
 0.090000   0.699004   10.005859
 0.095000   0.749277   10.050781
 0.100000   0.799512   9.994922
 0.105000   0.849227   9.851172
 0.110000   0.898023   9.644531
 0.115000   0.945672   9.361719
 0.120000   0.991641   9.033594
 0.125000   1.036008   8.730469
 0.130000   1.078945   8.452734
 0.135000   1.120535   8.194531
 0.140000   1.160891   7.962891
 0.145000   1.200164   7.750391
 0.150000   1.238395   7.516406
 0.155000   1.275328   7.238672
 0.160000   1.310781   6.916797
 0.165000   1.344496   6.558984
 0.170000   1.376371   6.165625
 0.175000   1.406152   5.732422
 0.180000   1.433695   5.272266
 0.185000   1.458875   4.791797
 0.190000   1.481613   4.299609
 0.195000   1.501871   3.809375
 0.200000   1.519707   3.319141
 0.205000   1.535062   2.837109
 0.210000   1.548078   2.384766
 0.215000   1.558910   1.953125
 0.220000   1.567609   1.529297
 0.225000   1.574203   1.107031
 0.230000   1.578680   0.669922
 0.235000   1.580902   0.203516
 0.240000   1.580715   -0.299219
 0.245000   1.577910   -0.837500
 0.250000   1.572340   -1.408594
 0.255000   1.563824   -2.006641
 0.260000   1.552273   -2.631250
 0.265000   1.537512   -3.264844
 0.270000   1.519625   -3.899219
 0.275000   1.498520   -4.531250
 0.280000   1.474313   -5.155859
 0.285000   1.446961   -5.781250
 0.290000   1.416500   -6.394141
 0.295000   1.383020   -6.982031
 0.300000   1.346680   -7.546484
 0.305000   1.307555   -8.095703
 0.310000   1.265723   -8.627734
 0.315000   1.221277   -9.149219
 0.320000   1.174230   -9.655859
 0.325000   1.124719   -10.161328
 0.330000   1.072617   -10.682031
 0.335000   1.017898   -11.180078
 0.340000   0.960816   -11.634375
 0.345000   0.901555   -12.032422
 0.350000   0.840492   -12.324609
 0.355000   0.778309   -12.539063
 0.360000   0.715102   -12.751172
 0.365000   0.650797   -12.965234
 0.370000   0.585449   -13.194922
 0.375000   0.518848   -13.466797
 0.380000   0.450781   -13.808203
 0.385000   0.380766   -14.233984
 0.390000   0.308441   -14.719531
 0.395000   0.233570   -15.230469
 0.400000   0.156137   -15.734375
 0.405000   0.076227   -16.200781
 0.410000   -0.005871   -16.591797
 0.415000   -0.089691   -16.894141
 0.420000   -0.174813   -17.195313
 0.425000   -0.261645   -17.645312
 0.430000   -0.351266   -18.375781
 0.435000   -0.445402   -19.531250
 0.440000   -0.546578   -21.358594
 0.445000   -0.658988   -23.632422
 0.450000   -0.782902   -26.024219
 0.455000   -0.919230   -28.542187
 0.460000   -1.068324   -31.062891
 0.465000   -1.229859   -33.513281
 0.470000   -1.403457   -35.691016
 0.475000   -1.586770   -37.110156
 0.480000   -1.774559   -37.618750
 0.485000   -1.962957   -37.336328
 0.490000   -2.147922   -36.269922
 0.495000   -2.325656   -34.362500
 0.500000   -2.491547   -31.640625
 0.505000   -2.642063   -28.557031
 0.510000   -2.777117   -25.460547
 0.515000   -2.896668   -22.413672
 0.520000   -3.001254   -19.546484
 0.525000   -3.092133   -16.874219
 0.530000   -3.169996   -14.693359
 0.535000   -3.239066   -13.326953
 0.540000   -3.303266   -12.603516
 0.545000   -3.365102   -12.316016
 0.550000   -3.426426   -12.321875
 0.555000   -3.488320   -12.526563
 0.560000   -3.551691   -12.774609
 0.565000   -3.616066   -12.903125
 0.570000   -3.680723   -12.902734
 0.575000   -3.745094   -12.771875
 0.580000   -3.808441   -12.498047
 0.585000   -3.870074   -12.080078
 0.590000   -3.929242   -11.471094
 0.595000   -3.984785   -10.700781
 0.600000   -4.036250   -9.852344
 0.605000   -4.083309   -8.957812
 0.610000   -4.125828   -8.051953
 0.615000   -4.163828   -7.123047
 0.620000   -4.197059   -6.251562
 0.625000   -4.226344   -5.503906
 0.630000   -4.252098   -4.839063
 0.635000   -4.274734   -4.269141
 0.640000   -4.294789   -3.798437
 0.645000   -4.312719   -3.414062
 0.650000   -4.328930   -3.121094
 0.655000   -4.343930   -2.898437
 0.660000   -4.357914   -2.707813
 0.665000   -4.371008   -2.533594
 0.670000   -4.383250   -2.374609
 0.675000   -4.394754   -2.231641
 0.680000   -4.405566   -2.100000
 0.685000   -4.415754   -2.001953
 0.690000   -4.425586   -1.944531
 0.695000   -4.435199   -1.914453
 0.700000   -4.444730   -1.923437
 0.705000   -4.454434   -1.967187
 0.710000   -4.464402   -2.012891
 0.715000   -4.474563   -2.044922
 0.720000   -4.484852   -2.078906
 0.725000   -4.495352   -2.119922
 0.730000   -4.506051   -2.174609
 0.735000   -4.517098   -2.226563
 0.740000   -4.528316   -2.269141
 0.745000   -4.539789   -2.307812
 0.750000   -4.551395   -2.337109
 0.755000   -4.563160   -2.353125
 0.760000   -4.574926   -2.318750
 0.765000   -4.586348   -2.246094
 0.770000   -4.597387   -2.156250
 0.775000   -4.607910   -2.051953
 0.780000   -4.617906   -1.948828
 0.785000   -4.627398   -1.866016
 0.790000   -4.636566   -1.846094
 0.795000   -4.645859   -1.931250
 0.800000   -4.655879   -2.104688
 0.805000   -4.666906   -2.323047
 0.810000   -4.679109   -2.563672
 0.815000   -4.692543   -2.791016
 0.820000   -4.707020   -2.986719
 0.825000   -4.722410   -3.080078
 0.830000   -4.737820   -3.016016
 0.835000   -4.752570   -2.816406
 0.840000   -4.765984   -2.503125
 0.845000   -4.777602   -2.107422
 0.850000   -4.787059   -1.653906
 0.855000   -4.794141   -1.213672
 0.860000   -4.799195   -0.822266
 0.865000   -4.802363   -0.505078
 0.870000   -4.804246   -0.304297
 0.875000   -4.805406   -0.209375
 0.880000   -4.806340   -0.225781
 0.885000   -4.807664   -0.357812
 0.890000   -4.809918   -0.593750
 0.895000   -4.813602   -0.938672
 0.900000   -4.819305   -1.392578
 0.905000   -4.827527   -1.940234
 0.910000   -4.838707   -2.560547
 0.915000   -4.853133   -3.208594
 0.920000   -4.870793   -3.848828
 0.925000   -4.891621   -4.468359
 0.930000   -4.915477   -5.109766
 0.935000   -4.942719   -6.020313
 0.940000   -4.975680   -7.682813
 0.945000   -5.019547   -10.475781
 0.950000   -5.080438   -14.647656
 0.955000   -5.166023   -20.296094
 0.960000   -5.283398   -26.543750
 0.965000   -5.431461   -30.122266
 0.970000   -5.584621   -19.077930
 0.975000   -5.622240   29.178320
 0.980000   -5.292838   141.400000
 0.985000   -4.208240   329.837109
 0.990000   -1.994467   554.652539
 0.995000   1.338285   700.505859
 1.000000   5.010592   768.416797
3 N Z A of ION SPECIES
 6.000000   6.000000   12.010700
 1.000000   1.000000   2.000000
 1.000000   1.000000   2.000000
