201 psinorm ne(10^20/m^3) dne/dpsiN
 0.000000   0.591293   -0.586169
 0.005000   0.588375   -0.581039
 0.010000   0.585483   -0.575933
 0.015000   0.582616   -0.570873
 0.020000   0.579774   -0.565860
 0.025000   0.576957   -0.560894
 0.030000   0.574165   -0.555973
 0.035000   0.571397   -0.551097
 0.040000   0.568654   -0.546265
 0.045000   0.565935   -0.541478
 0.050000   0.563239   -0.536734
 0.055000   0.560567   -0.532034
 0.060000   0.557919   -0.527376
 0.065000   0.555294   -0.522760
 0.070000   0.552691   -0.518186
 0.075000   0.550112   -0.513653
 0.080000   0.547555   -0.509161
 0.085000   0.545020   -0.504710
 0.090000   0.542508   -0.500298
 0.095000   0.540017   -0.495926
 0.100000   0.537549   -0.491593
 0.105000   0.535101   -0.487298
 0.110000   0.532676   -0.483042
 0.115000   0.530271   -0.478823
 0.120000   0.527887   -0.474642
 0.125000   0.525524   -0.470498
 0.130000   0.523182   -0.466390
 0.135000   0.520861   -0.462319
 0.140000   0.518559   -0.458283
 0.145000   0.516278   -0.454282
 0.150000   0.514016   -0.450317
 0.155000   0.511775   -0.446386
 0.160000   0.509552   -0.442490
 0.165000   0.507350   -0.438627
 0.170000   0.505166   -0.434798
 0.175000   0.503002   -0.431001
 0.180000   0.500856   -0.427238
 0.185000   0.498729   -0.423507
 0.190000   0.496621   -0.419808
 0.195000   0.494531   -0.416141
 0.200000   0.492460   -0.412505
 0.205000   0.490406   -0.408900
 0.210000   0.488371   -0.405326
 0.215000   0.486353   -0.401782
 0.220000   0.484353   -0.398268
 0.225000   0.482370   -0.394784
 0.230000   0.480405   -0.391329
 0.235000   0.478457   -0.387904
 0.240000   0.476526   -0.384507
 0.245000   0.474612   -0.381138
 0.250000   0.472715   -0.377798
 0.255000   0.470834   -0.374485
 0.260000   0.468970   -0.371200
 0.265000   0.467122   -0.367942
 0.270000   0.465290   -0.364711
 0.275000   0.463475   -0.361507
 0.280000   0.461675   -0.358329
 0.285000   0.459892   -0.355177
 0.290000   0.458123   -0.352051
 0.295000   0.456371   -0.348950
 0.300000   0.454634   -0.345875
 0.305000   0.452912   -0.342824
 0.310000   0.451206   -0.339798
 0.315000   0.449514   -0.336797
 0.320000   0.447838   -0.333819
 0.325000   0.446176   -0.330866
 0.330000   0.444529   -0.327936
 0.335000   0.442897   -0.325030
 0.340000   0.441279   -0.322146
 0.345000   0.439675   -0.319286
 0.350000   0.438086   -0.316448
 0.355000   0.436511   -0.313633
 0.360000   0.434950   -0.310839
 0.365000   0.433402   -0.308068
 0.370000   0.431869   -0.305318
 0.375000   0.430349   -0.302590
 0.380000   0.428843   -0.299883
 0.385000   0.427350   -0.297196
 0.390000   0.425871   -0.294531
 0.395000   0.424405   -0.291886
 0.400000   0.422952   -0.289261
 0.405000   0.421512   -0.286656
 0.410000   0.420086   -0.284072
 0.415000   0.418672   -0.281506
 0.420000   0.417271   -0.278961
 0.425000   0.415882   -0.276434
 0.430000   0.414506   -0.273926
 0.435000   0.413143   -0.271438
 0.440000   0.411792   -0.268967
 0.445000   0.410453   -0.266515
 0.450000   0.409127   -0.264082
 0.455000   0.407812   -0.261666
 0.460000   0.406510   -0.259268
 0.465000   0.405220   -0.256888
 0.470000   0.403941   -0.254525
 0.475000   0.402674   -0.252179
 0.480000   0.401419   -0.249850
 0.485000   0.400176   -0.247538
 0.490000   0.398944   -0.245243
 0.495000   0.397724   -0.242964
 0.500000   0.396514   -0.240701
 0.505000   0.395317   -0.238455
 0.510000   0.394130   -0.236224
 0.515000   0.392954   -0.234010
 0.520000   0.391790   -0.231810
 0.525000   0.390636   -0.229626
 0.530000   0.389493   -0.227458
 0.535000   0.388362   -0.225304
 0.540000   0.387240   -0.223166
 0.545000   0.386130   -0.221042
 0.550000   0.385030   -0.218932
 0.555000   0.383941   -0.216837
 0.560000   0.382862   -0.214756
 0.565000   0.381793   -0.212689
 0.570000   0.380735   -0.210637
 0.575000   0.379687   -0.208598
 0.580000   0.378649   -0.206572
 0.585000   0.377621   -0.204560
 0.590000   0.376603   -0.202561
 0.595000   0.375595   -0.200576
 0.600000   0.374597   -0.198603
 0.605000   0.373609   -0.196643
 0.610000   0.372631   -0.194696
 0.615000   0.371662   -0.192762
 0.620000   0.370703   -0.190840
 0.625000   0.369754   -0.188930
 0.630000   0.368814   -0.187032
 0.635000   0.367884   -0.185146
 0.640000   0.366963   -0.183273
 0.645000   0.366051   -0.181410
 0.650000   0.365149   -0.179560
 0.655000   0.364255   -0.177721
 0.660000   0.363371   -0.175893
 0.665000   0.362496   -0.174076
 0.670000   0.361631   -0.172270
 0.675000   0.360774   -0.170476
 0.680000   0.359926   -0.168692
 0.685000   0.359087   -0.166918
 0.690000   0.358257   -0.165156
 0.695000   0.357435   -0.163403
 0.700000   0.356623   -0.161661
 0.705000   0.355819   -0.159929
 0.710000   0.355023   -0.158207
 0.715000   0.354237   -0.156495
 0.720000   0.353458   -0.154793
 0.725000   0.352689   -0.153100
 0.730000   0.351927   -0.151417
 0.735000   0.351174   -0.149744
 0.740000   0.350430   -0.148079
 0.745000   0.349694   -0.146424
 0.750000   0.348966   -0.144778
 0.755000   0.348246   -0.143141
 0.760000   0.347534   -0.141513
 0.765000   0.346831   -0.139893
 0.770000   0.346135   -0.138283
 0.775000   0.345448   -0.136680
 0.780000   0.344769   -0.135086
 0.785000   0.344097   -0.133500
 0.790000   0.343434   -0.131921
 0.795000   0.342778   -0.130350
 0.800000   0.342130   -0.128786
 0.805000   0.341490   -0.127228
 0.810000   0.340858   -0.125676
 0.815000   0.340233   -0.124127
 0.820000   0.339616   -0.122578
 0.825000   0.339007   -0.121026
 0.830000   0.338406   -0.119464
 0.835000   0.337813   -0.117881
 0.840000   0.337227   -0.116261
 0.845000   0.336650   -0.114578
 0.850000   0.336082   -0.112793
 0.855000   0.335522   -0.110841
 0.860000   0.334973   -0.108626
 0.865000   0.334436   -0.106001
 0.870000   0.333913   -0.102740
 0.875000   0.333409   -0.098506
 0.880000   0.332928   -0.092804
 0.885000   0.332481   -0.084920
 0.890000   0.332079   -0.073859
 0.895000   0.331742   -0.058300
 0.900000   0.331496   -0.036623
 0.905000   0.331376   -0.007156
 0.910000   0.331424   0.031098
 0.915000   0.331687   0.076634
 0.920000   0.332191   0.121445
 0.925000   0.332901   0.142930
 0.930000   0.333620   0.089505
 0.935000   0.333796   -0.139511
 0.940000   0.332225   -0.705075
 0.945000   0.326745   -1.782525
 0.950000   0.314400   -3.391726
 0.955000   0.292828   -5.167943
 0.960000   0.262720   -6.417154
 0.965000   0.228657   -6.638493
 0.970000   0.196335   -5.946805
 0.975000   0.169189   -4.851664
 0.980000   0.147819   -3.786118
 0.985000   0.131327   -2.931352
 0.990000   0.118505   -2.299387
 0.995000   0.108334   -1.842848
 1.000000   0.100077   -1.459910
201 psinorm te(KeV) dte/dpsiN
 0.000000   4.128760   -4.525044
 0.005000   4.106156   -4.516503
 0.010000   4.083595   -4.507895
 0.015000   4.061077   -4.499157
 0.020000   4.038604   -4.490289
 0.025000   4.016175   -4.481293
 0.030000   3.993791   -4.472169
 0.035000   3.971453   -4.462919
 0.040000   3.949162   -4.453544
 0.045000   3.926917   -4.444045
 0.050000   3.904721   -4.434425
 0.055000   3.882573   -4.424683
 0.060000   3.860474   -4.414822
 0.065000   3.838425   -4.404842
 0.070000   3.816426   -4.394744
 0.075000   3.794478   -4.384531
 0.080000   3.772581   -4.374203
 0.085000   3.750736   -4.363762
 0.090000   3.728943   -4.353209
 0.095000   3.707203   -4.342545
 0.100000   3.685518   -4.331771
 0.105000   3.663886   -4.320889
 0.110000   3.642309   -4.309899
 0.115000   3.620787   -4.298804
 0.120000   3.599321   -4.287605
 0.125000   3.577911   -4.276303
 0.130000   3.556558   -4.264898
 0.135000   3.535262   -4.253393
 0.140000   3.514024   -4.241789
 0.145000   3.492844   -4.230086
 0.150000   3.471723   -4.218287
 0.155000   3.450661   -4.206393
 0.160000   3.429659   -4.194404
 0.165000   3.408717   -4.182322
 0.170000   3.387836   -4.170149
 0.175000   3.367015   -4.157886
 0.180000   3.346257   -4.145533
 0.185000   3.325560   -4.133093
 0.190000   3.304926   -4.120566
 0.195000   3.284354   -4.107954
 0.200000   3.263846   -4.095258
 0.205000   3.243402   -4.082480
 0.210000   3.223021   -4.069620
 0.215000   3.202706   -4.056680
 0.220000   3.182455   -4.043661
 0.225000   3.162269   -4.030564
 0.230000   3.142149   -4.017392
 0.235000   3.122095   -4.004144
 0.240000   3.102108   -3.990823
 0.245000   3.082187   -3.977429
 0.250000   3.062333   -3.963964
 0.255000   3.042547   -3.950429
 0.260000   3.022829   -3.936825
 0.265000   3.003179   -3.923154
 0.270000   2.983597   -3.909417
 0.275000   2.964085   -3.895614
 0.280000   2.944641   -3.881748
 0.285000   2.925267   -3.867820
 0.290000   2.905963   -3.853830
 0.295000   2.886729   -3.839780
 0.300000   2.867565   -3.825672
 0.305000   2.848472   -3.811505
 0.310000   2.829450   -3.797283
 0.315000   2.810500   -3.783006
 0.320000   2.791620   -3.768674
 0.325000   2.772813   -3.754290
 0.330000   2.754077   -3.739855
 0.335000   2.735414   -3.725369
 0.340000   2.716824   -3.710834
 0.345000   2.698306   -3.696251
 0.350000   2.679861   -3.681622
 0.355000   2.661490   -3.666947
 0.360000   2.643192   -3.652228
 0.365000   2.624967   -3.637466
 0.370000   2.606817   -3.622661
 0.375000   2.588741   -3.607816
 0.380000   2.570739   -3.592932
 0.385000   2.552811   -3.578009
 0.390000   2.534959   -3.563048
 0.395000   2.517181   -3.548052
 0.400000   2.499478   -3.533020
 0.405000   2.481851   -3.517955
 0.410000   2.464299   -3.502857
 0.415000   2.446822   -3.487727
 0.420000   2.429421   -3.472567
 0.425000   2.412097   -3.457377
 0.430000   2.394848   -3.442159
 0.435000   2.377675   -3.426914
 0.440000   2.360579   -3.411643
 0.445000   2.343559   -3.396347
 0.450000   2.326615   -3.381027
 0.455000   2.309748   -3.365684
 0.460000   2.292958   -3.350319
 0.465000   2.276245   -3.334934
 0.470000   2.259609   -3.319530
 0.475000   2.243050   -3.304106
 0.480000   2.226568   -3.288665
 0.485000   2.210163   -3.273208
 0.490000   2.193836   -3.257736
 0.495000   2.177586   -3.242249
 0.500000   2.161413   -3.226748
 0.505000   2.145318   -3.211236
 0.510000   2.129301   -3.195712
 0.515000   2.113361   -3.180177
 0.520000   2.097499   -3.164634
 0.525000   2.081715   -3.149082
 0.530000   2.066008   -3.133522
 0.535000   2.050380   -3.117957
 0.540000   2.034829   -3.102386
 0.545000   2.019356   -3.086810
 0.550000   2.003961   -3.071231
 0.555000   1.988643   -3.055650
 0.560000   1.973404   -3.040067
 0.565000   1.958243   -3.024483
 0.570000   1.943159   -3.008900
 0.575000   1.928154   -2.993318
 0.580000   1.913226   -2.977738
 0.585000   1.898376   -2.962161
 0.590000   1.883605   -2.946587
 0.595000   1.868910   -2.931019
 0.600000   1.854294   -2.915456
 0.605000   1.839756   -2.899900
 0.610000   1.825295   -2.884351
 0.615000   1.810912   -2.868811
 0.620000   1.796607   -2.853279
 0.625000   1.782380   -2.837757
 0.630000   1.768230   -2.822246
 0.635000   1.754157   -2.806747
 0.640000   1.740162   -2.791259
 0.645000   1.726245   -2.775785
 0.650000   1.712404   -2.760324
 0.655000   1.698641   -2.744877
 0.660000   1.684956   -2.729445
 0.665000   1.671347   -2.714028
 0.670000   1.657815   -2.698628
 0.675000   1.644361   -2.683243
 0.680000   1.630983   -2.667875
 0.685000   1.617682   -2.652524
 0.690000   1.604458   -2.637190
 0.695000   1.591310   -2.621872
 0.700000   1.578239   -2.606570
 0.705000   1.565244   -2.591284
 0.710000   1.552326   -2.576012
 0.715000   1.539484   -2.560752
 0.720000   1.526719   -2.545503
 0.725000   1.514029   -2.530262
 0.730000   1.501416   -2.515025
 0.735000   1.488879   -2.499787
 0.740000   1.476418   -2.484542
 0.745000   1.464033   -2.469282
 0.750000   1.451725   -2.453998
 0.755000   1.439493   -2.438676
 0.760000   1.427338   -2.423302
 0.765000   1.415260   -2.407857
 0.770000   1.403260   -2.392316
 0.775000   1.391337   -2.376651
 0.780000   1.379493   -2.360827
 0.785000   1.367729   -2.344800
 0.790000   1.356045   -2.328517
 0.795000   1.344444   -2.311917
 0.800000   1.332926   -2.294924
 0.805000   1.321495   -2.277450
 0.810000   1.310152   -2.259392
 0.815000   1.298901   -2.240631
 0.820000   1.287745   -2.221035
 0.825000   1.276690   -2.200455
 0.830000   1.265741   -2.178739
 0.835000   1.254903   -2.155732
 0.840000   1.244183   -2.131300
 0.845000   1.233590   -2.105349
 0.850000   1.223130   -2.077873
 0.855000   1.212811   -2.049014
 0.860000   1.202640   -2.019157
 0.865000   1.192620   -1.989077
 0.870000   1.182749   -1.960143
 0.875000   1.173018   -1.934628
 0.880000   1.163403   -1.916144
 0.885000   1.153857   -1.910266
 0.890000   1.144300   -1.925405
 0.895000   1.134603   -1.974012
 0.900000   1.124560   -2.074180
 0.905000   1.113861   -2.251710
 0.910000   1.102043   -2.542567
 0.915000   1.088435   -2.995433
 0.920000   1.072089   -3.673525
 0.925000   1.051700   -4.653885
 0.930000   1.025550   -6.020857
 0.935000   0.991491   -7.848651
 0.940000   0.947063   -10.167102
 0.945000   0.889820   -12.908254
 0.950000   0.817981   -15.844377
 0.955000   0.731377   -18.552590
 0.960000   0.632455   -20.464027
 0.965000   0.526736   -21.038628
 0.970000   0.422069   -20.017722
 0.975000   0.326559   -17.594771
 0.980000   0.246121   -14.350345
 0.985000   0.183056   -10.976947
 0.990000   0.136351   -7.996470
 0.995000   0.103091   -5.644950
 1.000000   0.079902   -3.630702
201 psinorm ni(10^20/m^3) dni/dpsiN
 0.000000   0.361630   -0.668098
 0.005000   0.358489   -0.588233
 0.010000   0.355747   -0.521109
 0.015000   0.353278   -0.470195
 0.020000   0.351045   -0.424885
 0.025000   0.349029   -0.383790
 0.030000   0.347207   -0.346216
 0.035000   0.345567   -0.312391
 0.040000   0.344083   -0.282615
 0.045000   0.342740   -0.255463
 0.050000   0.341529   -0.231517
 0.055000   0.340425   -0.210456
 0.060000   0.339424   -0.191155
 0.065000   0.338514   -0.173780
 0.070000   0.337686   -0.158459
 0.075000   0.336929   -0.145102
 0.080000   0.336235   -0.133197
 0.085000   0.335597   -0.122951
 0.090000   0.335006   -0.114131
 0.095000   0.334456   -0.106471
 0.100000   0.333941   -0.099911
 0.105000   0.333457   -0.094255
 0.110000   0.332999   -0.089461
 0.115000   0.332562   -0.085635
 0.120000   0.332142   -0.082691
 0.125000   0.331735   -0.080460
 0.130000   0.331338   -0.078886
 0.135000   0.330946   -0.077972
 0.140000   0.330558   -0.077687
 0.145000   0.330170   -0.077931
 0.150000   0.329779   -0.078571
 0.155000   0.329384   -0.079596
 0.160000   0.328983   -0.081013
 0.165000   0.328574   -0.082777
 0.170000   0.328155   -0.084854
 0.175000   0.327725   -0.087208
 0.180000   0.327283   -0.089911
 0.185000   0.326826   -0.093168
 0.190000   0.326351   -0.096612
 0.195000   0.325860   -0.100010
 0.200000   0.325351   -0.103532
 0.205000   0.324825   -0.107092
 0.210000   0.324280   -0.110645
 0.215000   0.323718   -0.114099
 0.220000   0.323139   -0.117454
 0.225000   0.322544   -0.120901
 0.230000   0.321930   -0.123951
 0.235000   0.321304   -0.126415
 0.240000   0.320666   -0.128767
 0.245000   0.320016   -0.131062
 0.250000   0.319355   -0.133403
 0.255000   0.318682   -0.136124
 0.260000   0.317994   -0.138892
 0.265000   0.317293   -0.141491
 0.270000   0.316579   -0.144310
 0.275000   0.315850   -0.147381
 0.280000   0.315105   -0.151101
 0.285000   0.314339   -0.155206
 0.290000   0.313553   -0.159254
 0.295000   0.312747   -0.163475
 0.300000   0.311919   -0.167872
 0.305000   0.311068   -0.172712
 0.310000   0.310192   -0.177568
 0.315000   0.309292   -0.182134
 0.320000   0.308370   -0.186562
 0.325000   0.307427   -0.190755
 0.330000   0.306463   -0.194862
 0.335000   0.305478   -0.198562
 0.340000   0.304477   -0.201774
 0.345000   0.303460   -0.204708
 0.350000   0.302430   -0.207550
 0.355000   0.301385   -0.210210
 0.360000   0.300328   -0.212582
 0.365000   0.299259   -0.214885
 0.370000   0.298179   -0.217244
 0.375000   0.297087   -0.219623
 0.380000   0.295983   -0.221855
 0.385000   0.294868   -0.223957
 0.390000   0.293743   -0.226009
 0.395000   0.292608   -0.228029
 0.400000   0.291463   -0.229866
 0.405000   0.290309   -0.231454
 0.410000   0.289148   -0.232869
 0.415000   0.287981   -0.234174
 0.420000   0.286807   -0.235257
 0.425000   0.285628   -0.236023
 0.430000   0.284446   -0.236570
 0.435000   0.283262   -0.236988
 0.440000   0.282076   -0.237235
 0.445000   0.280890   -0.237247
 0.450000   0.279704   -0.237103
 0.455000   0.278519   -0.236869
 0.460000   0.277335   -0.236505
 0.465000   0.276154   -0.235931
 0.470000   0.274976   -0.235149
 0.475000   0.273802   -0.234135
 0.480000   0.272635   -0.232827
 0.485000   0.271474   -0.231121
 0.490000   0.270323   -0.228994
 0.495000   0.269184   -0.226476
 0.500000   0.268059   -0.223553
 0.505000   0.266949   -0.220146
 0.510000   0.265857   -0.216258
 0.515000   0.264786   -0.211970
 0.520000   0.263738   -0.207365
 0.525000   0.262713   -0.202431
 0.530000   0.261713   -0.197157
 0.535000   0.260741   -0.191655
 0.540000   0.259797   -0.186011
 0.545000   0.258881   -0.180220
 0.550000   0.257994   -0.174256
 0.555000   0.257138   -0.168156
 0.560000   0.256313   -0.161951
 0.565000   0.255519   -0.155623
 0.570000   0.254757   -0.149108
 0.575000   0.254028   -0.142393
 0.580000   0.253333   -0.135517
 0.585000   0.252673   -0.128528
 0.590000   0.252047   -0.121446
 0.595000   0.251458   -0.114284
 0.600000   0.250905   -0.107093
 0.605000   0.250387   -0.099907
 0.610000   0.249906   -0.092759
 0.615000   0.249460   -0.085640
 0.620000   0.249049   -0.078533
 0.625000   0.248674   -0.071436
 0.630000   0.248335   -0.064351
 0.635000   0.248031   -0.057299
 0.640000   0.247762   -0.050287
 0.645000   0.247528   -0.043330
 0.650000   0.247329   -0.036414
 0.655000   0.247164   -0.029592
 0.660000   0.247033   -0.022950
 0.665000   0.246934   -0.016447
 0.670000   0.246868   -0.009895
 0.675000   0.246835   -0.002949
 0.680000   0.246839   0.005346
 0.685000   0.246889   0.015441
 0.690000   0.246993   0.026747
 0.695000   0.247156   0.038949
 0.700000   0.247383   0.051864
 0.705000   0.247675   0.065120
 0.710000   0.248034   0.078930
 0.715000   0.248464   0.092332
 0.720000   0.248957   0.103562
 0.725000   0.249500   0.112370
 0.730000   0.250081   0.118669
 0.735000   0.250686   0.122071
 0.740000   0.251301   0.122290
 0.745000   0.251909   0.118845
 0.750000   0.252490   0.111843
 0.755000   0.253028   0.102072
 0.760000   0.253511   0.090134
 0.765000   0.253929   0.076609
 0.770000   0.254277   0.061774
 0.775000   0.254547   0.046207
 0.780000   0.254739   0.031426
 0.785000   0.254861   0.018059
 0.790000   0.254919   0.005934
 0.795000   0.254920   -0.004807
 0.800000   0.254871   -0.014198
 0.805000   0.254778   -0.022174
 0.810000   0.254650   -0.028623
 0.815000   0.254492   -0.034013
 0.820000   0.254309   -0.038893
 0.825000   0.254103   -0.043448
 0.830000   0.253875   -0.047755
 0.835000   0.253626   -0.051804
 0.840000   0.253357   -0.055615
 0.845000   0.253070   -0.059227
 0.850000   0.252765   -0.062624
 0.855000   0.252443   -0.065746
 0.860000   0.252107   -0.068488
 0.865000   0.251758   -0.070693
 0.870000   0.251400   -0.072131
 0.875000   0.251037   -0.072414
 0.880000   0.250676   -0.070957
 0.885000   0.250328   -0.066948
 0.890000   0.250007   -0.059275
 0.895000   0.249735   -0.046672
 0.900000   0.249540   -0.027243
 0.905000   0.249462   0.001354
 0.910000   0.249553   0.040938
 0.915000   0.249872   0.091583
 0.920000   0.250469   0.148030
 0.925000   0.251352   0.192992
 0.930000   0.252399   0.183190
 0.935000   0.253184   0.028554
 0.940000   0.252685   -0.419303
 0.945000   0.248991   -1.323971
 0.950000   0.239445   -2.700914
 0.955000   0.221982   -4.187541
 0.960000   0.197570   -5.132300
 0.965000   0.170659   -5.108994
 0.970000   0.146480   -4.292324
 0.975000   0.127736   -3.222830
 0.980000   0.114251   -2.317677
 0.985000   0.104559   -1.703983
 0.990000   0.097212   -1.333114
 0.995000   0.091228   -1.110506
 1.000000   0.086106   -0.937963
201 psinorm ti(KeV) dti/dpsiN
 0.000000   5.164186   0.002834
 0.005000   5.163551   -0.256895
 0.010000   5.161617   -0.520743
 0.015000   5.158344   -0.792406
 0.020000   5.153693   -1.070960
 0.025000   5.147634   -1.355280
 0.030000   5.140141   -1.644043
 0.035000   5.131194   -1.935782
 0.040000   5.120783   -2.228309
 0.045000   5.108911   -2.520264
 0.050000   5.095580   -2.810832
 0.055000   5.080802   -3.098493
 0.060000   5.064595   -3.382198
 0.065000   5.046980   -3.661339
 0.070000   5.027982   -3.935089
 0.075000   5.007630   -4.204326
 0.080000   4.985939   -4.469824
 0.085000   4.962931   -4.730620
 0.090000   4.938632   -4.986480
 0.095000   4.913066   -5.237390
 0.100000   4.886258   -5.483368
 0.105000   4.858233   -5.724274
 0.110000   4.829016   -5.959683
 0.115000   4.798636   -6.189498
 0.120000   4.767121   -6.413767
 0.125000   4.734498   -6.631987
 0.130000   4.700801   -6.843334
 0.135000   4.666065   -7.045361
 0.140000   4.630347   -7.235554
 0.145000   4.593709   -7.413372
 0.150000   4.556214   -7.578327
 0.155000   4.517926   -7.729572
 0.160000   4.478918   -7.865709
 0.165000   4.439269   -7.985372
 0.170000   4.399064   -8.089276
 0.175000   4.358376   -8.178079
 0.180000   4.317283   -8.251429
 0.185000   4.275862   -8.309621
 0.190000   4.234187   -8.352249
 0.195000   4.192339   -8.380864
 0.200000   4.150378   -8.401461
 0.205000   4.108325   -8.416823
 0.210000   4.066210   -8.426481
 0.215000   4.024060   -8.431459
 0.220000   3.981896   -8.433174
 0.225000   3.939728   -8.434433
 0.230000   3.897551   -8.434193
 0.235000   3.855386   -8.429898
 0.240000   3.813252   -8.420992
 0.245000   3.771176   -8.405512
 0.250000   3.729197   -8.381700
 0.255000   3.687359   -8.349134
 0.260000   3.645706   -8.303910
 0.265000   3.604320   -8.244767
 0.270000   3.563258   -8.174539
 0.275000   3.522575   -8.093131
 0.280000   3.482327   -8.000558
 0.285000   3.442569   -7.895918
 0.290000   3.403368   -7.777801
 0.295000   3.364791   -7.646192
 0.300000   3.326906   -7.502888
 0.305000   3.289763   -7.351214
 0.310000   3.253394   -7.195703
 0.315000   3.217805   -7.040322
 0.320000   3.182990   -6.890886
 0.325000   3.148897   -6.749118
 0.330000   3.115499   -6.612335
 0.335000   3.082773   -6.480472
 0.340000   3.050694   -6.353352
 0.345000   3.019240   -6.234187
 0.350000   2.988353   -6.120429
 0.355000   2.958035   -6.006899
 0.360000   2.928284   -5.894354
 0.365000   2.899092   -5.782188
 0.370000   2.870462   -5.668858
 0.375000   2.842403   -5.553163
 0.380000   2.814930   -5.426796
 0.385000   2.788135   -5.284807
 0.390000   2.762082   -5.131833
 0.395000   2.736817   -4.970250
 0.400000   2.712380   -4.801700
 0.405000   2.688800   -4.623597
 0.410000   2.666144   -4.439280
 0.415000   2.644407   -4.259587
 0.420000   2.623548   -4.088166
 0.425000   2.603526   -3.925404
 0.430000   2.584294   -3.772516
 0.435000   2.565800   -3.627823
 0.440000   2.548015   -3.493102
 0.445000   2.530869   -3.372660
 0.450000   2.514289   -3.264975
 0.455000   2.498220   -3.168049
 0.460000   2.482608   -3.081773
 0.465000   2.467402   -3.006480
 0.470000   2.452544   -2.943322
 0.475000   2.437969   -2.890702
 0.480000   2.423637   -2.845036
 0.485000   2.409518   -2.803742
 0.490000   2.395599   -2.764325
 0.495000   2.381875   -2.724910
 0.500000   2.368350   -2.683828
 0.505000   2.355037   -2.641123
 0.510000   2.341939   -2.598869
 0.515000   2.329048   -2.558313
 0.520000   2.316356   -2.519693
 0.525000   2.303851   -2.482776
 0.530000   2.291528   -2.446844
 0.535000   2.279383   -2.413081
 0.540000   2.267397   -2.382389
 0.545000   2.255559   -2.354079
 0.550000   2.243856   -2.328185
 0.555000   2.232277   -2.304561
 0.560000   2.220811   -2.282584
 0.565000   2.209451   -2.263756
 0.570000   2.198173   -2.248922
 0.575000   2.186962   -2.236977
 0.580000   2.175803   -2.227917
 0.585000   2.164683   -2.221709
 0.590000   2.153586   -2.218366
 0.595000   2.142499   -2.217872
 0.600000   2.131408   -2.219739
 0.605000   2.120302   -2.223455
 0.610000   2.109173   -2.228864
 0.615000   2.098013   -2.235803
 0.620000   2.086815   -2.244852
 0.625000   2.075565   -2.255235
 0.630000   2.064263   -2.265852
 0.635000   2.052906   -2.276950
 0.640000   2.041493   -2.288313
 0.645000   2.030023   -2.299704
 0.650000   2.018496   -2.311903
 0.655000   2.006904   -2.325240
 0.660000   1.995244   -2.339932
 0.665000   1.983505   -2.356877
 0.670000   1.971675   -2.376083
 0.675000   1.959744   -2.397226
 0.680000   1.947703   -2.421499
 0.685000   1.935529   -2.445812
 0.690000   1.923245   -2.465469
 0.695000   1.910874   -2.480673
 0.700000   1.898438   -2.491673
 0.705000   1.885957   -2.498217
 0.710000   1.873456   -2.499654
 0.715000   1.860961   -2.495024
 0.720000   1.848505   -2.484946
 0.725000   1.836111   -2.470560
 0.730000   1.823800   -2.452167
 0.735000   1.811590   -2.430170
 0.740000   1.799498   -2.403350
 0.745000   1.787556   -2.372423
 0.750000   1.775774   -2.342344
 0.755000   1.764133   -2.315956
 0.760000   1.752614   -2.294334
 0.765000   1.741189   -2.279252
 0.770000   1.729822   -2.272071
 0.775000   1.718469   -2.273260
 0.780000   1.707089   -2.280171
 0.785000   1.695667   -2.290190
 0.790000   1.684187   -2.303073
 0.795000   1.672636   -2.318698
 0.800000   1.661000   -2.338198
 0.805000   1.649254   -2.364929
 0.810000   1.637351   -2.398941
 0.815000   1.625265   -2.439499
 0.820000   1.612956   -2.487819
 0.825000   1.600387   -2.543299
 0.830000   1.587523   -2.606509
 0.835000   1.574322   -2.678834
 0.840000   1.560735   -2.752484
 0.845000   1.546797   -2.826396
 0.850000   1.532471   -2.909187
 0.855000   1.517705   -3.003211
 0.860000   1.502439   -3.110861
 0.865000   1.486596   -3.239971
 0.870000   1.470039   -3.380416
 0.875000   1.452792   -3.525021
 0.880000   1.434789   -3.683735
 0.885000   1.415955   -3.858096
 0.890000   1.396208   -4.050555
 0.895000   1.375449   -4.285677
 0.900000   1.353351   -4.562280
 0.905000   1.329826   -4.870991
 0.910000   1.304641   -5.229865
 0.915000   1.277528   -5.646209
 0.920000   1.248179   -6.128873
 0.925000   1.216239   -6.731605
 0.930000   1.180863   -7.420660
 0.935000   1.142032   -8.133254
 0.940000   1.099530   -8.883359
 0.945000   1.053199   -9.651823
 0.950000   1.003012   -10.407717
 0.955000   0.949122   -11.140660
 0.960000   0.891606   -11.760359
 0.965000   0.831518   -12.172452
 0.970000   0.769881   -12.366831
 0.975000   0.707850   -12.315128
 0.980000   0.646730   -11.997358
 0.985000   0.587876   -11.401661
 0.990000   0.532713   -10.547218
 0.995000   0.482404   -9.507013
 1.000000   0.437643   -8.397397
201 psinorm nb(10^20/m^3) dnb/dpsiN
 0.000000   0.084119   0.081905
 0.005000   0.084356   0.012904
 0.010000   0.084248   -0.043343
 0.015000   0.083923   -0.083361
 0.020000   0.083414   -0.117771
 0.025000   0.082745   -0.147982
 0.030000   0.081935   -0.174708
 0.035000   0.080998   -0.197741
 0.040000   0.079957   -0.216808
 0.045000   0.078830   -0.233346
 0.050000   0.077624   -0.246786
 0.055000   0.076362   -0.257468
 0.060000   0.075049   -0.266540
 0.065000   0.073696   -0.273861
 0.070000   0.072310   -0.279339
 0.075000   0.070903   -0.283075
 0.080000   0.069480   -0.285566
 0.085000   0.068047   -0.286605
 0.090000   0.066614   -0.286413
 0.095000   0.065183   -0.285241
 0.100000   0.063761   -0.283125
 0.105000   0.062352   -0.280253
 0.110000   0.060959   -0.276708
 0.115000   0.059585   -0.272417
 0.120000   0.058234   -0.267484
 0.125000   0.056910   -0.262095
 0.130000   0.055614   -0.256317
 0.135000   0.054347   -0.250165
 0.140000   0.053112   -0.243691
 0.145000   0.051910   -0.237002
 0.150000   0.050742   -0.230237
 0.155000   0.049608   -0.223417
 0.160000   0.048508   -0.216550
 0.165000   0.047442   -0.209687
 0.170000   0.046411   -0.202841
 0.175000   0.045414   -0.196051
 0.180000   0.044450   -0.189266
 0.185000   0.043521   -0.182287
 0.190000   0.042627   -0.175503
 0.195000   0.041766   -0.169147
 0.200000   0.040936   -0.162962
 0.205000   0.040136   -0.156966
 0.210000   0.039366   -0.151166
 0.215000   0.038625   -0.145564
 0.220000   0.037911   -0.140047
 0.225000   0.037224   -0.134293
 0.230000   0.036568   -0.128873
 0.235000   0.035936   -0.124122
 0.240000   0.035326   -0.119590
 0.245000   0.034740   -0.115261
 0.250000   0.034174   -0.111054
 0.255000   0.033629   -0.106618
 0.260000   0.033108   -0.102490
 0.265000   0.032604   -0.099013
 0.270000   0.032118   -0.095720
 0.275000   0.031647   -0.092604
 0.280000   0.031192   -0.089285
 0.285000   0.030754   -0.086086
 0.290000   0.030331   -0.083443
 0.295000   0.029920   -0.081013
 0.300000   0.029521   -0.078715
 0.305000   0.029133   -0.076210
 0.310000   0.028758   -0.073857
 0.315000   0.028394   -0.072000
 0.320000   0.028038   -0.070269
 0.325000   0.027691   -0.068548
 0.330000   0.027353   -0.066752
 0.335000   0.027024   -0.065178
 0.340000   0.026701   -0.063901
 0.345000   0.026385   -0.062701
 0.350000   0.026074   -0.061398
 0.355000   0.025771   -0.060166
 0.360000   0.025472   -0.059202
 0.365000   0.025179   -0.058322
 0.370000   0.024889   -0.057407
 0.375000   0.024605   -0.056482
 0.380000   0.024324   -0.055708
 0.385000   0.024048   -0.055051
 0.390000   0.023774   -0.054394
 0.395000   0.023504   -0.053691
 0.400000   0.023237   -0.053065
 0.405000   0.022973   -0.052558
 0.410000   0.022711   -0.052065
 0.415000   0.022452   -0.051498
 0.420000   0.022196   -0.050957
 0.425000   0.021943   -0.050523
 0.430000   0.021691   -0.050097
 0.435000   0.021442   -0.049593
 0.440000   0.021195   -0.049086
 0.445000   0.020951   -0.048669
 0.450000   0.020709   -0.048271
 0.455000   0.020468   -0.047824
 0.460000   0.020230   -0.047363
 0.465000   0.019995   -0.046965
 0.470000   0.019761   -0.046598
 0.475000   0.019529   -0.046194
 0.480000   0.019299   -0.045767
 0.485000   0.019071   -0.045396
 0.490000   0.018845   -0.045072
 0.495000   0.018620   -0.044738
 0.500000   0.018397   -0.044373
 0.505000   0.018177   -0.044043
 0.510000   0.017957   -0.043766
 0.515000   0.017739   -0.043493
 0.520000   0.017522   -0.043173
 0.525000   0.017307   -0.042857
 0.530000   0.017094   -0.042599
 0.535000   0.016881   -0.042354
 0.540000   0.016670   -0.042084
 0.545000   0.016460   -0.041810
 0.550000   0.016252   -0.041579
 0.555000   0.016045   -0.041367
 0.560000   0.015838   -0.041149
 0.565000   0.015633   -0.040914
 0.570000   0.015429   -0.040702
 0.575000   0.015226   -0.040524
 0.580000   0.015024   -0.040354
 0.585000   0.014822   -0.040171
 0.590000   0.014622   -0.039993
 0.595000   0.014423   -0.039852
 0.600000   0.014224   -0.039726
 0.605000   0.014025   -0.039609
 0.610000   0.013828   -0.039489
 0.615000   0.013630   -0.039386
 0.620000   0.013434   -0.039312
 0.625000   0.013237   -0.039247
 0.630000   0.013041   -0.039192
 0.635000   0.012845   -0.039145
 0.640000   0.012650   -0.039114
 0.645000   0.012454   -0.039099
 0.650000   0.012259   -0.039093
 0.655000   0.012063   -0.039095
 0.660000   0.011868   -0.039110
 0.665000   0.011672   -0.039135
 0.670000   0.011476   -0.039166
 0.675000   0.011281   -0.039202
 0.680000   0.011084   -0.039245
 0.685000   0.010888   -0.039302
 0.690000   0.010691   -0.039369
 0.695000   0.010494   -0.039435
 0.700000   0.010297   -0.039504
 0.705000   0.010099   -0.039574
 0.710000   0.009901   -0.039645
 0.715000   0.009703   -0.039722
 0.720000   0.009504   -0.039795
 0.725000   0.009305   -0.039853
 0.730000   0.009106   -0.039904
 0.735000   0.008906   -0.039948
 0.740000   0.008706   -0.039981
 0.745000   0.008506   -0.040006
 0.750000   0.008306   -0.040018
 0.755000   0.008106   -0.040014
 0.760000   0.007906   -0.039998
 0.765000   0.007706   -0.039968
 0.770000   0.007506   -0.039925
 0.775000   0.007307   -0.039872
 0.780000   0.007107   -0.039805
 0.785000   0.006909   -0.039725
 0.790000   0.006710   -0.039635
 0.795000   0.006512   -0.039538
 0.800000   0.006315   -0.039429
 0.805000   0.006118   -0.039306
 0.810000   0.005922   -0.039165
 0.815000   0.005726   -0.039002
 0.820000   0.005532   -0.038815
 0.825000   0.005338   -0.038592
 0.830000   0.005146   -0.038331
 0.835000   0.004955   -0.038043
 0.840000   0.004765   -0.037727
 0.845000   0.004578   -0.037373
 0.850000   0.004392   -0.036982
 0.855000   0.004208   -0.036549
 0.860000   0.004026   -0.036075
 0.865000   0.003847   -0.035562
 0.870000   0.003671   -0.035027
 0.875000   0.003497   -0.034509
 0.880000   0.003325   -0.034041
 0.885000   0.003156   -0.033635
 0.890000   0.002989   -0.033297
 0.895000   0.002823   -0.033039
 0.900000   0.002659   -0.032879
 0.905000   0.002495   -0.032838
 0.910000   0.002330   -0.032935
 0.915000   0.002165   -0.033178
 0.920000   0.001999   -0.033527
 0.925000   0.001830   -0.033872
 0.930000   0.001660   -0.034049
 0.935000   0.001489   -0.033834
 0.940000   0.001322   -0.032994
 0.945000   0.001160   -0.031458
 0.950000   0.001007   -0.029497
 0.955000   0.000865   -0.027580
 0.960000   0.000731   -0.025852
 0.965000   0.000606   -0.023909
 0.970000   0.000492   -0.021220
 0.975000   0.000394   -0.017767
 0.980000   0.000314   -0.014238
 0.985000   0.000251   -0.011543
 0.990000   0.000199   -0.010162
 0.995000   0.000150   -0.010098
 1.000000   0.000098   -0.010659
201 psinorm pb(KPa) dpb/dpsiN
 0.000000   34.130682   20.680855
 0.005000   34.171580   -4.321554
 0.010000   34.087466   -25.638887
 0.015000   33.915191   -41.696864
 0.020000   33.670498   -55.349391
 0.025000   33.361697   -67.329978
 0.030000   32.997198   -78.095305
 0.035000   32.580744   -87.351612
 0.040000   32.123682   -94.724874
 0.045000   31.633495   -100.999216
 0.050000   31.113690   -105.810590
 0.055000   30.575390   -109.494985
 0.060000   30.018740   -112.769128
 0.065000   29.447698   -115.389177
 0.070000   28.864848   -117.277589
 0.075000   28.274922   -118.559278
 0.080000   27.679255   -119.354881
 0.085000   27.081374   -119.495663
 0.090000   26.484298   -119.143375
 0.095000   25.889940   -118.409627
 0.100000   25.300202   -117.310989
 0.105000   24.716830   -115.965018
 0.110000   24.140552   -114.369716
 0.115000   23.573133   -112.445329
 0.120000   23.016099   -110.270602
 0.125000   22.470427   -107.926530
 0.130000   21.936833   -105.439551
 0.135000   21.416031   -102.815802
 0.140000   20.908675   -100.066620
 0.145000   20.415365   -97.240302
 0.150000   19.936272   -94.404551
 0.155000   19.471320   -91.565677
 0.160000   19.020616   -88.717669
 0.165000   18.584143   -85.878986
 0.170000   18.161826   -83.056169
 0.175000   17.753581   -80.261801
 0.180000   17.359208   -77.464125
 0.185000   16.978940   -74.597890
 0.190000   16.613229   -71.830356
 0.195000   16.260636   -69.241125
 0.200000   15.920818   -66.725048
 0.205000   15.593386   -64.289269
 0.210000   15.277925   -61.936923
 0.215000   14.974017   -59.667428
 0.220000   14.681251   -57.437846
 0.225000   14.399638   -55.125475
 0.230000   14.129996   -52.947110
 0.235000   13.870167   -51.030029
 0.240000   13.619696   -49.201439
 0.245000   13.378153   -47.456292
 0.250000   13.145133   -45.762043
 0.255000   12.920532   -43.986868
 0.260000   12.705264   -42.333287
 0.265000   12.497199   -40.929875
 0.270000   12.295965   -39.602755
 0.275000   12.101172   -38.353602
 0.280000   11.912429   -37.034306
 0.285000   11.730829   -35.753662
 0.290000   11.554893   -34.676826
 0.295000   11.384061   -33.682167
 0.300000   11.218071   -32.738563
 0.305000   11.056675   -31.718970
 0.310000   10.900881   -30.758178
 0.315000   10.749093   -29.986509
 0.320000   10.601016   -29.264640
 0.325000   10.456447   -28.548246
 0.330000   10.315534   -27.794077
 0.335000   10.178506   -27.124072
 0.340000   10.044293   -26.578505
 0.345000   9.912721   -26.065803
 0.350000   9.783635   -25.516490
 0.355000   9.657556   -24.995004
 0.360000   9.533685   -24.576164
 0.365000   9.411794   -24.190200
 0.370000   9.291783   -23.792543
 0.375000   9.173869   -23.393044
 0.380000   9.057852   -23.051310
 0.385000   8.943356   -22.753755
 0.390000   8.830315   -22.456226
 0.395000   8.718794   -22.142402
 0.400000   8.608891   -21.860301
 0.405000   8.500191   -21.624179
 0.410000   8.392649   -21.394461
 0.415000   8.286246   -21.138202
 0.420000   8.181267   -20.891005
 0.425000   8.077336   -20.682636
 0.430000   7.974441   -20.476523
 0.435000   7.872571   -20.240779
 0.440000   7.772033   -20.003476
 0.445000   7.672536   -19.800754
 0.450000   7.574025   -19.605508
 0.455000   7.476481   -19.399134
 0.460000   7.380034   -19.190437
 0.465000   7.284576   -19.002305
 0.470000   7.190011   -18.825018
 0.475000   7.096326   -18.636960
 0.480000   7.003641   -18.444155
 0.485000   6.911885   -18.274707
 0.490000   6.820894   -18.124181
 0.495000   6.730643   -17.973462
 0.500000   6.641160   -17.816526
 0.505000   6.552478   -17.673506
 0.510000   6.464425   -17.550033
 0.515000   6.376977   -17.430701
 0.520000   6.290118   -17.300165
 0.525000   6.203976   -17.168353
 0.530000   6.118434   -17.051861
 0.535000   6.033457   -16.942052
 0.540000   5.949014   -16.827513
 0.545000   5.865182   -16.711206
 0.550000   5.781902   -16.607389
 0.555000   5.699108   -16.511023
 0.560000   5.616791   -16.412326
 0.565000   5.534985   -16.306553
 0.570000   5.453726   -16.206591
 0.575000   5.372919   -16.117764
 0.580000   5.292548   -16.031840
 0.585000   5.212600   -15.941646
 0.590000   5.133132   -15.850489
 0.595000   5.054096   -15.767254
 0.600000   4.975459   -15.688524
 0.605000   4.897210   -15.611510
 0.610000   4.819344   -15.535439
 0.615000   4.741856   -15.464941
 0.620000   4.664695   -15.400703
 0.625000   4.587849   -15.338768
 0.630000   4.511307   -15.279298
 0.635000   4.435056   -15.222596
 0.640000   4.359081   -15.169477
 0.645000   4.283361   -15.119292
 0.650000   4.207888   -15.070813
 0.655000   4.132653   -15.024390
 0.660000   4.057644   -14.981250
 0.665000   3.982841   -14.939725
 0.670000   3.908247   -14.898223
 0.675000   3.833858   -14.857790
 0.680000   3.759669   -14.818625
 0.685000   3.685672   -14.783433
 0.690000   3.611835   -14.750180
 0.695000   3.538170   -14.715826
 0.700000   3.464676   -14.681861
 0.705000   3.391352   -14.647868
 0.710000   3.318198   -14.613335
 0.715000   3.245218   -14.579630
 0.720000   3.172401   -14.543357
 0.725000   3.099785   -14.502466
 0.730000   3.027377   -14.459313
 0.735000   2.955192   -14.413005
 0.740000   2.883247   -14.363032
 0.745000   2.811561   -14.308914
 0.750000   2.740158   -14.248910
 0.755000   2.669072   -14.183028
 0.760000   2.598327   -14.112599
 0.765000   2.527946   -14.037394
 0.770000   2.457953   -13.957554
 0.775000   2.388371   -13.874218
 0.780000   2.319211   -13.786979
 0.785000   2.250501   -13.695290
 0.790000   2.182258   -13.602816
 0.795000   2.114473   -13.510755
 0.800000   2.047151   -13.416684
 0.805000   1.980306   -13.319505
 0.810000   1.913956   -13.218053
 0.815000   1.848125   -13.110654
 0.820000   1.782849   -12.996597
 0.825000   1.718159   -12.871874
 0.830000   1.654130   -12.735432
 0.835000   1.590805   -12.592195
 0.840000   1.528208   -12.440791
 0.845000   1.466397   -12.278142
 0.850000   1.405427   -12.103738
 0.855000   1.345360   -11.916789
 0.860000   1.286259   -11.717076
 0.865000   1.228189   -11.505262
 0.870000   1.171207   -11.285291
 0.875000   1.115336   -11.066178
 0.880000   1.060545   -10.855819
 0.885000   1.006778   -10.657850
 0.890000   0.953966   -10.476196
 0.895000   0.902016   -10.316581
 0.900000   0.850800   -10.187848
 0.905000   0.800137   -10.101495
 0.910000   0.749786   -10.069806
 0.915000   0.699439   -10.103541
 0.920000   0.648750   -10.200811
 0.925000   0.597431   -10.337437
 0.930000   0.545376   -10.464333
 0.935000   0.492788   -10.498906
 0.940000   0.440387   -10.337067
 0.945000   0.389417   -9.911457
 0.950000   0.341272   -9.280335
 0.955000   0.296614   -8.634896
 0.960000   0.254923   -8.147168
 0.965000   0.215142   -7.790591
 0.970000   0.177017   -7.331524
 0.975000   0.141827   -6.580470
 0.980000   0.111213   -5.596141
 0.985000   0.085866   -4.580511
 0.990000   0.065407   -3.733805
 0.995000   0.048528   -3.251772
 1.000000   0.032890   -3.003378
201 psinorm ptot(KPa) dptot/dpsiN
 0.000000   105.172795   -116.231885
 0.005000   104.543623   -135.437030
 0.010000   103.818425   -152.026292
 0.015000   103.023360   -164.726976
 0.020000   102.171155   -175.513780
 0.025000   101.268222   -185.001844
 0.030000   100.321136   -193.585726
 0.035000   99.332365   -200.984005
 0.040000   98.311296   -206.836215
 0.045000   97.264002   -211.803081
 0.050000   96.193266   -215.564364
 0.055000   95.108359   -218.421894
 0.060000   94.009047   -220.994568
 0.065000   92.898413   -223.049219
 0.070000   91.778554   -224.513506
 0.075000   90.653278   -225.509778
 0.080000   89.523457   -226.121704
 0.085000   88.392061   -226.190972
 0.090000   87.261547   -225.858791
 0.095000   86.133473   -225.214907
 0.100000   85.009398   -224.270624
 0.105000   83.890767   -223.126675
 0.110000   82.778131   -221.773859
 0.115000   81.673028   -220.138649
 0.120000   80.576745   -218.291934
 0.125000   79.490109   -216.297444
 0.130000   78.413770   -214.171610
 0.135000   77.348393   -211.905543
 0.140000   76.294715   -209.492785
 0.145000   75.253465   -206.970049
 0.150000   74.225014   -204.391818
 0.155000   73.209547   -201.757971
 0.160000   72.207435   -199.054547
 0.165000   71.219001   -196.288540
 0.170000   70.244549   -193.467970
 0.175000   69.284322   -190.606273
 0.180000   68.338486   -187.674162
 0.185000   67.407580   -184.621582
 0.190000   66.492271   -181.587747
 0.195000   65.591703   -178.645233
 0.200000   64.705818   -175.735035
 0.205000   63.834352   -172.874971
 0.210000   62.977069   -170.063092
 0.215000   62.133721   -167.299841
 0.220000   61.304070   -164.551637
 0.225000   60.488205   -161.724811
 0.230000   59.686822   -158.999206
 0.235000   58.898213   -156.475681
 0.240000   58.122065   -154.008825
 0.245000   57.358125   -151.586339
 0.250000   56.606202   -149.172555
 0.255000   55.866399   -146.653344
 0.260000   55.139668   -144.188643
 0.265000   54.424513   -141.886832
 0.270000   53.720800   -139.613651
 0.275000   53.028376   -137.372026
 0.280000   52.347080   -135.035812
 0.285000   51.678018   -132.693575
 0.290000   51.020144   -130.478692
 0.295000   50.373231   -128.284150
 0.300000   49.737303   -126.089808
 0.305000   49.112333   -123.801298
 0.310000   48.499290   -121.555752
 0.315000   47.896776   -119.488460
 0.320000   47.304405   -117.501165
 0.325000   46.721764   -115.555547
 0.330000   46.148849   -113.601352
 0.335000   45.585750   -111.744646
 0.340000   45.031403   -110.021346
 0.345000   44.485537   -108.367408
 0.350000   43.947729   -106.709089
 0.355000   43.418446   -105.079311
 0.360000   42.896936   -103.551390
 0.365000   42.382932   -102.062814
 0.370000   41.876308   -100.567100
 0.375000   41.377261   -99.066513
 0.380000   40.885643   -97.571730
 0.385000   40.401544   -96.046228
 0.390000   39.925180   -94.474156
 0.395000   39.456802   -92.852964
 0.400000   38.996651   -91.233226
 0.405000   38.544470   -89.614556
 0.410000   38.100505   -87.978227
 0.415000   37.664688   -86.347964
 0.420000   37.237025   -84.772319
 0.425000   36.816965   -83.278731
 0.430000   36.404238   -81.840227
 0.435000   35.998562   -80.419971
 0.440000   35.600038   -79.052068
 0.445000   35.208042   -77.789815
 0.450000   34.822140   -76.601147
 0.455000   34.442030   -75.459684
 0.460000   34.067543   -74.371395
 0.465000   33.698316   -73.356830
 0.470000   33.333975   -72.411251
 0.475000   32.974204   -71.504505
 0.480000   32.618930   -70.623101
 0.485000   32.267973   -69.779082
 0.490000   31.921139   -68.955648
 0.495000   31.578416   -68.126494
 0.500000   31.239874   -67.277900
 0.505000   30.905637   -66.427573
 0.510000   30.575599   -65.590917
 0.515000   30.249728   -64.761192
 0.520000   29.927987   -63.927048
 0.525000   29.610458   -63.096674
 0.530000   29.297020   -62.282790
 0.535000   28.987630   -61.485742
 0.540000   28.682162   -60.700882
 0.545000   28.380621   -59.927651
 0.550000   28.082886   -59.179200
 0.555000   27.788829   -58.451026
 0.560000   27.498376   -57.731498
 0.565000   27.211514   -57.021917
 0.570000   26.928157   -56.336537
 0.575000   26.648148   -55.675296
 0.580000   26.371404   -55.031131
 0.585000   26.097837   -54.398172
 0.590000   25.827422   -53.780118
 0.595000   25.560036   -53.185856
 0.600000   25.295563   -52.611367
 0.605000   25.033922   -52.052565
 0.610000   24.775038   -51.508903
 0.615000   24.518833   -50.983868
 0.620000   24.265199   -50.480014
 0.625000   24.014033   -49.990032
 0.630000   23.765299   -49.509442
 0.635000   23.518939   -49.040172
 0.640000   23.274897   -48.582203
 0.645000   23.033117   -48.134306
 0.650000   22.793554   -47.698196
 0.655000   22.556135   -47.276964
 0.660000   22.320784   -46.875012
 0.665000   22.087385   -46.493236
 0.670000   21.855852   -46.125140
 0.675000   21.626133   -45.761401
 0.680000   21.398238   -45.382819
 0.685000   21.172305   -44.968194
 0.690000   20.948556   -44.512013
 0.695000   20.727185   -44.021047
 0.700000   20.508345   -43.503041
 0.705000   20.292154   -42.966299
 0.710000   20.078682   -42.402546
 0.715000   19.868129   -41.832959
 0.720000   19.660353   -41.299878
 0.725000   19.455130   -40.810659
 0.730000   19.252246   -40.369185
 0.735000   19.051438   -39.983798
 0.740000   18.852408   -39.653562
 0.745000   18.654903   -39.390216
 0.750000   18.458506   -39.208372
 0.755000   18.262819   -39.099436
 0.760000   18.067512   -39.053682
 0.765000   17.872282   -39.063765
 0.770000   17.676874   -39.128376
 0.775000   17.480998   -39.236646
 0.780000   17.284508   -39.341748
 0.785000   17.087581   -39.417793
 0.790000   16.890330   -39.471830
 0.795000   16.692863   -39.501652
 0.800000   16.495313   -39.510840
 0.805000   16.297754   -39.511537
 0.810000   16.100198   -39.500511
 0.815000   15.902749   -39.483152
 0.820000   15.705366   -39.475517
 0.825000   15.507994   -39.474239
 0.830000   15.310624   -39.481394
 0.835000   15.113180   -39.506442
 0.840000   14.915559   -39.514066
 0.845000   14.718039   -39.496438
 0.850000   14.520595   -39.488542
 0.855000   14.323154   -39.497742
 0.860000   14.125618   -39.531692
 0.865000   13.927837   -39.622063
 0.870000   13.729397   -39.727799
 0.875000   13.530559   -39.825197
 0.880000   13.331145   -39.962799
 0.885000   13.130931   -40.151796
 0.890000   12.929627   -40.412802
 0.895000   12.726803   -40.875839
 0.900000   12.520869   -41.582116
 0.905000   12.310982   -42.579947
 0.910000   12.095069   -44.121829
 0.915000   11.869764   -46.575139
 0.920000   11.629318   -50.609017
 0.925000   11.363673   -57.604668
 0.930000   11.053271   -69.449139
 0.935000   10.669182   -89.077179
 0.940000   10.162499   -120.460769
 0.945000   9.464574   -165.491862
 0.950000   8.507581   -218.366084
 0.955000   7.280914   -261.482791
 0.960000   5.892753   -273.506527
 0.965000   4.545848   -247.977299
 0.970000   3.412980   -199.255870
 0.975000   2.553290   -147.760437
 0.980000   1.935376   -105.581011
 0.985000   1.497479   -75.137467
 0.990000   1.184001   -54.307984
 0.995000   0.954400   -40.302183
 1.000000   0.780979   -29.066053
201 psinorm omeg(kRad/s) domeg/dpsiN
 0.000000   69.243302   0.020409
 0.005000   69.242888   -0.185831
 0.010000   69.241443   -0.425356
 0.015000   69.238634   -0.736259
 0.020000   69.234081   -1.126486
 0.025000   69.227370   -1.600989
 0.030000   69.218071   -2.161637
 0.035000   69.205753   -2.806562
 0.040000   69.190005   -3.523760
 0.045000   69.170516   -4.302076
 0.050000   69.146984   -5.132515
 0.055000   69.119190   -5.999103
 0.060000   69.086993   -6.886689
 0.065000   69.050324   -7.782655
 0.070000   69.009167   -8.659842
 0.075000   68.963725   -9.527097
 0.080000   68.913896   -10.409306
 0.085000   68.859632   -11.299296
 0.090000   68.800903   -12.199281
 0.095000   68.737639   -13.116904
 0.100000   68.669734   -14.046515
 0.105000   68.597174   -14.994979
 0.110000   68.519784   -15.975568
 0.115000   68.437418   -16.985474
 0.120000   68.349929   -18.029295
 0.125000   68.257126   -19.114075
 0.130000   68.158789   -20.238996
 0.135000   68.054736   -21.404540
 0.140000   67.944743   -22.615940
 0.145000   67.828576   -23.874233
 0.150000   67.706001   -25.178443
 0.155000   67.576792   -26.524763
 0.160000   67.440753   -27.906104
 0.165000   67.297731   -29.307529
 0.170000   67.147678   -30.714530
 0.175000   66.990585   -32.124004
 0.180000   66.826438   -33.533967
 0.185000   66.655246   -34.938366
 0.190000   66.477054   -36.321952
 0.195000   66.292026   -37.640999
 0.200000   66.100644   -38.860977
 0.205000   65.903416   -39.966635
 0.210000   65.700978   -40.939022
 0.215000   65.494026   -41.767952
 0.220000   65.283298   -42.422325
 0.225000   65.069803   -42.852543
 0.230000   64.854773   -43.156700
 0.235000   64.638236   -43.403986
 0.240000   64.420733   -43.544643
 0.245000   64.202790   -43.581138
 0.250000   63.984922   -43.494666
 0.255000   63.767843   -43.233438
 0.260000   63.552587   -42.953081
 0.265000   63.338312   -42.766732
 0.270000   63.124920   -42.615255
 0.275000   62.912160   -42.529372
 0.280000   62.699626   -42.538288
 0.285000   62.486777   -42.687677
 0.290000   62.272750   -43.014653
 0.295000   62.056630   -43.457212
 0.300000   61.838177   -43.929454
 0.305000   61.617336   -44.400517
 0.310000   61.394172   -44.853027
 0.315000   61.168805   -45.294769
 0.320000   60.941225   -45.703121
 0.325000   60.711774   -46.057515
 0.330000   60.480649   -46.371248
 0.335000   60.248062   -46.640965
 0.340000   60.014240   -46.863256
 0.345000   59.779429   -47.029363
 0.350000   59.543946   -47.133326
 0.355000   59.308096   -47.180482
 0.360000   59.072141   -47.175210
 0.365000   58.836344   -47.118001
 0.370000   58.600961   -47.009100
 0.375000   58.366253   -46.824529
 0.380000   58.132716   -46.568041
 0.385000   57.900572   -46.268669
 0.390000   57.670029   -45.925492
 0.395000   57.441317   -45.539868
 0.400000   57.214631   -45.119483
 0.405000   56.990123   -44.651777
 0.410000   56.768113   -44.223601
 0.415000   56.547887   -44.030810
 0.420000   56.327805   -44.208269
 0.425000   56.105804   -44.822902
 0.430000   55.879576   -45.901577
 0.435000   55.646788   -47.597054
 0.440000   55.403605   -49.888004
 0.445000   55.147908   -52.398790
 0.450000   54.879617   -54.996795
 0.455000   54.597940   -57.714555
 0.460000   54.302472   -60.472005
 0.465000   53.993220   -63.348431
 0.470000   53.668987   -66.232648
 0.475000   53.330894   -68.630799
 0.480000   52.982679   -70.446528
 0.485000   52.626428   -71.815907
 0.490000   52.264520   -72.686786
 0.495000   51.899560   -73.041799
 0.500000   51.534102   -72.812849
 0.505000   51.171432   -72.010795
 0.510000   50.813994   -70.856223
 0.515000   50.462870   -69.515707
 0.520000   50.118837   -68.040488
 0.525000   49.782465   -66.452370
 0.530000   49.454314   -64.743521
 0.535000   49.135030   -63.000008
 0.540000   48.824314   -61.300656
 0.545000   48.522023   -59.644325
 0.550000   48.227870   -58.058768
 0.555000   47.941435   -56.560455
 0.560000   47.662266   -55.142943
 0.565000   47.390006   -53.899883
 0.570000   47.123267   -52.887412
 0.575000   46.861132   -52.065144
 0.580000   46.602616   -51.445438
 0.585000   46.346677   -51.038947
 0.590000   46.092226   -50.850404
 0.595000   45.838173   -50.828311
 0.600000   45.583943   -50.900098
 0.605000   45.329172   -51.041650
 0.610000   45.073526   -51.249186
 0.615000   44.816681   -51.522048
 0.620000   44.558306   -51.807829
 0.625000   44.298602   -52.142710
 0.630000   44.036879   -52.587663
 0.635000   43.772726   -53.112570
 0.640000   43.505753   -53.715832
 0.645000   43.235567   -54.398976
 0.650000   42.961763   -55.118047
 0.655000   42.684387   -55.937672
 0.660000   42.402387   -56.934001
 0.665000   42.115047   -58.068044
 0.670000   41.821706   -59.338390
 0.675000   41.521663   -60.750346
 0.680000   41.214203   -62.280244
 0.685000   40.898860   -63.786693
 0.690000   40.576336   -65.116087
 0.695000   40.247700   -66.262008
 0.700000   39.913716   -67.286838
 0.705000   39.574831   -68.256056
 0.710000   39.231155   -69.196212
 0.715000   38.882869   -70.173892
 0.720000   38.529416   -71.252840
 0.725000   38.170341   -72.405957
 0.730000   37.805357   -73.617219
 0.735000   37.434168   -74.887019
 0.740000   37.056487   -76.252778
 0.745000   36.671641   -77.747474
 0.750000   36.279012   -79.374030
 0.755000   35.877900   -81.251053
 0.760000   35.466501   -83.542583
 0.765000   35.042475   -86.320304
 0.770000   34.603298   -89.768648
 0.775000   34.144788   -93.784583
 0.780000   33.665452   -97.523399
 0.785000   33.169554   -100.557336
 0.790000   32.659879   -102.953495
 0.795000   32.140019   -104.572672
 0.800000   31.614152   -105.425090
 0.805000   31.085768   -105.630387
 0.810000   30.557848   -105.038882
 0.815000   30.035379   -103.652925
 0.820000   29.521319   -101.664993
 0.825000   29.018730   -99.072749
 0.830000   28.530592   -95.974110
 0.835000   28.058988   -92.567104
 0.840000   27.604921   -88.872707
 0.845000   27.170261   -85.267886
 0.850000   26.752242   -82.426848
 0.855000   26.345993   -80.778616
 0.860000   25.944456   -80.867271
 0.865000   25.537320   -83.737983
 0.870000   25.107076   -89.790319
 0.875000   24.639417   -99.654436
 0.880000   24.110531   -114.912400
 0.885000   23.490293   -136.745802
 0.890000   22.743073   -166.041370
 0.895000   21.829879   -203.873060
 0.900000   20.704343   -248.652008
 0.905000   19.343359   -297.387702
 0.910000   17.730466   -347.315434
 0.915000   15.870205   -393.704417
 0.920000   13.793422   -431.067415
 0.925000   11.559531   -453.876988
 0.930000   9.254652   -456.632838
 0.935000   6.993202   -436.313303
 0.940000   4.891519   -393.648653
 0.945000   3.056716   -332.034541
 0.950000   1.571173   -257.554936
 0.955000   0.481166   -177.425856
 0.960000   -0.203085   -100.395405
 0.965000   -0.522788   -33.623302
 0.970000   -0.539318   19.746039
 0.975000   -0.325327   58.409616
 0.980000   0.044778   82.821018
 0.985000   0.502883   94.125179
 0.990000   0.986030   95.076343
 0.995000   1.453646   89.281144
 1.000000   1.878841   80.796755
201 psinorm omegp(kRad/s) domegp/dpsiN
 0.000000   -0.023288   146.414534
 0.005000   0.554294   84.618371
 0.010000   0.822895   50.166635
 0.015000   1.055960   45.182088
 0.020000   1.274716   42.595016
 0.025000   1.481910   40.166146
 0.030000   1.676378   37.375410
 0.035000   1.855665   34.645939
 0.040000   2.022837   32.147703
 0.045000   2.177142   29.768218
 0.050000   2.320519   27.793415
 0.055000   2.455076   26.384933
 0.060000   2.584369   25.513530
 0.065000   2.710211   24.967032
 0.070000   2.834039   24.701315
 0.075000   2.957224   24.515400
 0.080000   3.079193   24.248978
 0.085000   3.199714   23.956443
 0.090000   3.318757   23.665824
 0.095000   3.436372   23.452993
 0.100000   3.553287   23.309007
 0.105000   3.669462   23.383428
 0.110000   3.787122   23.647837
 0.115000   3.905941   24.133538
 0.120000   4.028457   24.821224
 0.125000   4.154153   25.554628
 0.130000   4.284003   26.152421
 0.135000   4.415677   26.616523
 0.140000   4.550168   26.867036
 0.145000   4.684347   26.789575
 0.150000   4.818064   26.257091
 0.155000   4.946918   25.200802
 0.160000   5.070072   23.845564
 0.165000   5.185374   22.091187
 0.170000   5.290984   20.061832
 0.175000   5.385992   17.530380
 0.180000   5.466288   14.892082
 0.185000   5.534913   12.414083
 0.190000   5.590429   10.010382
 0.195000   5.635017   7.930571
 0.200000   5.669734   6.043567
 0.205000   5.695453   4.619348
 0.210000   5.715928   3.675156
 0.215000   5.732204   3.026577
 0.220000   5.746194   2.593164
 0.225000   5.758136   2.075921
 0.230000   5.766953   1.587412
 0.235000   5.774010   1.068047
 0.240000   5.777633   0.262506
 0.245000   5.776635   -0.597155
 0.250000   5.771662   -1.623160
 0.255000   5.760403   -2.876558
 0.260000   5.742896   -4.129977
 0.265000   5.719104   -5.510426
 0.270000   5.687792   -6.962781
 0.275000   5.649476   -8.426214
 0.280000   5.603530   -10.112880
 0.285000   5.548347   -11.943769
 0.290000   5.484092   -13.934626
 0.295000   5.409001   -16.302068
 0.300000   5.321072   -18.850913
 0.305000   5.220492   -21.558123
 0.310000   5.105490   -24.569992
 0.315000   4.974792   -27.660542
 0.320000   4.828885   -30.754885
 0.325000   4.667243   -33.769818
 0.330000   4.491187   -36.333276
 0.335000   4.303910   -38.332765
 0.340000   4.107859   -39.819154
 0.345000   3.905719   -40.710370
 0.350000   3.700755   -40.965390
 0.355000   3.496065   -41.103318
 0.360000   3.289722   -41.554742
 0.365000   3.080517   -42.286007
 0.370000   2.866862   -43.481622
 0.375000   2.645701   -45.271052
 0.380000   2.414152   -47.871354
 0.385000   2.166987   -51.059423
 0.390000   1.903557   -54.192077
 0.395000   1.625067   -57.029848
 0.400000   1.333259   -59.673653
 0.405000   1.028330   -62.415303
 0.410000   0.709106   -66.193367
 0.415000   0.366396   -71.403819
 0.420000   -0.004932   -77.663181
 0.425000   -0.410235   -84.905296
 0.430000   -0.853985   -92.918871
 0.435000   -1.339424   -101.531368
 0.440000   -1.869299   -110.692591
 0.445000   -2.446350   -118.863797
 0.450000   -3.057937   -124.825835
 0.455000   -3.694608   -128.695436
 0.460000   -4.344891   -130.094996
 0.465000   -4.995558   -128.449768
 0.470000   -5.629389   -122.748030
 0.475000   -6.223039   -113.474214
 0.480000   -6.764131   -102.172439
 0.485000   -7.244763   -89.577706
 0.490000   -7.659908   -76.489528
 0.495000   -8.009658   -63.404372
 0.500000   -8.293952   -51.145566
 0.505000   -8.521114   -41.235421
 0.510000   -8.706306   -33.872954
 0.515000   -8.859843   -28.496453
 0.520000   -8.991271   -24.759372
 0.525000   -9.107437   -22.240071
 0.530000   -9.213671   -20.545367
 0.535000   -9.312891   -19.056498
 0.540000   -9.404236   -17.463071
 0.545000   -9.487522   -15.902487
 0.550000   -9.563261   -14.428850
 0.555000   -9.631810   -12.928330
 0.560000   -9.692545   -11.375136
 0.565000   -9.745561   -9.927533
 0.570000   -9.791820   -8.515160
 0.575000   -9.830713   -7.036911
 0.580000   -9.862189   -5.598603
 0.585000   -9.886699   -4.253449
 0.590000   -9.904723   -2.910593
 0.595000   -9.915805   -1.542104
 0.600000   -9.920144   -0.267003
 0.605000   -9.918475   0.949544
 0.610000   -9.910649   2.184634
 0.615000   -9.896629   3.392072
 0.620000   -9.876728   4.497007
 0.625000   -9.851659   5.564695
 0.630000   -9.821081   6.645816
 0.635000   -9.785200   7.644627
 0.640000   -9.744635   8.568957
 0.645000   -9.699511   9.474674
 0.650000   -9.649888   10.349545
 0.655000   -9.596015   11.136137
 0.660000   -9.538527   11.863389
 0.665000   -9.477382   12.580203
 0.670000   -9.412725   13.272971
 0.675000   -9.344652   14.032594
 0.680000   -9.272399   15.025031
 0.685000   -9.194401   16.324223
 0.690000   -9.109157   17.890508
 0.695000   -9.015496   19.715919
 0.700000   -8.911998   21.874208
 0.705000   -8.796754   24.234271
 0.710000   -8.669655   26.359644
 0.715000   -8.533158   28.061022
 0.720000   -8.389045   29.280275
 0.725000   -8.240355   29.840832
 0.730000   -8.090636   29.615963
 0.735000   -7.944196   28.476352
 0.740000   -7.805873   26.524484
 0.745000   -7.678951   24.005281
 0.750000   -7.565820   21.125115
 0.755000   -7.467700   18.119383
 0.760000   -7.384626   15.121811
 0.765000   -7.316481   12.424938
 0.770000   -7.260377   10.250169
 0.775000   -7.213980   8.446340
 0.780000   -7.175913   6.844648
 0.785000   -7.145533   5.237046
 0.790000   -7.123543   3.447203
 0.795000   -7.111061   1.261404
 0.800000   -7.110929   -1.488787
 0.805000   -7.125949   -4.739315
 0.810000   -7.158322   -8.337385
 0.815000   -7.209323   -12.113200
 0.820000   -7.279454   -15.877828
 0.825000   -7.368101   -19.277946
 0.830000   -7.472234   -22.005562
 0.835000   -7.588157   -23.950220
 0.840000   -7.711736   -25.092849
 0.845000   -7.839085   -25.313837
 0.850000   -7.964874   -24.510218
 0.855000   -8.084188   -23.093467
 0.860000   -8.195809   -21.507449
 0.865000   -8.299262   -19.758554
 0.870000   -8.393394   -17.931963
 0.875000   -8.478582   -16.234946
 0.880000   -8.555744   -14.838292
 0.885000   -8.626965   -13.616226
 0.890000   -8.691906   -12.398128
 0.895000   -8.750946   -11.346350
 0.900000   -8.805370   -10.449857
 0.905000   -8.855444   -9.519990
 0.910000   -8.900569   -8.251611
 0.915000   -8.937960   -5.679516
 0.920000   -8.957365   -1.209225
 0.925000   -8.950053   5.599651
 0.930000   -8.901368   16.412681
 0.935000   -8.785926   36.902090
 0.940000   -8.532347   66.277132
 0.945000   -8.123155   98.913753
 0.950000   -7.543210   130.711727
 0.955000   -6.816037   151.505873
 0.960000   -6.028151   147.000133
 0.965000   -5.346036   112.770038
 0.970000   -4.900451   68.877077
 0.975000   -4.657265   61.279982
 0.980000   -4.287651   141.067037
 0.985000   -3.246595   310.406648
 0.990000   -1.183584   495.487791
 0.995000   1.708283   581.256644
 1.000000   4.628982   587.023008
201 psinorm omgvb(kRad/s) domgvb/dpsiN
 0.000000   69.220013   146.434943
 0.005000   69.797182   84.432540
 0.010000   70.064339   49.741279
 0.015000   70.294595   44.445830
 0.020000   70.508797   41.468530
 0.025000   70.709280   38.565157
 0.030000   70.894449   35.213773
 0.035000   71.061418   31.839377
 0.040000   71.212842   28.623943
 0.045000   71.347657   25.466143
 0.050000   71.467504   22.660900
 0.055000   71.574266   20.385830
 0.060000   71.671362   18.626840
 0.065000   71.760535   17.184377
 0.070000   71.843206   16.041473
 0.075000   71.920949   14.988303
 0.080000   71.993089   13.839672
 0.085000   72.059346   12.657147
 0.090000   72.119660   11.466543
 0.095000   72.174012   10.336089
 0.100000   72.223021   9.262492
 0.105000   72.266636   8.388449
 0.110000   72.306906   7.672269
 0.115000   72.343359   7.148063
 0.120000   72.378386   6.791929
 0.125000   72.411278   6.440553
 0.130000   72.442792   5.913425
 0.135000   72.470413   5.211984
 0.140000   72.494912   4.251096
 0.145000   72.512924   2.915342
 0.150000   72.524065   1.078648
 0.155000   72.523710   -1.323961
 0.160000   72.510825   -4.060541
 0.165000   72.483105   -7.216342
 0.170000   72.438662   -10.652699
 0.175000   72.376578   -14.593624
 0.180000   72.292726   -18.641885
 0.185000   72.190159   -22.524283
 0.190000   72.067483   -26.311570
 0.195000   71.927043   -29.710428
 0.200000   71.770379   -32.817410
 0.205000   71.598869   -35.347287
 0.210000   71.416906   -37.263867
 0.215000   71.226230   -38.741375
 0.220000   71.029492   -39.829160
 0.225000   70.827939   -40.776622
 0.230000   70.621726   -41.569288
 0.235000   70.412246   -42.335939
 0.240000   70.198367   -43.282137
 0.245000   69.979425   -44.178293
 0.250000   69.756584   -45.117826
 0.255000   69.528246   -46.109996
 0.260000   69.295484   -47.083058
 0.265000   69.057416   -48.277158
 0.270000   68.812712   -49.578036
 0.275000   68.561635   -50.955586
 0.280000   68.303156   -52.651168
 0.285000   68.035124   -54.631446
 0.290000   67.756842   -56.949279
 0.295000   67.465631   -59.759279
 0.300000   67.159249   -62.780367
 0.305000   66.837827   -65.958640
 0.310000   66.499663   -69.423019
 0.315000   66.143597   -72.955311
 0.320000   65.770109   -76.458006
 0.325000   65.379017   -79.827332
 0.330000   64.971836   -82.704525
 0.335000   64.551972   -84.973730
 0.340000   64.122099   -86.682410
 0.345000   63.685148   -87.739732
 0.350000   63.244701   -88.098716
 0.355000   62.804160   -88.283800
 0.360000   62.361863   -88.729952
 0.365000   61.916861   -89.404007
 0.370000   61.467823   -90.490722
 0.375000   61.011954   -92.095581
 0.380000   60.546868   -94.439395
 0.385000   60.067560   -97.328092
 0.390000   59.573587   -100.117569
 0.395000   59.066384   -102.569716
 0.400000   58.547890   -104.793135
 0.405000   58.018453   -107.067081
 0.410000   57.477219   -110.416968
 0.415000   56.914283   -115.434629
 0.420000   56.322872   -121.871451
 0.425000   55.695568   -129.728197
 0.430000   55.025590   -138.820448
 0.435000   54.307364   -149.128422
 0.440000   53.534306   -160.580595
 0.445000   52.701558   -171.262587
 0.450000   51.821680   -179.822630
 0.455000   50.903332   -186.409991
 0.460000   49.957580   -190.567001
 0.465000   48.997662   -191.798199
 0.470000   48.039598   -188.980678
 0.475000   47.107855   -182.105013
 0.480000   46.218548   -172.618968
 0.485000   45.381665   -161.393613
 0.490000   44.604612   -149.176314
 0.495000   43.889902   -136.446171
 0.500000   43.240150   -123.958415
 0.505000   42.650318   -113.246215
 0.510000   42.107688   -104.729177
 0.515000   41.603026   -98.012160
 0.520000   41.127567   -92.799860
 0.525000   40.675028   -88.692441
 0.530000   40.240642   -85.288888
 0.535000   39.822139   -82.056505
 0.540000   39.420077   -78.763727
 0.545000   39.034501   -75.546812
 0.550000   38.664609   -72.487618
 0.555000   38.309625   -69.488784
 0.560000   37.969721   -66.518079
 0.565000   37.644445   -63.827416
 0.570000   37.331447   -61.402572
 0.575000   37.030419   -59.102055
 0.580000   36.740427   -57.044040
 0.585000   36.459978   -55.292395
 0.590000   36.187503   -53.760997
 0.595000   35.922368   -52.370416
 0.600000   35.663798   -51.167101
 0.605000   35.410697   -50.092107
 0.610000   35.162877   -49.064552
 0.615000   34.920052   -48.129976
 0.620000   34.681578   -47.310822
 0.625000   34.446944   -46.578015
 0.630000   34.215798   -45.941847
 0.635000   33.987525   -45.467943
 0.640000   33.761118   -45.146875
 0.645000   33.536056   -44.924302
 0.650000   33.311875   -44.768502
 0.655000   33.088371   -44.801534
 0.660000   32.863860   -45.070612
 0.665000   32.637665   -45.487841
 0.670000   32.408981   -46.065419
 0.675000   32.177011   -46.717753
 0.680000   31.941804   -47.255214
 0.685000   31.704459   -47.462469
 0.690000   31.467179   -47.225579
 0.695000   31.232203   -46.546089
 0.700000   31.001718   -45.412629
 0.705000   30.778077   -44.021785
 0.710000   30.561500   -42.836568
 0.715000   30.349711   -42.112870
 0.720000   30.140372   -41.972566
 0.725000   29.929986   -42.565125
 0.730000   29.714720   -44.001256
 0.735000   29.489973   -46.410666
 0.740000   29.250614   -49.728294
 0.745000   28.992690   -53.742193
 0.750000   28.713192   -58.248915
 0.755000   28.410201   -63.131670
 0.760000   28.081875   -68.420772
 0.765000   27.725993   -73.895366
 0.770000   27.342921   -79.518479
 0.775000   26.930808   -85.338243
 0.780000   26.489539   -90.678752
 0.785000   26.024021   -95.320291
 0.790000   25.536336   -99.506292
 0.795000   25.028958   -103.311269
 0.800000   24.503223   -106.913877
 0.805000   23.959819   -110.369702
 0.810000   23.399526   -113.376267
 0.815000   22.826057   -115.766125
 0.820000   22.241865   -117.542821
 0.825000   21.650628   -118.350695
 0.830000   21.058358   -117.979672
 0.835000   20.470832   -116.517324
 0.840000   19.893185   -113.965555
 0.845000   19.331176   -110.581724
 0.850000   18.787368   -106.937066
 0.855000   18.261805   -103.872084
 0.860000   17.748647   -102.374720
 0.865000   17.238058   -103.496537
 0.870000   16.713681   -107.722282
 0.875000   16.160835   -115.889382
 0.880000   15.554788   -129.750692
 0.885000   14.863328   -150.362029
 0.890000   14.051167   -178.439498
 0.895000   13.078933   -215.219409
 0.900000   11.898973   -259.101865
 0.905000   10.487915   -306.907693
 0.910000   8.829896   -355.567045
 0.915000   6.932244   -399.383934
 0.920000   4.836057   -432.276640
 0.925000   2.609478   -448.277337
 0.930000   0.353284   -440.220156
 0.935000   -1.792724   -399.411213
 0.940000   -3.640828   -327.371520
 0.945000   -5.066439   -233.120788
 0.950000   -5.972036   -126.843209
 0.955000   -6.334871   -25.919983
 0.960000   -6.231236   46.604729
 0.965000   -5.868824   79.146735
 0.970000   -5.439769   88.623116
 0.975000   -4.982592   119.689598
 0.980000   -4.242873   223.888055
 0.985000   -2.743712   404.531826
 0.990000   -0.197555   590.564134
 0.995000   3.161929   670.537788
 1.000000   6.507823   667.819762
201 psinorm omgpp(kRad/s) domgpp/dpsiN
 0.000000   -0.066445   -33.056673
 0.005000   -0.268037   -47.580044
 0.010000   -0.542246   -55.440883
 0.015000   -0.822446   -56.547858
 0.020000   -1.107724   -57.443671
 0.025000   -1.396882   -58.076603
 0.030000   -1.688490   -58.458978
 0.035000   -1.981472   -58.590478
 0.040000   -2.274395   -58.447200
 0.045000   -2.565944   -58.046758
 0.050000   -2.854863   -57.349170
 0.055000   -3.139436   -56.347011
 0.060000   -3.418333   -55.305671
 0.065000   -3.692493   -54.214940
 0.070000   -3.960482   -52.935184
 0.075000   -4.221845   -51.576898
 0.080000   -4.476251   -50.139346
 0.085000   -4.723238   -48.737480
 0.090000   -4.963626   -47.598836
 0.095000   -5.199226   -46.511753
 0.100000   -5.428743   -45.261380
 0.105000   -5.651840   -43.926366
 0.110000   -5.868007   -42.497785
 0.115000   -6.076818   -41.120181
 0.120000   -6.279209   -39.501525
 0.125000   -6.471833   -37.508575
 0.130000   -6.654295   -35.372274
 0.135000   -6.825556   -33.034234
 0.140000   -6.984637   -30.515507
 0.145000   -7.130711   -27.740356
 0.150000   -7.262041   -24.755098
 0.155000   -7.378262   -21.740637
 0.160000   -7.479447   -18.707345
 0.165000   -7.565335   -15.629278
 0.170000   -7.635740   -12.522145
 0.175000   -7.690557   -8.939070
 0.180000   -7.725130   -5.608930
 0.185000   -7.746646   -2.853219
 0.190000   -7.753663   -0.078776
 0.195000   -7.747434   2.397667
 0.200000   -7.729686   4.509017
 0.205000   -7.702344   6.321738
 0.210000   -7.666469   7.082969
 0.215000   -7.631514   7.031523
 0.220000   -7.596153   7.136878
 0.225000   -7.560145   7.296457
 0.230000   -7.523189   7.569896
 0.235000   -7.484446   7.323497
 0.240000   -7.449954   7.835450
 0.245000   -7.406092   9.971057
 0.250000   -7.350243   12.237363
 0.255000   -7.283718   14.446581
 0.260000   -7.205777   16.777732
 0.265000   -7.115941   18.970668
 0.270000   -7.016071   21.708368
 0.275000   -6.898857   25.034880
 0.280000   -6.765722   27.973097
 0.285000   -6.619126   30.622341
 0.290000   -6.459498   33.168620
 0.295000   -6.287440   35.996708
 0.300000   -6.099531   38.570618
 0.305000   -5.901734   39.402281
 0.310000   -5.705509   39.053187
 0.315000   -5.511202   38.448677
 0.320000   -5.321022   37.461592
 0.325000   -5.136586   36.207121
 0.330000   -4.958951   34.464839
 0.335000   -4.791938   32.517474
 0.340000   -4.633776   30.950831
 0.345000   -4.482429   29.684999
 0.350000   -4.336926   28.632584
 0.355000   -4.196104   27.632587
 0.360000   -4.060600   26.685392
 0.365000   -3.929250   26.723562
 0.370000   -3.793364   27.423112
 0.375000   -3.655019   28.042023
 0.380000   -3.512944   28.841109
 0.385000   -3.366607   29.718967
 0.390000   -3.215754   30.856183
 0.395000   -3.058046   31.605336
 0.400000   -2.899701   31.605011
 0.405000   -2.741995   31.298229
 0.410000   -2.586719   30.616911
 0.415000   -2.435826   29.608072
 0.420000   -2.290638   28.614936
 0.425000   -2.149677   26.510736
 0.430000   -2.025531   23.858509
 0.435000   -1.911092   21.958768
 0.440000   -1.805943   20.136720
 0.445000   -1.709725   18.377073
 0.450000   -1.622172   16.812440
 0.455000   -1.541600   14.881713
 0.460000   -1.473355   12.760756
 0.465000   -1.413993   10.967197
 0.470000   -1.363683   9.149738
 0.475000   -1.322495   7.333412
 0.480000   -1.290349   5.452463
 0.485000   -1.267971   4.080804
 0.490000   -1.249541   3.234193
 0.495000   -1.235629   2.292993
 0.500000   -1.226611   1.285448
 0.505000   -1.222774   0.219065
 0.510000   -1.224421   -0.865721
 0.515000   -1.231432   -1.934820
 0.520000   -1.243769   -2.948059
 0.525000   -1.260912   -3.846909
 0.530000   -1.282238   -4.628356
 0.535000   -1.307196   -5.305677
 0.540000   -1.335295   -5.780388
 0.545000   -1.365000   -6.246189
 0.550000   -1.397756   -6.860879
 0.555000   -1.433608   -7.441466
 0.560000   -1.472171   -7.999739
 0.565000   -1.513606   -8.598028
 0.570000   -1.558151   -9.207208
 0.575000   -1.605678   -9.906664
 0.580000   -1.657218   -10.632002
 0.585000   -1.711998   -11.194024
 0.590000   -1.769158   -11.617572
 0.595000   -1.828174   -11.937413
 0.600000   -1.888532   -12.168838
 0.605000   -1.949862   -12.334733
 0.610000   -2.011880   -12.444437
 0.615000   -2.074306   -12.527524
 0.620000   -2.137155   -12.602277
 0.625000   -2.200329   -12.654333
 0.630000   -2.263698   -12.738659
 0.635000   -2.327716   -12.842852
 0.640000   -2.392127   -12.736841
 0.645000   -2.455084   -12.515152
 0.650000   -2.517278   -12.372691
 0.655000   -2.578811   -12.251455
 0.660000   -2.639793   -12.243659
 0.665000   -2.701248   -12.710249
 0.670000   -2.766895   -13.795556
 0.675000   -2.839203   -15.757933
 0.680000   -2.924475   -18.484270
 0.685000   -3.024046   -21.320162
 0.690000   -3.137676   -24.380783
 0.695000   -3.267854   -28.531261
 0.700000   -3.422989   -29.438544
 0.705000   -3.562239   -27.460279
 0.710000   -3.697592   -26.173202
 0.715000   -3.823971   -23.797691
 0.720000   -3.935569   -20.347565
 0.725000   -4.027447   -16.162241
 0.730000   -4.097191   -8.619987
 0.735000   -4.113647   0.552277
 0.740000   -4.091668   8.308314
 0.745000   -4.030564   15.996361
 0.750000   -3.931705   23.180788
 0.755000   -3.798756   31.158344
 0.760000   -3.620121   36.240120
 0.765000   -3.436354   37.494130
 0.770000   -3.245180   38.292744
 0.775000   -3.053427   37.790874
 0.780000   -2.867271   36.160516
 0.785000   -2.691822   34.537718
 0.790000   -2.521894   30.770287
 0.795000   -2.384119   25.440245
 0.800000   -2.267492   21.355044
 0.805000   -2.170569   17.532641
 0.810000   -2.092165   14.032140
 0.815000   -2.030247   10.600119
 0.820000   -1.986164   8.085510
 0.825000   -1.949392   6.811286
 0.830000   -1.918051   5.735984
 0.835000   -1.892032   4.727826
 0.840000   -1.870773   3.758743
 0.845000   -1.854445   1.902427
 0.850000   -1.851749   -0.278129
 0.855000   -1.857226   -1.784269
 0.860000   -1.869591   -3.414666
 0.865000   -1.891373   -5.307299
 0.870000   -1.922664   -7.261297
 0.875000   -1.963986   -10.209505
 0.880000   -2.024759   -13.401353
 0.885000   -2.097999   -15.710406
 0.890000   -2.181863   -18.940553
 0.895000   -2.287405   -23.962509
 0.900000   -2.421488   -30.542565
 0.905000   -2.592830   -40.466718
 0.910000   -2.826156   -54.212119
 0.915000   -3.134952   -70.307720
 0.920000   -3.529233   -92.903247
 0.925000   -4.063984   -126.535029
 0.930000   -4.794583   -172.733440
 0.935000   -5.791318   -239.142215
 0.940000   -7.186005   -329.392882
 0.945000   -9.085247   -420.018746
 0.950000   -11.386193   -501.122816
 0.955000   -14.096475   -565.906435
 0.960000   -17.045257   -582.061245
 0.965000   -19.917088   -528.426006
 0.970000   -22.329517   -386.036228
 0.975000   -23.777450   -141.674129
 0.980000   -23.746258   131.969335
 0.985000   -22.457757   351.556141
 0.990000   -20.230697   494.067606
 0.995000   -17.517081   547.784732
 1.000000   -14.752850   557.907692
201 psinorm omgeb(kRad/s) domgeb/dpsiN
 0.000000   69.153568   113.378270
 0.005000   69.529145   36.852495
 0.010000   69.522093   -5.699604
 0.015000   69.472149   -12.102029
 0.020000   69.401073   -15.975140
 0.025000   69.312398   -19.511446
 0.030000   69.205958   -23.245205
 0.035000   69.079946   -26.751101
 0.040000   68.938447   -29.823257
 0.045000   68.781713   -32.580615
 0.050000   68.612641   -34.688270
 0.055000   68.434830   -35.961181
 0.060000   68.253029   -36.678831
 0.065000   68.068042   -37.030563
 0.070000   67.882724   -36.893710
 0.075000   67.699105   -36.588595
 0.080000   67.516838   -36.299674
 0.085000   67.336108   -36.080334
 0.090000   67.156034   -36.132293
 0.095000   66.974785   -36.175663
 0.100000   66.794278   -35.998888
 0.105000   66.614796   -35.537916
 0.110000   66.438899   -34.825516
 0.115000   66.266541   -33.972118
 0.120000   66.099177   -32.709597
 0.125000   65.939445   -31.068022
 0.130000   65.788497   -29.458850
 0.135000   65.644857   -27.822251
 0.140000   65.510275   -26.264411
 0.145000   65.382213   -24.825014
 0.150000   65.262025   -23.676450
 0.155000   65.145448   -23.064598
 0.160000   65.031379   -22.767886
 0.165000   64.917769   -22.845620
 0.170000   64.802922   -23.174844
 0.175000   64.686021   -23.532694
 0.180000   64.567595   -24.250815
 0.185000   64.443513   -25.377502
 0.190000   64.313820   -26.390346
 0.195000   64.179609   -27.312761
 0.200000   64.040693   -28.308393
 0.205000   63.896525   -29.025549
 0.210000   63.750437   -30.180898
 0.215000   63.594716   -31.709852
 0.220000   63.433339   -32.692282
 0.225000   63.267793   -33.480164
 0.230000   63.098537   -33.999392
 0.235000   62.927800   -35.012443
 0.240000   62.748413   -35.446687
 0.245000   62.573333   -34.207235
 0.250000   62.406340   -32.880463
 0.255000   62.244528   -31.663416
 0.260000   62.089706   -30.305326
 0.265000   61.941475   -29.306490
 0.270000   61.796641   -27.869668
 0.275000   61.662778   -25.920706
 0.280000   61.537434   -24.678071
 0.285000   61.415997   -24.009105
 0.290000   61.297343   -23.780659
 0.295000   61.178191   -23.762572
 0.300000   61.059718   -24.209749
 0.305000   60.936093   -26.556359
 0.310000   60.794154   -30.369832
 0.315000   60.632395   -34.506634
 0.320000   60.449088   -38.996414
 0.325000   60.242431   -43.620211
 0.330000   60.012885   -48.239686
 0.335000   59.760034   -52.456256
 0.340000   59.488323   -55.731579
 0.345000   59.202718   -58.054733
 0.350000   58.907776   -59.466133
 0.355000   58.608057   -60.651213
 0.360000   58.301263   -62.044561
 0.365000   57.987611   -62.680446
 0.370000   57.674459   -63.067610
 0.375000   57.356935   -64.053558
 0.380000   57.033923   -65.598286
 0.385000   56.700952   -67.609125
 0.390000   56.357832   -69.261386
 0.395000   56.008338   -70.964380
 0.400000   55.648188   -73.188125
 0.405000   55.276457   -75.768852
 0.410000   54.890500   -79.800057
 0.415000   54.478457   -85.826557
 0.420000   54.032234   -93.256515
 0.425000   53.545891   -103.217462
 0.430000   53.000060   -114.961939
 0.435000   52.396272   -127.169654
 0.440000   51.728363   -140.443875
 0.445000   50.991833   -152.885515
 0.450000   50.199508   -163.010191
 0.455000   49.361731   -171.528278
 0.460000   48.484225   -177.806245
 0.465000   47.583669   -180.831002
 0.470000   46.675915   -179.830940
 0.475000   45.785360   -174.771601
 0.480000   44.928199   -167.166505
 0.485000   44.113695   -157.312809
 0.490000   43.355071   -145.942121
 0.495000   42.654273   -134.153178
 0.500000   42.013539   -122.672967
 0.505000   41.427544   -113.027150
 0.510000   40.883268   -105.594898
 0.515000   40.371595   -99.946980
 0.520000   39.883798   -95.747920
 0.525000   39.414115   -92.539350
 0.530000   38.958405   -89.917245
 0.535000   38.514943   -87.362182
 0.540000   38.084783   -84.544114
 0.545000   37.669502   -81.793001
 0.550000   37.266853   -79.348496
 0.555000   36.876017   -76.930251
 0.560000   36.497550   -74.517818
 0.565000   36.130839   -72.425443
 0.570000   35.773296   -70.609780
 0.575000   35.424741   -69.008719
 0.580000   35.083209   -67.676042
 0.585000   34.747981   -66.486420
 0.590000   34.418344   -65.378569
 0.595000   34.094195   -64.307829
 0.600000   33.775266   -63.335939
 0.605000   33.460835   -62.426840
 0.610000   33.150998   -61.508990
 0.615000   32.845746   -60.657500
 0.620000   32.544423   -59.913099
 0.625000   32.246615   -59.232348
 0.630000   31.952099   -58.680506
 0.635000   31.659809   -58.310795
 0.640000   31.368991   -57.883716
 0.645000   31.080972   -57.439454
 0.650000   30.794597   -57.141193
 0.655000   30.509560   -57.052989
 0.660000   30.224067   -57.314271
 0.665000   29.936418   -58.198090
 0.670000   29.642086   -59.860975
 0.675000   29.337808   -62.475686
 0.680000   29.017329   -65.739484
 0.685000   28.680413   -68.782631
 0.690000   28.329503   -71.606362
 0.695000   27.964349   -75.077350
 0.700000   27.578729   -74.851174
 0.705000   27.215838   -71.482064
 0.710000   26.863909   -69.009770
 0.715000   26.525740   -65.910561
 0.720000   26.204803   -62.320131
 0.725000   25.902539   -58.727365
 0.730000   25.617529   -52.621243
 0.735000   25.376326   -45.858390
 0.740000   25.158945   -41.419980
 0.745000   24.962127   -37.745832
 0.750000   24.781487   -35.068127
 0.755000   24.611445   -31.973326
 0.760000   24.461754   -32.180652
 0.765000   24.289639   -36.401237
 0.770000   24.097741   -41.225734
 0.775000   23.877381   -47.547368
 0.780000   23.622268   -54.518235
 0.785000   23.332199   -60.782573
 0.790000   23.014442   -68.736006
 0.795000   22.644839   -77.871024
 0.800000   22.235732   -85.558833
 0.805000   21.789251   -92.837061
 0.810000   21.307361   -99.344127
 0.815000   20.795809   -105.166006
 0.820000   20.255701   -109.457311
 0.825000   19.701236   -111.539409
 0.830000   19.140307   -112.243688
 0.835000   18.578799   -111.789499
 0.840000   18.022412   -110.206813
 0.845000   17.476731   -108.679297
 0.850000   16.935619   -107.215195
 0.855000   16.404579   -105.656352
 0.860000   15.879056   -105.789386
 0.865000   15.346685   -108.803837
 0.870000   14.791017   -114.983579
 0.875000   14.196850   -126.098887
 0.880000   13.530028   -143.152045
 0.885000   12.765329   -166.072435
 0.890000   11.869304   -197.380051
 0.895000   10.791529   -239.181918
 0.900000   9.477485   -289.644430
 0.905000   7.895084   -347.374411
 0.910000   6.003741   -409.779165
 0.915000   3.797293   -469.691654
 0.920000   1.306824   -525.179887
 0.925000   -1.454506   -574.812366
 0.930000   -4.441299   -612.953596
 0.935000   -7.584042   -638.553428
 0.940000   -10.826834   -656.764402
 0.945000   -14.151686   -653.139534
 0.950000   -17.358229   -627.966025
 0.955000   -20.431346   -591.826418
 0.960000   -23.276493   -535.456517
 0.965000   -25.785912   -449.279270
 0.970000   -27.769286   -297.413111
 0.975000   -28.760043   -21.984531
 0.980000   -27.989131   355.857390
 0.985000   -25.201469   756.087967
 0.990000   -20.428252   1084.631740
 0.995000   -14.355151   1218.322520
 1.000000   -8.245026   1225.727454
201 psinorm er(kV/m) der/dpsiN
 0.000000   1.033188   1208.952065
 0.005000   5.909243   741.470078
 0.010000   8.447889   450.473151
 0.015000   10.413975   359.100285
 0.020000   12.038892   306.056097
 0.025000   13.474536   272.834035
 0.030000   14.767232   247.208478
 0.035000   15.946621   226.346673
 0.040000   17.030699   209.586828
 0.045000   18.042489   196.300200
 0.050000   18.993701   183.628743
 0.055000   19.878776   171.424663
 0.060000   20.707947   161.546074
 0.065000   21.494237   155.327943
 0.070000   22.261227   147.615809
 0.075000   22.970395   138.977787
 0.080000   23.651005   135.632680
 0.085000   24.326722   127.562544
 0.090000   24.926630   122.882751
 0.095000   25.555549   119.198061
 0.100000   26.118611   113.168045
 0.105000   26.687230   110.140218
 0.110000   27.220013   104.935987
 0.115000   27.736590   102.355019
 0.120000   28.243563   98.767859
 0.125000   28.724268   95.996622
 0.130000   29.203529   93.993206
 0.135000   29.664200   90.598432
 0.140000   30.109514   89.762310
 0.145000   30.561824   85.812296
 0.150000   30.967637   85.766135
 0.155000   31.419485   81.100022
 0.160000   31.778637   80.584344
 0.165000   32.225328   77.339759
 0.170000   32.552034   73.146130
 0.175000   32.956790   75.652045
 0.180000   33.308555   68.091641
 0.185000   33.637706   69.992358
 0.190000   34.008478   62.847916
 0.195000   34.266185   60.723159
 0.200000   34.615710   62.764691
 0.205000   34.893832   55.001311
 0.210000   35.165723   58.371171
 0.215000   35.477544   50.079061
 0.220000   35.666514   47.050248
 0.225000   35.948046   52.237155
 0.230000   36.188885   43.122236
 0.235000   36.379269   43.779725
 0.240000   36.626682   42.862889
 0.245000   36.807898   37.782367
 0.250000   37.004506   42.933861
 0.255000   37.237236   37.890243
 0.260000   37.383409   35.385454
 0.265000   37.591091   42.257354
 0.270000   37.805982   34.752857
 0.275000   37.938619   34.305665
 0.280000   38.149039   40.888265
 0.285000   38.347502   33.319755
 0.290000   38.482236   32.759476
 0.295000   38.675097   36.922152
 0.300000   38.851458   29.774306
 0.305000   38.972840   27.885317
 0.310000   39.130311   28.690167
 0.315000   39.259741   19.922534
 0.320000   39.329536   16.468412
 0.325000   39.424426   16.358254
 0.330000   39.493119   7.703714
 0.335000   39.501463   3.972727
 0.340000   39.532846   4.774085
 0.345000   39.549203   -2.066918
 0.350000   39.512177   -4.448202
 0.355000   39.504721   -2.215225
 0.360000   39.490025   -7.649285
 0.365000   39.428229   -10.007484
 0.370000   39.389950   -7.928845
 0.375000   39.348940   -11.437506
 0.380000   39.275575   -14.890447
 0.385000   39.200036   -15.233180
 0.390000   39.123243   -17.381277
 0.395000   39.026223   -21.328155
 0.400000   38.909961   -23.042502
 0.405000   38.795798   -24.578907
 0.410000   38.664172   -30.134938
 0.415000   38.494449   -35.324520
 0.420000   38.310927   -39.814854
 0.425000   38.096300   -49.282414
 0.430000   37.818103   -59.183848
 0.435000   37.504462   -67.532964
 0.440000   37.142773   -78.398351
 0.445000   36.720478   -89.304752
 0.450000   36.249726   -97.296331
 0.455000   35.747515   -103.895954
 0.460000   35.210766   -110.444680
 0.465000   34.643068   -113.869162
 0.470000   34.072075   -113.282770
 0.475000   33.510240   -111.122073
 0.480000   32.960854   -106.972344
 0.485000   32.440517   -100.084076
 0.490000   31.960013   -92.359128
 0.495000   31.516925   -85.089207
 0.500000   31.109121   -77.323228
 0.505000   30.743693   -70.160793
 0.510000   30.407513   -65.812689
 0.515000   30.085566   -62.480722
 0.520000   29.782706   -59.301549
 0.525000   29.492551   -57.392618
 0.530000   29.208780   -56.476190
 0.535000   28.927789   -54.967211
 0.540000   28.659108   -52.716334
 0.545000   28.400626   -51.634580
 0.550000   28.142762   -50.430879
 0.555000   27.896317   -48.394236
 0.560000   27.658820   -46.957760
 0.565000   27.426739   -46.252559
 0.570000   27.196294   -45.106346
 0.575000   26.975676   -43.653950
 0.580000   26.759755   -43.479967
 0.585000   26.540876   -43.104239
 0.590000   26.328712   -41.968202
 0.595000   26.121194   -41.370237
 0.600000   25.915010   -41.472202
 0.605000   25.706472   -40.925378
 0.610000   25.505756   -39.837372
 0.615000   25.308098   -39.876571
 0.620000   25.106990   -39.851303
 0.625000   24.909585   -39.031591
 0.630000   24.716674   -38.533774
 0.635000   24.524248   -39.202500
 0.640000   24.324649   -39.052923
 0.645000   24.133718   -38.098481
 0.650000   23.943665   -38.369719
 0.655000   23.750021   -38.994588
 0.660000   23.553719   -39.001489
 0.665000   23.360006   -39.302090
 0.670000   23.160698   -41.509897
 0.675000   22.944907   -43.908087
 0.680000   22.721617   -45.835289
 0.685000   22.486554   -48.344184
 0.690000   22.238175   -51.577133
 0.695000   21.970783   -54.306878
 0.700000   21.695106   -53.379735
 0.705000   21.436986   -51.414924
 0.710000   21.180957   -50.228592
 0.715000   20.934700   -47.350890
 0.720000   20.707448   -44.007181
 0.725000   20.494628   -42.336229
 0.730000   20.284086   -37.851517
 0.735000   20.116113   -31.528451
 0.740000   19.968801   -28.045132
 0.745000   19.835661   -26.312312
 0.750000   19.705678   -24.112988
 0.755000   19.594532   -20.662431
 0.760000   19.499054   -21.393652
 0.765000   19.380595   -25.489093
 0.770000   19.244163   -29.004013
 0.775000   19.090555   -33.563277
 0.780000   18.908530   -39.859093
 0.785000   18.691964   -45.291790
 0.790000   18.455612   -51.260375
 0.795000   18.179360   -58.500844
 0.800000   17.870604   -65.486271
 0.805000   17.524498   -71.588907
 0.810000   17.154715   -76.403093
 0.815000   16.760467   -81.348790
 0.820000   16.341227   -85.498030
 0.825000   15.905486   -87.334967
 0.830000   15.467877   -87.652981
 0.835000   15.028956   -87.664644
 0.840000   14.591231   -86.945168
 0.845000   14.159505   -85.772192
 0.850000   13.733509   -84.452048
 0.855000   13.314984   -83.638280
 0.860000   12.897126   -84.186021
 0.865000   12.473124   -86.598141
 0.870000   12.031145   -91.588366
 0.875000   11.557240   -101.175125
 0.880000   11.019393   -115.429756
 0.885000   10.402943   -134.006171
 0.890000   9.679332   -159.647413
 0.895000   8.806469   -194.379857
 0.900000   7.735533   -235.908272
 0.905000   6.447386   -282.962081
 0.910000   4.905912   -334.236020
 0.915000   3.105026   -383.514521
 0.920000   1.070767   -429.026577
 0.925000   -1.185240   -469.966596
 0.930000   -3.628899   -503.085892
 0.935000   -6.216099   -527.835920
 0.940000   -8.907258   -544.591531
 0.945000   -11.662014   -541.506686
 0.950000   -14.322325   -541.848617
 0.955000   -17.080500   -535.293614
 0.960000   -19.675261   -476.726190
 0.965000   -21.847762   -389.987834
 0.970000   -23.575139   -282.595114
 0.975000   -24.673713   -58.397707
 0.980000   -24.159116   289.204174
 0.985000   -21.781672   647.491526
 0.990000   -17.684201   936.185166
 0.995000   -12.419820   1054.727613
 1.000000   -7.136925   1058.430337
201 psinorm ommvb() dommvb/dpsiN
 0.000000   11.453587   20098.713689
 0.005000   93.067765   12546.957558
 0.010000   136.923162   8544.684407
 0.015000   178.514609   7894.040086
 0.020000   215.863563   6968.010750
 0.025000   248.194717   6243.341058
 0.030000   278.296974   5790.980837
 0.035000   306.104525   5074.371096
 0.040000   329.040685   4352.962253
 0.045000   349.634147   3910.537486
 0.050000   368.146060   3246.140355
 0.055000   382.095551   3027.236858
 0.060000   398.418428   2912.431786
 0.065000   411.219869   2501.236262
 0.070000   423.430791   2325.489274
 0.075000   434.474762   2072.879675
 0.080000   444.159588   1778.525184
 0.085000   452.260013   1509.291244
 0.090000   459.252500   1274.633582
 0.095000   465.006349   1062.986813
 0.100000   469.882368   929.091720
 0.105000   474.297266   801.011989
 0.110000   477.892488   582.623610
 0.115000   480.123503   343.200866
 0.120000   481.324497   166.335909
 0.125000   481.786862   15.666155
 0.130000   481.481158   -138.949427
 0.135000   480.397367   -300.259861
 0.140000   478.478560   -464.529724
 0.145000   475.752070   -564.223503
 0.150000   472.836325   -637.006299
 0.155000   469.382007   -737.483340
 0.160000   465.461491   -823.695142
 0.165000   461.145056   -906.284801
 0.170000   456.398643   -982.861722
 0.175000   451.316439   -1049.839742
 0.180000   445.900246   -1109.167929
 0.185000   440.224759   -1154.847611
 0.190000   434.351770   -1190.612605
 0.195000   428.318633   -1222.816690
 0.200000   422.123603   -1312.902210
 0.205000   415.189611   -1481.234031
 0.210000   407.311263   -1431.690566
 0.215000   400.872705   -1286.494145
 0.220000   394.446321   -1285.994446
 0.225000   388.012761   -1286.117636
 0.230000   381.585145   -1274.906714
 0.235000   375.263694   -1390.969222
 0.240000   367.675453   -1475.896998
 0.245000   360.504724   -1299.548852
 0.250000   354.679964   -1147.182733
 0.255000   349.032897   -1115.549474
 0.260000   343.524469   -1086.695784
 0.265000   338.165939   -1277.117934
 0.270000   330.753290   -1220.880675
 0.275000   325.957132   -925.229586
 0.280000   321.500994   -882.071296
 0.285000   317.136419   -862.159494
 0.290000   312.879399   -1020.263421
 0.295000   306.933785   -994.881516
 0.300000   302.930584   -748.590417
 0.305000   299.447881   -683.061000
 0.310000   296.099974   -673.888617
 0.315000   292.708994   -798.219214
 0.320000   288.117782   -719.676032
 0.325000   285.512234   -517.404125
 0.330000   282.943741   -505.452708
 0.335000   280.457707   -555.256241
 0.340000   277.391178   -555.239123
 0.345000   274.905316   -415.146969
 0.350000   273.239708   -321.738518
 0.355000   271.687931   -319.644946
 0.360000   270.043259   -382.210545
 0.365000   267.865825   -317.941607
 0.370000   266.863843   -190.788043
 0.375000   265.957945   -171.506171
 0.380000   265.148781   -233.631242
 0.385000   263.621632   -216.118693
 0.390000   262.987594   -107.288465
 0.395000   262.548748   -81.122943
 0.400000   262.176365   -117.184791
 0.405000   261.376900   -123.413192
 0.410000   260.942233   -58.452756
 0.415000   260.792372   -31.509539
 0.420000   260.627138   -69.231279
 0.425000   260.100059   -114.511061
 0.430000   259.482027   -90.469080
 0.435000   259.195369   -63.722268
 0.440000   258.844804   -96.745161
 0.445000   258.227917   -157.744479
 0.450000   257.267359   -128.847324
 0.455000   256.939444   -69.221163
 0.460000   256.575148   -85.364761
 0.465000   256.085796   -150.329543
 0.470000   255.071852   -134.193136
 0.475000   254.743865   -57.158250
 0.480000   254.500270   -39.066792
 0.485000   254.353197   -66.008024
 0.490000   253.840190   -36.831131
 0.495000   253.984886   44.712077
 0.500000   254.287310   71.039979
 0.505000   254.695285   64.673451
 0.510000   254.934045   80.392912
 0.515000   255.499214   130.421144
 0.520000   256.238256   148.672974
 0.525000   256.985944   130.373609
 0.530000   257.541992   126.729668
 0.535000   258.253241   168.860342
 0.540000   259.230596   199.223075
 0.545000   260.245472   206.147780
 0.550000   261.292074   198.698612
 0.555000   262.232458   217.353970
 0.560000   263.465613   250.104565
 0.565000   264.733503   258.379870
 0.570000   266.049412   261.217300
 0.575000   267.345676   275.513727
 0.580000   268.804549   304.512681
 0.585000   270.390803   321.787065
 0.590000   272.022420   332.314486
 0.595000   273.713948   335.814255
 0.600000   275.380563   358.485744
 0.605000   277.298805   396.223085
 0.610000   279.342793   420.001201
 0.615000   281.498818   441.287849
 0.620000   283.755672   461.582016
 0.625000   286.114638   491.014572
 0.630000   288.665818   522.020950
 0.635000   291.334847   546.415634
 0.640000   294.129974   573.999794
 0.645000   297.074845   605.524000
 0.650000   300.185214   635.947014
 0.655000   303.434315   664.087310
 0.660000   306.826087   693.089943
 0.665000   310.365215   722.802594
 0.670000   314.054113   761.048321
 0.675000   317.975698   794.245669
 0.680000   321.996570   822.982777
 0.685000   326.205526   859.889092
 0.690000   330.595461   896.167604
 0.695000   335.167202   940.771869
 0.700000   340.003179   991.330417
 0.705000   345.080506   1031.068200
 0.710000   350.313861   1069.590815
 0.715000   355.776414   1115.701216
 0.720000   361.470873   1161.973665
 0.725000   367.396151   1212.582595
 0.730000   373.596699   1263.059518
 0.735000   380.026746   1306.295530
 0.740000   386.659655   1353.034106
 0.745000   393.557087   1403.857361
 0.750000   400.698228   1451.396417
 0.755000   408.071051   1500.974576
 0.760000   415.707974   1539.931107
 0.765000   423.470362   1576.088578
 0.770000   431.468860   1637.661178
 0.775000   439.846974   1712.481279
 0.780000   448.593673   1789.834046
 0.785000   457.745314   1874.581365
 0.790000   467.339486   1964.384584
 0.795000   477.389160   2062.668435
 0.800000   487.966171   2140.125933
 0.805000   498.790420   2232.144548
 0.810000   510.287616   2351.859279
 0.815000   522.309012   2456.728758
 0.820000   534.854904   2563.883120
 0.825000   547.947844   2672.312465
 0.830000   561.578028   2779.439892
 0.835000   575.742242   2885.914449
 0.840000   590.437173   2989.692194
 0.845000   605.639164   3092.986753
 0.850000   621.367040   3170.234053
 0.855000   637.341505   3196.798092
 0.860000   653.335021   3300.319873
 0.865000   670.344704   3466.612771
 0.870000   688.001149   3679.961611
 0.875000   707.144320   4035.088109
 0.880000   728.352030   4502.741769
 0.885000   752.171737   5100.717467
 0.890000   779.359205   5879.563985
 0.895000   810.967377   6927.348526
 0.900000   848.632690   8373.522395
 0.905000   894.702601   10370.965995
 0.910000   952.342350   13099.969198
 0.915000   1025.702293   16680.319414
 0.920000   1119.145544   21027.295668
 0.925000   1235.975250   25827.101371
 0.930000   1377.416558   30323.005113
 0.935000   1539.205301   33097.602178
 0.940000   1708.392580   32642.558458
 0.945000   1865.630886   29757.714996
 0.950000   2005.969730   30038.575752
 0.955000   2166.016643   40871.269137
 0.960000   2414.682421   63910.449997
 0.965000   2805.121143   83703.021101
 0.970000   3251.712632   83119.457302
 0.975000   3636.315716   59683.582759
 0.980000   3848.548460   29947.474622
 0.985000   3935.790462   25737.467301
 0.990000   4105.923133   59812.391804
 0.995000   4533.914380   324632.279771
 1.000000   7352.245930   802700.340170
201 psinorm ommpp() dommpp/dpsiN
 0.000000   57.699981   -19985.335419
 0.005000   -23.538620   -12510.105063
 0.010000   -67.401069   -8550.384012
 0.015000   -109.042460   -7906.142115
 0.020000   -146.462491   -6983.985890
 0.025000   -178.882319   -6262.852504
 0.030000   -209.091016   -5814.226042
 0.035000   -237.024579   -5101.122197
 0.040000   -260.102238   -4382.785510
 0.045000   -280.852434   -3943.118101
 0.050000   -299.533419   -3280.828624
 0.055000   -313.660721   -3063.198039
 0.060000   -330.165399   -2949.110617
 0.065000   -343.151827   -2538.266824
 0.070000   -355.548067   -2362.382985
 0.075000   -366.775657   -2109.468270
 0.080000   -376.642750   -1814.824858
 0.085000   -384.923905   -1545.371578
 0.090000   -392.096466   -1310.765875
 0.095000   -398.031564   -1099.162476
 0.100000   -403.088090   -965.090607
 0.105000   -407.682470   -836.549905
 0.110000   -411.453589   -617.449126
 0.115000   -413.856961   -377.172984
 0.120000   -415.225319   -199.045506
 0.125000   -415.847416   -46.734177
 0.130000   -415.692661   109.490577
 0.135000   -414.752511   272.437610
 0.140000   -412.968285   438.265313
 0.145000   -410.369858   539.398489
 0.150000   -407.574300   613.329849
 0.155000   -404.236559   714.418742
 0.160000   -400.430113   800.927257
 0.165000   -396.227287   883.439181
 0.170000   -391.595721   959.686878
 0.175000   -386.630418   1026.307048
 0.180000   -381.332650   1084.917114
 0.185000   -375.781247   1129.470108
 0.190000   -370.037949   1164.222258
 0.195000   -364.139024   1195.503929
 0.200000   -358.082910   1284.593816
 0.205000   -351.293086   1452.208481
 0.210000   -343.560825   1401.509668
 0.215000   -337.277989   1254.784293
 0.220000   -331.012982   1253.302165
 0.225000   -324.744968   1252.637472
 0.230000   -318.486608   1240.907321
 0.235000   -312.335894   1355.956779
 0.240000   -304.927040   1440.450311
 0.245000   -297.931391   1265.341616
 0.250000   -292.273624   1114.302270
 0.255000   -286.788368   1083.886058
 0.260000   -281.434763   1056.390458
 0.265000   -276.224464   1247.811445
 0.270000   -268.956649   1193.011008
 0.275000   -264.294354   899.308880
 0.280000   -259.963560   857.393225
 0.285000   -255.720422   838.150390
 0.290000   -251.582056   996.482763
 0.295000   -245.755594   971.118944
 0.300000   -241.870866   724.380667
 0.305000   -238.511787   656.504641
 0.310000   -235.305820   643.518785
 0.315000   -232.076599   763.712580
 0.320000   -227.668694   680.679617
 0.325000   -225.269803   473.783914
 0.330000   -222.930855   457.213022
 0.335000   -220.697673   502.799985
 0.340000   -217.902855   499.507543
 0.345000   -215.702598   357.092236
 0.350000   -214.331933   262.272386
 0.355000   -213.079874   258.993734
 0.360000   -211.741996   320.165985
 0.365000   -209.878214   255.261161
 0.370000   -209.189384   127.720434
 0.375000   -208.601010   107.452613
 0.380000   -208.114858   168.032956
 0.385000   -206.920680   148.509568
 0.390000   -206.629762   38.027079
 0.395000   -206.540409   10.158563
 0.400000   -206.528176   43.996667
 0.405000   -206.100443   47.644341
 0.410000   -206.051733   -21.347301
 0.415000   -206.313916   -54.317019
 0.420000   -206.594903   -24.025236
 0.425000   -206.554168   11.293599
 0.430000   -206.481967   -24.492858
 0.435000   -206.799097   -63.447386
 0.440000   -207.116441   -43.698714
 0.445000   -207.236084   4.858965
 0.450000   -207.067851   -34.162867
 0.455000   -207.577712   -102.307115
 0.460000   -208.090923   -92.441484
 0.465000   -208.502127   -30.501458
 0.470000   -208.395937   -45.637804
 0.475000   -208.958505   -117.613350
 0.480000   -209.572071   -128.099713
 0.485000   -210.239502   -91.304785
 0.490000   -210.485119   -109.110990
 0.495000   -211.330612   -178.865255
 0.500000   -212.273771   -193.712946
 0.505000   -213.267742   -177.700601
 0.510000   -214.050777   -185.987810
 0.515000   -215.127620   -230.368124
 0.520000   -216.354458   -244.420894
 0.525000   -217.571829   -222.912960
 0.530000   -218.583588   -216.646912
 0.535000   -219.738298   -256.222524
 0.540000   -221.145813   -283.767189
 0.545000   -222.575970   -287.940781
 0.550000   -224.025221   -278.047108
 0.555000   -225.356441   -294.284221
 0.560000   -226.968063   -324.622383
 0.565000   -228.602665   -330.805313
 0.570000   -230.276116   -331.827081
 0.575000   -231.920935   -344.522445
 0.580000   -233.721341   -372.188724
 0.585000   -235.642823   -388.273484
 0.590000   -237.604076   -397.693055
 0.595000   -239.619753   -400.122084
 0.600000   -241.605297   -421.821683
 0.605000   -243.837970   -458.649925
 0.610000   -246.191796   -481.510190
 0.615000   -248.653072   -501.945350
 0.620000   -251.211249   -521.495115
 0.625000   -253.868023   -550.246921
 0.630000   -256.713718   -580.701456
 0.635000   -259.675038   -604.726430
 0.640000   -262.760983   -631.883510
 0.645000   -265.993873   -662.963453
 0.650000   -269.390617   -693.088207
 0.655000   -272.924755   -721.140299
 0.660000   -276.602020   -750.404214
 0.665000   -280.428797   -781.000684
 0.670000   -284.412027   -820.909296
 0.675000   -288.637890   -856.721355
 0.680000   -292.979241   -888.722261
 0.685000   -297.525113   -928.671723
 0.690000   -302.265958   -967.773966
 0.695000   -307.202852   -1015.849219
 0.700000   -312.424450   -1066.181591
 0.705000   -317.864668   -1102.550264
 0.710000   -323.449953   -1138.600586
 0.715000   -329.250674   -1181.611777
 0.720000   -335.266071   -1224.293795
 0.725000   -341.493612   -1271.309961
 0.730000   -347.979170   -1315.680761
 0.735000   -354.650420   -1352.153919
 0.740000   -361.500709   -1394.454085
 0.745000   -368.594960   -1441.603192
 0.750000   -375.916741   -1486.464544
 0.755000   -383.459606   -1532.947902
 0.760000   -391.246220   -1572.111759
 0.765000   -399.180723   -1612.489814
 0.770000   -407.371118   -1678.886912
 0.775000   -415.969593   -1760.028647
 0.780000   -424.971405   -1844.352282
 0.785000   -434.413115   -1935.363938
 0.790000   -444.325044   -2033.120590
 0.795000   -454.744321   -2140.539459
 0.800000   -465.730439   -2225.684766
 0.805000   -477.001169   -2324.981609
 0.810000   -488.980255   -2451.203406
 0.815000   -501.513203   -2561.894763
 0.820000   -514.599203   -2673.340430
 0.825000   -528.246607   -2783.851874
 0.830000   -542.437721   -2891.683580
 0.835000   -557.163443   -2997.703948
 0.840000   -572.414761   -3099.899006
 0.845000   -588.162433   -3201.666050
 0.850000   -604.431421   -3277.449248
 0.855000   -620.936926   -3302.454444
 0.860000   -637.455966   -3406.109259
 0.865000   -654.998018   -3575.416607
 0.870000   -673.210132   -3794.945190
 0.875000   -692.947470   -4161.186996
 0.880000   -714.822002   -4645.893814
 0.885000   -739.406408   -5266.789902
 0.890000   -767.489901   -6076.944036
 0.895000   -800.175849   -7166.530444
 0.900000   -839.155205   -8663.166825
 0.905000   -886.807517   -10718.340406
 0.910000   -946.338609   -13509.748363
 0.915000   -1021.905001   -17150.011067
 0.920000   -1117.838720   -21552.475556
 0.925000   -1237.429756   -26401.913737
 0.930000   -1381.857857   -30935.958710
 0.935000   -1546.789343   -33736.155607
 0.940000   -1719.219413   -33299.322860
 0.945000   -1879.782572   -30410.854530
 0.950000   -2023.327959   -30666.541777
 0.955000   -2186.447990   -41463.095555
 0.960000   -2437.958914   -64445.906514
 0.965000   -2830.907055   -84152.300372
 0.970000   -3279.481918   -83416.870414
 0.975000   -3665.075759   -59705.567291
 0.980000   -3876.537591   -29591.617231
 0.985000   -3960.991931   -24981.379334
 0.990000   -4126.351384   -58727.760064
 0.995000   -4548.269532   -323413.957251
 1.000000   -7360.490957   -801474.612716
201 psinorm omevb() domevb/dpsiN
 0.000000   38.937193   134.438612
 0.005000   39.437482   65.676948
 0.010000   39.593962   26.977116
 0.015000   39.707253   20.514629
 0.020000   39.799109   16.580492
 0.025000   39.873058   12.982208
 0.030000   39.928931   9.185524
 0.035000   39.964913   5.615767
 0.040000   39.985088   2.478823
 0.045000   39.989701   -0.344242
 0.050000   39.981646   -2.518513
 0.055000   39.964516   -3.858941
 0.060000   39.943056   -4.644998
 0.065000   39.918066   -5.066019
 0.070000   39.892396   -4.999330
 0.075000   39.868073   -4.765241
 0.080000   39.844744   -4.548202
 0.085000   39.822591   -4.401589
 0.090000   39.800728   -4.527112
 0.095000   39.777320   -4.644873
 0.100000   39.754279   -4.543307
 0.105000   39.731887   -4.158354
 0.110000   39.712696   -3.522771
 0.115000   39.696659   -2.746982
 0.120000   39.685226   -1.562850
 0.125000   39.681030   -0.000437
 0.130000   39.685222   1.528811
 0.135000   39.696319   3.084732
 0.140000   39.716069   4.561149
 0.145000   39.741930   5.918389
 0.150000   39.775253   6.984070
 0.155000   39.811771   7.512322
 0.160000   39.850376   7.724728
 0.165000   39.889018   7.561989
 0.170000   39.925996   7.147072
 0.175000   39.960489   6.702849
 0.180000   39.993024   5.897685
 0.185000   40.019466   4.683294
 0.190000   40.039857   3.582095
 0.195000   40.055287   2.570682
 0.200000   40.065564   1.485419
 0.205000   40.070141   0.678008
 0.210000   40.072344   -0.568210
 0.215000   40.064459   -2.188639
 0.220000   40.050458   -3.263140
 0.225000   40.031827   -4.143681
 0.230000   40.009021   -4.756145
 0.235000   39.984266   -5.863000
 0.240000   39.950391   -6.391609
 0.245000   39.920350   -5.247073
 0.250000   39.897920   -4.015756
 0.255000   39.880192   -2.894697
 0.260000   39.868973   -1.633119
 0.265000   39.863861   -0.731307
 0.270000   39.861660   0.607985
 0.275000   39.869941   2.458921
 0.280000   39.886249   3.603044
 0.285000   39.905971   4.173020
 0.290000   39.927980   4.302007
 0.295000   39.948991   4.220175
 0.300000   39.970181   3.672627
 0.305000   39.985718   1.225206
 0.310000   39.982433   -2.689511
 0.315000   39.958822   -6.927983
 0.320000   39.913154   -11.519847
 0.325000   39.843624   -16.246135
 0.330000   39.750692   -20.968498
 0.335000   39.633939   -25.288345
 0.340000   39.497809   -28.667326
 0.345000   39.347266   -31.094509
 0.350000   39.186864   -32.610300
 0.355000   39.021163   -33.900125
 0.360000   38.847862   -35.398565
 0.365000   38.667177   -36.139878
 0.370000   38.486464   -36.632799
 0.375000   38.300849   -37.724823
 0.380000   38.109215   -39.375939
 0.385000   37.907090   -41.493469
 0.390000   37.694281   -43.252715
 0.395000   37.474563   -45.062980
 0.400000   37.243651   -47.394274
 0.405000   37.000620   -50.082819
 0.410000   36.742823   -54.222104
 0.415000   36.458399   -60.356936
 0.420000   36.139253   -67.895470
 0.425000   35.779444   -77.965231
 0.430000   35.359601   -89.818750
 0.435000   34.881257   -102.135727
 0.440000   34.338244   -115.519422
 0.445000   33.726062   -128.070740
 0.450000   33.057536   -138.305291
 0.455000   32.343009   -146.933441
 0.460000   31.588202   -153.321651
 0.465000   30.809793   -156.456824
 0.470000   30.023634   -155.567343
 0.475000   29.254119   -150.618741
 0.480000   28.517446   -143.124533
 0.485000   27.822874   -133.381865
 0.490000   27.183628   -122.122340
 0.495000   26.601651   -110.444686
 0.500000   26.079181   -99.075883
 0.505000   25.610892   -89.541585
 0.510000   25.183765   -82.220956
 0.515000   24.788682   -76.684757
 0.520000   24.416917   -72.597506
 0.525000   24.062707   -69.500826
 0.530000   23.721909   -66.990685
 0.535000   23.392800   -64.547655
 0.540000   23.076433   -61.841678
 0.545000   22.774384   -59.202708
 0.550000   22.484406   -56.870393
 0.555000   22.205680   -54.564374
 0.560000   21.938762   -52.264200
 0.565000   21.683038   -50.284106
 0.570000   21.435921   -48.580741
 0.575000   21.197230   -47.091985
 0.580000   20.965001   -45.871616
 0.585000   20.738514   -44.794294
 0.590000   20.517058   -43.798731
 0.595000   20.300527   -42.840254
 0.600000   20.088655   -41.980598
 0.605000   19.880721   -41.183692
 0.610000   19.676818   -40.377986
 0.615000   19.476941   -39.638581
 0.620000   19.280433   -39.006193
 0.625000   19.086879   -38.437373
 0.630000   18.896059   -37.997364
 0.635000   18.706905   -37.739374
 0.640000   18.518665   -37.423883
 0.645000   18.332667   -37.091058
 0.650000   18.147755   -36.904056
 0.655000   17.963626   -36.926903
 0.660000   17.778486   -37.298993
 0.665000   17.590636   -38.293332
 0.670000   17.395552   -40.066397
 0.675000   17.189972   -42.790880
 0.680000   16.967643   -46.163965
 0.685000   16.728333   -49.315813
 0.690000   16.474485   -52.247537
 0.695000   16.205857   -55.825659
 0.700000   15.916229   -55.705568
 0.705000   15.648802   -52.441263
 0.710000   15.391816   -50.072204
 0.715000   15.148079   -47.074300
 0.720000   14.921073   -43.582800
 0.725000   14.712251   -40.086038
 0.730000   14.520213   -34.072312
 0.735000   14.371528   -27.397402
 0.740000   14.246239   -23.041444
 0.745000   14.141114   -19.442974
 0.750000   14.051809   -16.832601
 0.755000   13.972788   -13.794857
 0.760000   13.913860   -14.046614
 0.765000   13.832322   -18.296143
 0.770000   13.730899   -23.130632
 0.775000   13.601015   -29.439132
 0.780000   13.436508   -36.368742
 0.785000   13.237328   -42.557756
 0.790000   13.010930   -50.394796
 0.795000   12.733380   -59.364188
 0.800000   12.417288   -66.827736
 0.805000   12.065103   -73.812435
 0.810000   11.679164   -79.944930
 0.815000   11.265653   -85.298558
 0.820000   10.826178   -89.014958
 0.825000   10.375504   -90.403106
 0.830000   9.922147   -90.284073
 0.835000   9.472663   -88.871278
 0.840000   9.033434   -86.196646
 0.845000   8.610697   -83.458888
 0.850000   8.198846   -80.702009
 0.855000   7.803677   -77.835504
 0.860000   7.420491   -76.761844
 0.865000   7.036058   -78.858674
 0.870000   6.631904   -84.706113
 0.875000   6.188997   -96.533412
 0.880000   5.666570   -116.049593
 0.885000   5.028501   -144.274572
 0.890000   4.223824   -185.426196
 0.895000   3.174239   -244.292894
 0.900000   1.780895   -323.351069
 0.905000   -0.059272   -428.262190
 0.910000   -2.501727   -568.152997
 0.915000   -5.740802   -755.442627
 0.920000   -10.056153   -1020.560051
 0.925000   -15.946402   -1413.186313
 0.930000   -24.188016   -1999.554538
 0.935000   -35.941947   -2852.038607
 0.940000   -52.708402   -3973.152279
 0.945000   -75.673470   -5104.447872
 0.950000   -103.752881   -5617.485724
 0.955000   -131.848328   -4746.263553
 0.960000   -151.215517   -2323.422841
 0.965000   -155.082556   728.977826
 0.970000   -143.925738   3138.128313
 0.975000   -123.701273   4356.336239
 0.980000   -100.362376   4595.924095
 0.985000   -77.742032   4295.709339
 0.990000   -57.405283   3774.984314
 0.995000   -39.992189   3140.120980
 1.000000   -26.004073   2455.125396
201 psinorm omepp() domepp/dpsiN
 0.000000   30.216375   -21.060342
 0.005000   30.091663   -28.824453
 0.010000   29.928131   -32.676720
 0.015000   29.764896   -32.616658
 0.020000   29.601964   -32.555633
 0.025000   29.439340   -32.493654
 0.030000   29.277028   -32.430729
 0.035000   29.115033   -32.366868
 0.040000   28.953359   -32.302080
 0.045000   28.792012   -32.236373
 0.050000   28.630995   -32.169757
 0.055000   28.470314   -32.102241
 0.060000   28.309973   -32.033833
 0.065000   28.149976   -31.964543
 0.070000   27.990327   -31.894380
 0.075000   27.831032   -31.823354
 0.080000   27.672094   -31.751472
 0.085000   27.513517   -31.678745
 0.090000   27.355306   -31.605181
 0.095000   27.197465   -31.530790
 0.100000   27.039999   -31.455581
 0.105000   26.882910   -31.379562
 0.110000   26.726203   -31.302745
 0.115000   26.569882   -31.225136
 0.120000   26.413952   -31.146747
 0.125000   26.258415   -31.067585
 0.130000   26.103276   -30.987660
 0.135000   25.948538   -30.906982
 0.140000   25.794206   -30.825560
 0.145000   25.640283   -30.743403
 0.150000   25.486772   -30.660520
 0.155000   25.333677   -30.576920
 0.160000   25.181003   -30.492614
 0.165000   25.028751   -30.407609
 0.170000   24.876927   -30.321916
 0.175000   24.725532   -30.235543
 0.180000   24.574571   -30.148500
 0.185000   24.424047   -30.060796
 0.190000   24.273963   -29.972441
 0.195000   24.124323   -29.883443
 0.200000   23.975129   -29.793812
 0.205000   23.826385   -29.703557
 0.210000   23.678093   -29.612688
 0.215000   23.530258   -29.521213
 0.220000   23.382881   -29.429141
 0.225000   23.235966   -29.336483
 0.230000   23.089516   -29.243247
 0.235000   22.943534   -29.149442
 0.240000   22.798022   -29.055078
 0.245000   22.652983   -28.960163
 0.250000   22.508420   -28.864707
 0.255000   22.364336   -28.768719
 0.260000   22.220733   -28.672208
 0.265000   22.077614   -28.575183
 0.270000   21.934981   -28.477653
 0.275000   21.792837   -28.379627
 0.280000   21.651185   -28.281114
 0.285000   21.510026   -28.182124
 0.290000   21.369364   -28.082665
 0.295000   21.229200   -27.982746
 0.300000   21.089536   -27.882377
 0.305000   20.950376   -27.781565
 0.310000   20.811721   -27.680320
 0.315000   20.673573   -27.578651
 0.320000   20.535934   -27.476567
 0.325000   20.398807   -27.374077
 0.330000   20.262193   -27.271188
 0.335000   20.126095   -27.167911
 0.340000   19.990514   -27.064254
 0.345000   19.855452   -26.960225
 0.350000   19.720912   -26.855833
 0.355000   19.586894   -26.751087
 0.360000   19.453401   -26.645996
 0.365000   19.320434   -26.540568
 0.370000   19.187995   -26.434811
 0.375000   19.056086   -26.328735
 0.380000   18.924708   -26.222347
 0.385000   18.793863   -26.115656
 0.390000   18.663551   -26.008671
 0.395000   18.533776   -25.901400
 0.400000   18.404537   -25.793851
 0.405000   18.275837   -25.686033
 0.410000   18.147677   -25.577953
 0.415000   18.020058   -25.469621
 0.420000   17.892981   -25.361044
 0.425000   17.766447   -25.252231
 0.430000   17.640459   -25.143189
 0.435000   17.515016   -25.033927
 0.440000   17.390119   -24.924453
 0.445000   17.265771   -24.814775
 0.450000   17.141972   -24.704900
 0.455000   17.018722   -24.594837
 0.460000   16.896023   -24.484594
 0.465000   16.773876   -24.374178
 0.470000   16.652281   -24.263597
 0.475000   16.531240   -24.152859
 0.480000   16.410753   -24.041972
 0.485000   16.290820   -23.930944
 0.490000   16.171443   -23.819781
 0.495000   16.052623   -23.708492
 0.500000   15.934358   -23.597084
 0.505000   15.816652   -23.485565
 0.510000   15.699503   -23.373942
 0.515000   15.582912   -23.262223
 0.520000   15.466881   -23.150414
 0.525000   15.351408   -23.038524
 0.530000   15.236495   -22.926559
 0.535000   15.122143   -22.814528
 0.540000   15.008350   -22.702437
 0.545000   14.895118   -22.590293
 0.550000   14.782447   -22.478104
 0.555000   14.670337   -22.365877
 0.560000   14.558788   -22.253619
 0.565000   14.447801   -22.141337
 0.570000   14.337375   -22.029040
 0.575000   14.227511   -21.916734
 0.580000   14.118208   -21.804426
 0.585000   14.009466   -21.692125
 0.590000   13.901286   -21.579838
 0.595000   13.793668   -21.467574
 0.600000   13.686611   -21.355341
 0.605000   13.580115   -21.243148
 0.610000   13.474179   -21.131004
 0.615000   13.368804   -21.018919
 0.620000   13.263990   -20.906906
 0.625000   13.159735   -20.794975
 0.630000   13.056040   -20.683142
 0.635000   12.952904   -20.571422
 0.640000   12.850326   -20.459833
 0.645000   12.748306   -20.348396
 0.650000   12.646842   -20.237137
 0.655000   12.545934   -20.126086
 0.660000   12.445581   -20.015278
 0.665000   12.345782   -19.904758
 0.670000   12.246534   -19.794579
 0.675000   12.147836   -19.684806
 0.680000   12.049686   -19.575519
 0.685000   11.952081   -19.466818
 0.690000   11.855017   -19.358825
 0.695000   11.758492   -19.251691
 0.700000   11.662500   -19.145606
 0.705000   11.567036   -19.040801
 0.710000   11.472092   -18.937567
 0.715000   11.377661   -18.836262
 0.720000   11.283730   -18.737331
 0.725000   11.190287   -18.641327
 0.730000   11.097317   -18.548931
 0.735000   11.004798   -18.460987
 0.740000   10.912707   -18.378536
 0.745000   10.821013   -18.302858
 0.750000   10.729678   -18.235527
 0.755000   10.638657   -18.178469
 0.760000   10.547893   -18.134038
 0.765000   10.457317   -18.105094
 0.770000   10.366843   -18.095102
 0.775000   10.276366   -18.108236
 0.780000   10.185760   -18.149494
 0.785000   10.094871   -18.224817
 0.790000   10.003512   -18.341209
 0.795000   9.911459   -18.506836
 0.800000   9.818444   -18.731096
 0.805000   9.724148   -19.024626
 0.810000   9.628197   -19.399197
 0.815000   9.530156   -19.867448
 0.820000   9.429523   -20.442353
 0.825000   9.325732   -21.136303
 0.830000   9.218160   -21.959615
 0.835000   9.106136   -22.918221
 0.840000   8.988978   -24.010167
 0.845000   8.866035   -25.220410
 0.850000   8.736774   -26.513186
 0.855000   8.600903   -27.820848
 0.860000   8.458565   -29.027542
 0.865000   8.310627   -29.945163
 0.870000   8.159113   -30.277465
 0.875000   8.007853   -29.565475
 0.880000   7.863459   -27.102452
 0.885000   7.736828   -21.797862
 0.890000   7.645480   -11.953855
 0.895000   7.617290   5.110976
 0.900000   7.696590   33.706639
 0.905000   7.954356   80.887780
 0.910000   8.505468   158.373832
 0.915000   9.538094   285.750973
 0.920000   11.362977   495.380164
 0.925000   14.491896   838.373947
 0.930000   19.746717   1386.600942
 0.935000   28.357905   2213.485179
 0.940000   41.881569   3316.387877
 0.945000   61.521784   4451.308339
 0.950000   86.394652   4989.519699
 0.955000   111.416981   4154.437135
 0.960000   127.939023   1787.966324
 0.965000   129.296644   -1178.257096
 0.970000   116.156452   -3435.541424
 0.975000   94.941230   -4378.320771
 0.980000   72.373245   -4240.066705
 0.985000   52.540563   -3539.621372
 0.990000   36.977031   -2690.352574
 0.995000   25.637037   -1921.798460
 1.000000   17.759046   -1229.397942
201 psinorm kpol(km/s/T) dkpol/dpsiN
 0.000000   -0.022868   147.625380
 0.005000   0.564800   87.441851
 0.010000   0.851551   54.080971
 0.015000   1.105610   49.608336
 0.020000   1.347634   47.430885
 0.025000   1.579919   45.325917
 0.030000   1.800893   42.752634
 0.035000   2.007445   40.148679
 0.040000   2.202380   37.723862
 0.045000   2.384684   35.383512
 0.050000   2.556215   33.435296
 0.055000   2.719037   32.067270
 0.060000   2.876888   31.275570
 0.065000   3.031792   30.840708
 0.070000   3.185295   30.701379
 0.075000   3.338806   30.643774
 0.080000   3.491733   30.496913
 0.085000   3.643775   30.315233
 0.090000   3.794885   30.123635
 0.095000   3.945012   30.015450
 0.100000   4.095040   29.991032
 0.105000   4.244922   30.211864
 0.110000   4.397158   30.649416
 0.115000   4.551416   31.352374
 0.120000   4.710682   32.297857
 0.125000   4.874395   33.297772
 0.130000   5.043660   34.147243
 0.135000   5.215867   34.847385
 0.140000   5.392133   35.293939
 0.145000   5.568807   35.351112
 0.150000   5.745645   34.863818
 0.155000   5.917445   33.745596
 0.160000   6.083101   32.248316
 0.165000   6.239928   30.256132
 0.170000   6.385662   27.915796
 0.175000   6.519086   24.946200
 0.180000   6.635124   21.816246
 0.185000   6.737248   18.855140
 0.190000   6.823675   15.965990
 0.195000   6.896908   13.444673
 0.200000   6.958122   11.142548
 0.205000   7.008334   9.392738
 0.210000   7.052049   8.223356
 0.215000   7.090567   7.412298
 0.220000   7.126172   6.860224
 0.225000   7.159170   6.206011
 0.230000   7.188232   5.580614
 0.235000   7.214976   4.910390
 0.240000   7.237336   3.883318
 0.245000   7.253809   2.778900
 0.250000   7.265125   1.455801
 0.255000   7.268367   -0.159415
 0.260000   7.263531   -1.786378
 0.265000   7.250503   -3.584102
 0.270000   7.227690   -5.485671
 0.275000   7.195646   -7.414953
 0.280000   7.153541   -9.636561
 0.285000   7.099281   -12.058632
 0.290000   7.032954   -14.703356
 0.295000   6.952247   -17.843948
 0.300000   6.854515   -21.239736
 0.305000   6.739850   -24.864391
 0.310000   6.605871   -28.900969
 0.315000   6.450840   -33.063653
 0.320000   6.275234   -37.258518
 0.325000   6.078255   -41.371784
 0.330000   5.861517   -44.919864
 0.335000   5.629056   -47.750622
 0.340000   5.384010   -49.920831
 0.345000   5.129848   -51.319612
 0.350000   4.870814   -51.887536
 0.355000   4.610973   -52.301206
 0.360000   4.347802   -53.128752
 0.365000   4.079685   -54.330718
 0.370000   3.804495   -56.153415
 0.375000   3.518151   -58.774862
 0.380000   3.216746   -62.492838
 0.385000   2.893223   -67.014166
 0.390000   2.546605   -71.484438
 0.395000   2.178378   -75.584698
 0.400000   1.790758   -79.445388
 0.405000   1.383924   -83.456471
 0.410000   0.956193   -88.889040
 0.415000   0.495034   -96.287011
 0.420000   -0.006677   -105.145773
 0.425000   -0.556424   -115.386924
 0.430000   -1.160546   -126.732440
 0.435000   -1.823748   -138.955870
 0.440000   -2.550105   -151.995797
 0.445000   -3.343706   -163.747174
 0.450000   -4.187577   -172.532773
 0.455000   -5.069034   -178.492524
 0.460000   -5.972502   -181.079890
 0.465000   -6.879833   -179.476705
 0.470000   -7.767269   -172.259522
 0.475000   -8.602428   -160.056800
 0.480000   -9.367837   -144.965757
 0.485000   -10.052086   -127.992864
 0.490000   -10.647766   -110.241267
 0.495000   -11.154498   -92.386816
 0.500000   -11.571634   -75.584990
 0.505000   -11.910348   -61.981483
 0.510000   -12.191449   -51.870446
 0.515000   -12.429053   -44.487014
 0.520000   -12.636319   -39.371021
 0.525000   -12.822763   -35.946285
 0.530000   -12.995782   -33.660357
 0.535000   -13.159366   -31.651523
 0.540000   -13.312297   -29.488695
 0.545000   -13.454253   -27.359437
 0.550000   -13.585891   -25.338010
 0.555000   -13.707633   -23.268353
 0.560000   -13.818575   -21.117756
 0.565000   -13.918811   -19.100794
 0.570000   -14.009583   -17.120799
 0.575000   -14.090019   -15.042903
 0.580000   -14.160012   -13.010509
 0.585000   -14.220124   -11.095509
 0.590000   -14.270967   -9.176284
 0.595000   -14.311887   -7.215317
 0.600000   -14.343120   -5.373798
 0.605000   -14.365625   -3.605871
 0.610000   -14.379179   -1.806711
 0.615000   -14.383692   -0.039881
 0.620000   -14.379578   1.592123
 0.625000   -14.367771   3.178414
 0.630000   -14.347793   4.785287
 0.635000   -14.319918   6.282933
 0.640000   -14.284964   7.683078
 0.645000   -14.243087   9.058360
 0.650000   -14.194380   10.391495
 0.655000   -14.139172   11.607649
 0.660000   -14.078304   12.742489
 0.665000   -14.011747   13.861193
 0.670000   -13.939692   14.950465
 0.675000   -13.862243   16.149094
 0.680000   -13.778201   17.698582
 0.685000   -13.685257   19.706645
 0.690000   -13.581135   22.127200
 0.695000   -13.463985   24.949832
 0.700000   -13.331636   28.279819
 0.705000   -13.181187   31.925947
 0.710000   -13.012377   35.242873
 0.715000   -12.828758   37.938266
 0.720000   -12.632994   39.913595
 0.725000   -12.429622   40.904215
 0.730000   -12.223952   40.716357
 0.735000   -12.022458   39.139644
 0.740000   -11.832556   36.317339
 0.745000   -11.659285   32.622096
 0.750000   -11.506335   28.361160
 0.755000   -11.375673   23.884261
 0.760000   -11.267492   19.394780
 0.765000   -11.181726   15.347760
 0.770000   -11.114014   12.081730
 0.775000   -11.060908   9.363463
 0.780000   -11.020380   6.942149
 0.785000   -10.991487   4.504673
 0.790000   -10.975333   1.773155
 0.795000   -10.973755   -1.588009
 0.800000   -10.991213   -5.836726
 0.805000   -11.032122   -10.877522
 0.810000   -11.099988   -16.483746
 0.815000   -11.196960   -22.396782
 0.820000   -11.323956   -28.316547
 0.825000   -11.480125   -33.693731
 0.830000   -11.660894   -38.049412
 0.835000   -11.860620   -41.202696
 0.840000   -12.072921   -43.109097
 0.845000   -12.291710   -43.576477
 0.850000   -12.508685   -42.440654
 0.855000   -12.716117   -40.334376
 0.860000   -12.912029   -37.945175
 0.865000   -13.095569   -35.287801
 0.870000   -13.264907   -32.500259
 0.875000   -13.420571   -29.902993
 0.880000   -13.563937   -27.765225
 0.885000   -13.698224   -25.896371
 0.890000   -13.822901   -24.029608
 0.895000   -13.938520   -22.415959
 0.900000   -14.047060   -21.039343
 0.905000   -14.148913   -19.605680
 0.910000   -14.243117   -17.626128
 0.915000   -14.325174   -13.540770
 0.920000   -14.378525   -6.385281
 0.925000   -14.389027   4.561771
 0.930000   -14.332907   22.010524
 0.935000   -14.168922   55.168709
 0.940000   -13.781220   102.842664
 0.945000   -13.140495   156.019158
 0.950000   -12.221028   208.081798
 0.955000   -11.059677   242.509712
 0.960000   -9.795931   235.928040
 0.965000   -8.700397   180.893604
 0.970000   -7.986995   109.861219
 0.975000   -7.601785   97.830605
 0.980000   -7.008689   228.710788
 0.985000   -5.314677   506.834688
 0.990000   -1.940342   811.926705
 0.995000   2.804590   955.102705
 1.000000   7.610685   967.335111
201 psinorm omghb() domghb/dpsiN
 0.000000   -0.000098   0.063171
 0.005000   0.000130   0.027889
 0.010000   0.000181   0.041115
 0.015000   0.000541   0.082256
 0.020000   0.001003   0.100574
 0.025000   0.001546   0.115514
 0.030000   0.002159   0.136863
 0.035000   0.002915   0.158085
 0.040000   0.003739   0.175198
 0.045000   0.004667   0.181159
 0.050000   0.005551   0.170216
 0.055000   0.006369   0.154611
 0.060000   0.007097   0.134620
 0.065000   0.007715   0.116282
 0.070000   0.008260   0.113965
 0.075000   0.008855   0.114869
 0.080000   0.009409   0.111067
 0.085000   0.009966   0.111641
 0.090000   0.010525   0.116470
 0.095000   0.011130   0.118533
 0.100000   0.011710   0.104682
 0.105000   0.012177   0.075606
 0.110000   0.012466   0.046542
 0.115000   0.012643   0.026858
 0.120000   0.012735   0.006003
 0.125000   0.012703   -0.013938
 0.130000   0.012596   -0.054891
 0.135000   0.012154   -0.076545
 0.140000   0.011830   -0.048317
 0.145000   0.011671   -0.026944
 0.150000   0.011561   -0.002862
 0.155000   0.011642   0.008520
 0.160000   0.011646   0.044782
 0.165000   0.012090   0.103298
 0.170000   0.012679   0.136490
 0.175000   0.013455   0.155775
 0.180000   0.014237   0.160714
 0.185000   0.015062   0.162728
 0.190000   0.015864   0.164300
 0.195000   0.016705   0.242895
 0.200000   0.018293   0.258624
 0.205000   0.019291   0.195844
 0.210000   0.020251   0.208807
 0.215000   0.021379   0.224561
 0.220000   0.022497   0.307768
 0.225000   0.024457   0.256979
 0.230000   0.025067   0.117534
 0.235000   0.025632   0.094766
 0.240000   0.026014   0.035558
 0.245000   0.025988   -0.004656
 0.250000   0.025968   0.029557
 0.255000   0.026283   -0.167076
 0.260000   0.024297   -0.266006
 0.265000   0.023623   -0.143404
 0.270000   0.022863   -0.168757
 0.275000   0.021936   -0.135602
 0.280000   0.021507   -0.111447
 0.285000   0.020821   -0.102547
 0.290000   0.020482   0.030353
 0.295000   0.021125   0.205442
 0.300000   0.022536   0.352329
 0.305000   0.024648   0.554835
 0.310000   0.028084   0.672780
 0.315000   0.031376   0.932992
 0.320000   0.037414   1.118569
 0.325000   0.042562   1.010170
 0.330000   0.047516   0.923979
 0.335000   0.051801   0.775893
 0.340000   0.055275   0.740747
 0.345000   0.059209   0.584091
 0.350000   0.061116   0.352169
 0.355000   0.062731   0.305801
 0.360000   0.064174   0.263249
 0.365000   0.065363   0.297964
 0.370000   0.067153   0.437001
 0.375000   0.069733   0.361773
 0.380000   0.070771   0.344287
 0.385000   0.073176   0.550134
 0.390000   0.076272   0.623718
 0.395000   0.079413   0.614580
 0.400000   0.082418   0.539042
 0.405000   0.084804   0.763654
 0.410000   0.090055   1.307697
 0.415000   0.097880   1.741003
 0.420000   0.107465   2.292963
 0.425000   0.120810   2.837516
 0.430000   0.135840   2.971620
 0.435000   0.150526   3.067629
 0.440000   0.166516   3.178478
 0.445000   0.182311   2.988505
 0.450000   0.196401   2.771165
 0.455000   0.210023   2.193580
 0.460000   0.218337   1.261468
 0.465000   0.222637   0.453826
 0.470000   0.222875   -0.395861
 0.475000   0.218679   -1.213571
 0.480000   0.210740   -2.122666
 0.485000   0.197452   -2.693107
 0.490000   0.183809   -2.713938
 0.495000   0.170313   -2.626219
 0.500000   0.157546   -2.418886
 0.505000   0.146124   -2.095415
 0.510000   0.136592   -1.701009
 0.515000   0.129114   -1.171553
 0.520000   0.124877   -0.762071
 0.525000   0.121493   -0.637940
 0.530000   0.118497   -0.561186
 0.535000   0.115881   -0.568003
 0.540000   0.112817   -0.630507
 0.545000   0.109576   -0.612815
 0.550000   0.106689   -0.591118
 0.555000   0.103665   -0.606034
 0.560000   0.100629   -0.497243
 0.565000   0.098693   -0.392596
 0.570000   0.096703   -0.392432
 0.575000   0.094768   -0.356682
 0.580000   0.093136   -0.281347
 0.585000   0.091955   -0.234793
 0.590000   0.090788   -0.225786
 0.595000   0.089697   -0.216311
 0.600000   0.088625   -0.199760
 0.605000   0.087699   -0.199516
 0.610000   0.086630   -0.204788
 0.615000   0.085651   -0.138140
 0.620000   0.085248   -0.107568
 0.625000   0.084576   -0.127254
 0.630000   0.083976   -0.113905
 0.635000   0.083437   -0.088325
 0.640000   0.083093   -0.062255
 0.645000   0.082814   0.013976
 0.650000   0.083232   0.042637
 0.655000   0.083241   0.043535
 0.660000   0.083668   0.143236
 0.665000   0.084673   0.311372
 0.670000   0.086781   0.586892
 0.675000   0.090542   1.278496
 0.680000   0.099566   1.420388
 0.685000   0.104746   0.736802
 0.690000   0.106934   0.398982
 0.695000   0.108736   0.189993
 0.700000   0.108834   -0.107490
 0.705000   0.107661   0.057205
 0.710000   0.109406   -0.565461
 0.715000   0.102006   -1.655330
 0.720000   0.092853   -1.583908
 0.725000   0.086167   -1.363468
 0.730000   0.079218   -1.400211
 0.735000   0.072165   -1.466352
 0.740000   0.064555   -1.636809
 0.745000   0.055797   -1.240679
 0.750000   0.052148   -0.512828
 0.755000   0.050668   0.049369
 0.760000   0.052642   0.650846
 0.765000   0.057177   0.920885
 0.770000   0.061851   1.361527
 0.775000   0.070792   2.345718
 0.780000   0.085308   2.659379
 0.785000   0.097386   2.554376
 0.790000   0.110852   2.566735
 0.795000   0.123053   2.365117
 0.800000   0.134503   2.476019
 0.805000   0.147814   2.511749
 0.810000   0.159620   2.013360
 0.815000   0.167947   1.548010
 0.820000   0.175100   1.172253
 0.825000   0.179670   0.718066
 0.830000   0.182281   0.326784
 0.835000   0.182937   -0.398566
 0.840000   0.178295   -0.773223
 0.845000   0.175205   -0.523347
 0.850000   0.173062   -0.288292
 0.855000   0.172322   0.102071
 0.860000   0.174083   0.874469
 0.865000   0.181067   1.315023
 0.870000   0.187233   2.338290
 0.875000   0.204450   4.576862
 0.880000   0.233001   6.873255
 0.885000   0.273182   9.310366
 0.890000   0.326105   12.727474
 0.895000   0.400457   15.457644
 0.900000   0.480682   17.571894
 0.905000   0.576176   19.906835
 0.910000   0.679750   20.694287
 0.915000   0.783119   19.847831
 0.920000   0.878228   20.172356
 0.925000   0.984843   16.425484
 0.930000   1.042483   9.838770
 0.935000   1.083230   6.228385
 0.940000   1.104767   2.581759
 0.945000   1.109048   -1.623771
 0.950000   1.088529   -0.491352
 0.955000   1.104134   -10.973732
 0.960000   0.978792   -30.115311
 0.965000   0.802981   -45.766872
 0.970000   0.521123   -73.890219
 0.975000   0.064079   -113.490338
 0.980000   -0.613780   -147.545388
 0.985000   -1.411375   -148.891586
 0.990000   -2.102696   -95.557569
 0.995000   -2.366950   -2.651668
 1.000000   -2.129213   97.746771
201 psinorm nz1(10^20/m^3) dnz1/dpsiN
 0.000000   0.024257   0.000004
 0.005000   0.024255   -0.000952
 0.010000   0.024248   -0.001913
 0.015000   0.024236   -0.002886
 0.020000   0.024219   -0.003867
 0.025000   0.024197   -0.004854
 0.030000   0.024171   -0.005841
 0.035000   0.024139   -0.006827
 0.040000   0.024102   -0.007807
 0.045000   0.024061   -0.008778
 0.050000   0.024014   -0.009739
 0.055000   0.023963   -0.010685
 0.060000   0.023908   -0.011613
 0.065000   0.023847   -0.012520
 0.070000   0.023782   -0.013398
 0.075000   0.023713   -0.014246
 0.080000   0.023640   -0.015066
 0.085000   0.023563   -0.015859
 0.090000   0.023481   -0.016626
 0.095000   0.023396   -0.017369
 0.100000   0.023308   -0.018093
 0.105000   0.023215   -0.018798
 0.110000   0.023120   -0.019479
 0.115000   0.023021   -0.020129
 0.120000   0.022918   -0.020744
 0.125000   0.022813   -0.021324
 0.130000   0.022705   -0.021865
 0.135000   0.022595   -0.022364
 0.140000   0.022482   -0.022817
 0.145000   0.022366   -0.023225
 0.150000   0.022249   -0.023585
 0.155000   0.022131   -0.023895
 0.160000   0.022010   -0.024155
 0.165000   0.021889   -0.024361
 0.170000   0.021767   -0.024517
 0.175000   0.021644   -0.024624
 0.180000   0.021520   -0.024677
 0.185000   0.021397   -0.024675
 0.190000   0.021274   -0.024616
 0.195000   0.021151   -0.024497
 0.200000   0.021029   -0.024335
 0.205000   0.020908   -0.024140
 0.210000   0.020787   -0.023919
 0.215000   0.020668   -0.023686
 0.220000   0.020551   -0.023461
 0.225000   0.020434   -0.023265
 0.230000   0.020318   -0.023084
 0.235000   0.020203   -0.022894
 0.240000   0.020089   -0.022692
 0.245000   0.019976   -0.022469
 0.250000   0.019864   -0.022223
 0.255000   0.019754   -0.021957
 0.260000   0.019645   -0.021636
 0.265000   0.019537   -0.021240
 0.270000   0.019432   -0.020780
 0.275000   0.019330   -0.020254
 0.280000   0.019230   -0.019657
 0.285000   0.019133   -0.018981
 0.290000   0.019040   -0.018226
 0.295000   0.018951   -0.017410
 0.300000   0.018866   -0.016548
 0.305000   0.018785   -0.015650
 0.310000   0.018709   -0.014729
 0.315000   0.018638   -0.013777
 0.320000   0.018572   -0.012831
 0.325000   0.018510   -0.011927
 0.330000   0.018452   -0.011054
 0.335000   0.018399   -0.010215
 0.340000   0.018350   -0.009412
 0.345000   0.018305   -0.008646
 0.350000   0.018264   -0.007917
 0.355000   0.018226   -0.007210
 0.360000   0.018192   -0.006509
 0.365000   0.018161   -0.005810
 0.370000   0.018133   -0.005111
 0.375000   0.018110   -0.004414
 0.380000   0.018089   -0.003720
 0.385000   0.018072   -0.003031
 0.390000   0.018059   -0.002355
 0.395000   0.018049   -0.001694
 0.400000   0.018042   -0.001055
 0.405000   0.018038   -0.000441
 0.410000   0.018038   0.000144
 0.415000   0.018040   0.000694
 0.420000   0.018045   0.001209
 0.425000   0.018052   0.001685
 0.430000   0.018061   0.002123
 0.435000   0.018073   0.002524
 0.440000   0.018087   0.002892
 0.445000   0.018102   0.003233
 0.450000   0.018119   0.003549
 0.455000   0.018138   0.003838
 0.460000   0.018157   0.004100
 0.465000   0.018179   0.004335
 0.470000   0.018201   0.004537
 0.475000   0.018224   0.004692
 0.480000   0.018248   0.004791
 0.485000   0.018272   0.004830
 0.490000   0.018296   0.004804
 0.495000   0.018320   0.004708
 0.500000   0.018343   0.004537
 0.505000   0.018365   0.004289
 0.510000   0.018386   0.003967
 0.515000   0.018405   0.003576
 0.520000   0.018422   0.003121
 0.525000   0.018436   0.002610
 0.530000   0.018448   0.002050
 0.535000   0.018457   0.001451
 0.540000   0.018462   0.000822
 0.545000   0.018465   0.000165
 0.550000   0.018464   -0.000516
 0.555000   0.018460   -0.001219
 0.560000   0.018452   -0.001943
 0.565000   0.018440   -0.002692
 0.570000   0.018425   -0.003471
 0.575000   0.018405   -0.004280
 0.580000   0.018382   -0.005117
 0.585000   0.018354   -0.005977
 0.590000   0.018322   -0.006854
 0.595000   0.018286   -0.007740
 0.600000   0.018245   -0.008631
 0.605000   0.018199   -0.009521
 0.610000   0.018150   -0.010408
 0.615000   0.018095   -0.011289
 0.620000   0.018037   -0.012166
 0.625000   0.017974   -0.013041
 0.630000   0.017906   -0.013915
 0.635000   0.017835   -0.014784
 0.640000   0.017759   -0.015645
 0.645000   0.017678   -0.016497
 0.650000   0.017594   -0.017342
 0.655000   0.017505   -0.018172
 0.660000   0.017412   -0.018972
 0.665000   0.017315   -0.019749
 0.670000   0.017214   -0.020535
 0.675000   0.017110   -0.021387
 0.680000   0.017000   -0.022465
 0.685000   0.016885   -0.023843
 0.690000   0.016762   -0.025422
 0.695000   0.016631   -0.027153
 0.700000   0.016491   -0.029004
 0.705000   0.016341   -0.030913
 0.710000   0.016181   -0.032915
 0.715000   0.016012   -0.034851
 0.720000   0.015833   -0.036427
 0.725000   0.015647   -0.037603
 0.730000   0.015457   -0.038364
 0.735000   0.015264   -0.038645
 0.740000   0.015070   -0.038398
 0.745000   0.014880   -0.037544
 0.750000   0.014695   -0.036100
 0.755000   0.014519   -0.034200
 0.760000   0.014353   -0.031942
 0.765000   0.014199   -0.029422
 0.770000   0.014059   -0.026689
 0.775000   0.013932   -0.023836
 0.780000   0.013820   -0.021118
 0.785000   0.013721   -0.018639
 0.790000   0.013634   -0.016370
 0.795000   0.013558   -0.014334
 0.800000   0.013491   -0.012527
 0.805000   0.013432   -0.010958
 0.810000   0.013381   -0.009648
 0.815000   0.013336   -0.008519
 0.820000   0.013296   -0.007478
 0.825000   0.013261   -0.006498
 0.830000   0.013231   -0.005563
 0.835000   0.013205   -0.004672
 0.840000   0.013184   -0.003820
 0.845000   0.013167   -0.002996
 0.850000   0.013154   -0.002198
 0.855000   0.013145   -0.001424
 0.860000   0.013140   -0.000677
 0.865000   0.013138   0.000042
 0.870000   0.013140   0.000736
 0.875000   0.013146   0.001403
 0.880000   0.013154   0.002032
 0.885000   0.013166   0.002611
 0.890000   0.013181   0.003119
 0.895000   0.013197   0.003569
 0.900000   0.013216   0.003916
 0.905000   0.013236   0.004055
 0.910000   0.013257   0.003849
 0.915000   0.013275   0.003038
 0.920000   0.013287   0.001157
 0.925000   0.013287   -0.002698
 0.930000   0.013260   -0.009939
 0.935000   0.013187   -0.022372
 0.940000   0.013036   -0.042130
 0.945000   0.012766   -0.071183
 0.950000   0.012325   -0.110219
 0.955000   0.011664   -0.158804
 0.960000   0.010737   -0.209833
 0.965000   0.009565   -0.250932
 0.970000   0.008227   -0.272210
 0.975000   0.006843   -0.268511
 0.980000   0.005542   -0.242367
 0.985000   0.004420   -0.202638
 0.990000   0.003516   -0.159352
 0.995000   0.002826   -0.120374
 1.000000   0.002312   -0.085215
201 psinorm vtor1(km/s) dvtor1/dpsiN
 0.000000   121.797771   586.077650
 0.005000   124.071280   323.325974
 0.010000   125.031031   168.908265
 0.015000   125.760363   133.136345
 0.020000   126.362394   112.250471
 0.025000   126.882867   98.681834
 0.030000   127.349212   88.835311
 0.035000   127.771220   80.348440
 0.040000   128.152697   73.130004
 0.045000   128.502520   67.152846
 0.050000   128.824225   61.708215
 0.055000   129.119603   56.533558
 0.060000   129.389561   51.842193
 0.065000   129.638025   47.689559
 0.070000   129.866456   43.669492
 0.075000   130.074719   39.838849
 0.080000   130.264845   36.307258
 0.085000   130.437792   32.948644
 0.090000   130.594331   29.571320
 0.095000   130.733505   26.296302
 0.100000   130.857294   23.230261
 0.105000   130.965808   20.147482
 0.110000   131.058769   17.028533
 0.115000   131.136093   13.984994
 0.120000   131.198619   10.966660
 0.125000   131.245760   7.834403
 0.130000   131.276963   4.708300
 0.135000   131.292843   1.589708
 0.140000   131.292860   -1.623264
 0.145000   131.276610   -4.903049
 0.150000   131.243830   -8.210624
 0.155000   131.194504   -11.553984
 0.160000   131.128290   -15.003795
 0.165000   131.044466   -18.474182
 0.170000   130.943548   -21.881682
 0.175000   130.825649   -25.286586
 0.180000   130.690682   -28.708059
 0.185000   130.538568   -32.095164
 0.190000   130.369731   -35.403959
 0.195000   130.184529   -38.601150
 0.200000   129.983719   -41.602894
 0.205000   129.768500   -44.346028
 0.210000   129.540259   -46.812730
 0.215000   129.300373   -49.010831
 0.220000   129.050150   -50.848915
 0.225000   128.791884   -52.208640
 0.230000   128.528064   -53.321754
 0.235000   128.258666   -54.320083
 0.240000   127.984863   -55.080708
 0.245000   127.707859   -55.612796
 0.250000   127.428735   -55.909098
 0.255000   127.148768   -55.844105
 0.260000   126.870294   -55.707668
 0.265000   126.591691   -55.756590
 0.270000   126.312728   -55.882697
 0.275000   126.032864   -56.120505
 0.280000   125.751523   -56.520821
 0.285000   125.467656   -57.208551
 0.290000   125.179438   -58.248166
 0.295000   124.885174   -59.501373
 0.300000   124.584424   -60.817183
 0.305000   124.277003   -62.142575
 0.310000   123.962998   -63.417222
 0.315000   123.642830   -64.650481
 0.320000   123.316494   -65.821465
 0.325000   122.984616   -66.886201
 0.330000   122.647632   -67.863585
 0.335000   122.305980   -68.744083
 0.340000   121.960191   -69.525835
 0.345000   121.610721   -70.186494
 0.350000   121.258326   -70.714889
 0.355000   120.903573   -71.133285
 0.360000   120.546993   -71.436883
 0.365000   120.189204   -71.619727
 0.370000   119.830796   -71.693037
 0.375000   119.472273   -71.621578
 0.380000   119.114580   -71.392532
 0.385000   118.758348   -71.054972
 0.390000   118.404030   -70.630842
 0.395000   118.052040   -70.123279
 0.400000   117.702797   -69.529447
 0.405000   117.356745   -68.822748
 0.410000   117.014570   -68.205860
 0.415000   116.674687   -68.071992
 0.420000   116.333850   -68.684969
 0.425000   115.987837   -70.202154
 0.430000   115.631828   -72.692269
 0.435000   115.260914   -76.459780
 0.440000   114.867231   -81.458600
 0.445000   114.446328   -86.936921
 0.450000   113.997861   -92.611234
 0.455000   113.520216   -98.535439
 0.460000   113.012507   -104.559566
 0.465000   112.474620   -110.852917
 0.470000   111.903978   -117.170638
 0.475000   111.302914   -122.484154
 0.480000   110.679136   -126.599197
 0.485000   110.036922   -129.786990
 0.490000   109.381266   -131.932818
 0.495000   108.717594   -133.003270
 0.500000   108.051234   -132.849874
 0.505000   107.389095   -131.487705
 0.510000   106.736357   -129.378854
 0.515000   106.095306   -126.870269
 0.520000   105.467654   -124.067836
 0.525000   104.854628   -121.019974
 0.530000   104.257454   -117.703845
 0.535000   103.677590   -114.302588
 0.540000   103.114428   -110.988158
 0.545000   102.567708   -107.749933
 0.550000   102.036929   -104.648139
 0.555000   101.521227   -101.726835
 0.560000   101.019661   -98.964545
 0.565000   100.531581   -96.560402
 0.570000   100.054057   -94.642444
 0.575000   99.585157   -93.120163
 0.580000   99.122855   -92.022187
 0.585000   98.664935   -91.375683
 0.590000   98.209098   -91.189460
 0.595000   97.753040   -91.356982
 0.600000   97.295528   -91.723491
 0.605000   96.835805   -92.237217
 0.610000   96.373156   -92.895150
 0.615000   95.906854   -93.692293
 0.620000   95.436233   -94.514495
 0.625000   94.961709   -95.447563
 0.630000   94.481758   -96.616798
 0.635000   93.995541   -97.957079
 0.640000   93.502187   -99.470672
 0.645000   93.000834   -101.157801
 0.650000   92.490609   -102.925460
 0.655000   91.971580   -104.913197
 0.660000   91.441477   -107.285399
 0.665000   90.898726   -109.962079
 0.670000   90.341856   -112.937237
 0.675000   89.769353   -116.223942
 0.680000   89.179617   -119.775950
 0.685000   88.571594   -123.282842
 0.690000   87.946788   -126.413214
 0.695000   87.307462   -129.153621
 0.700000   86.655252   -131.635535
 0.705000   85.991106   -134.002251
 0.710000   85.315229   -136.309549
 0.715000   84.628011   -138.703953
 0.720000   83.928190   -141.324780
 0.725000   83.214763   -144.109983
 0.730000   82.487090   -147.029898
 0.735000   81.744464   -150.084072
 0.740000   80.986249   -153.352588
 0.745000   80.210938   -156.911084
 0.750000   79.417139   -160.765705
 0.755000   78.603281   -165.178074
 0.760000   77.765358   -170.508564
 0.765000   76.898195   -176.917584
 0.770000   75.996182   -184.816324
 0.775000   75.050032   -193.979388
 0.780000   74.056388   -202.552659
 0.785000   73.024506   -209.594192
 0.790000   71.960446   -215.244352
 0.795000   70.872062   -219.192963
 0.800000   69.768517   -221.456082
 0.805000   68.657501   -222.294150
 0.810000   67.545575   -221.370651
 0.815000   66.443795   -218.683809
 0.820000   65.358737   -214.657149
 0.825000   64.297223   -209.279439
 0.830000   63.265943   -202.763592
 0.835000   62.269587   -195.546416
 0.840000   61.310478   -187.671996
 0.845000   60.392867   -179.977698
 0.850000   59.510701   -173.962496
 0.855000   58.653242   -170.589277
 0.860000   57.804809   -171.078749
 0.865000   56.942455   -177.773597
 0.870000   56.027073   -191.585845
 0.875000   55.026596   -213.946044
 0.880000   53.887612   -248.418403
 0.885000   52.542412   -297.683539
 0.890000   50.910777   -363.773285
 0.895000   48.904680   -449.147350
 0.900000   46.419303   -550.297995
 0.905000   43.401700   -660.563153
 0.910000   39.813672   -773.758429
 0.915000   35.664115   -879.256039
 0.920000   31.021111   -964.685178
 0.925000   26.017264   -1017.537368
 0.930000   20.845738   -1025.317643
 0.935000   15.764087   -981.075521
 0.940000   11.034983   -886.300703
 0.945000   6.901080   -748.506494
 0.950000   3.549918   -581.310587
 0.955000   1.087974   -400.946205
 0.960000   -0.459544   -227.182614
 0.965000   -1.183852   -76.264123
 0.970000   -1.222186   44.606531
 0.975000   -0.737787   132.380842
 0.980000   0.101623   187.990149
 0.985000   1.142115   213.940870
 0.990000   2.241031   216.410403
 0.995000   3.306219   203.536100
 1.000000   4.276392   184.533306
201 psinorm vpol1(km/s) dvpol1/dpsiN
 0.000000   -0.000180   5.048926
 0.005000   0.026850   5.762793
 0.010000   0.057448   6.455469
 0.015000   0.091404   7.095020
 0.020000   0.128398   7.644434
 0.025000   0.167849   8.075977
 0.030000   0.209158   8.349316
 0.035000   0.251342   8.491992
 0.040000   0.294078   8.563086
 0.045000   0.336973   8.585840
 0.050000   0.379937   8.594141
 0.055000   0.422914   8.629004
 0.060000   0.466227   8.730273
 0.065000   0.510217   8.881738
 0.070000   0.555044   9.052344
 0.075000   0.600740   9.228125
 0.080000   0.647325   9.388379
 0.085000   0.694624   9.529297
 0.090000   0.742618   9.657813
 0.095000   0.791202   9.786523
 0.100000   0.840483   9.941602
 0.105000   0.890618   10.131250
 0.110000   0.941796   10.362695
 0.115000   0.994245   10.659375
 0.120000   1.048390   11.015527
 0.125000   1.104400   11.380762
 0.130000   1.162197   11.722949
 0.135000   1.221630   12.032324
 0.140000   1.282521   12.281445
 0.145000   1.344444   12.433691
 0.150000   1.406857   12.444727
 0.155000   1.468892   12.300000
 0.160000   1.529857   12.024902
 0.165000   1.589141   11.619922
 0.170000   1.646057   11.089355
 0.175000   1.700034   10.390625
 0.180000   1.749963   9.593457
 0.185000   1.795969   8.814258
 0.190000   1.838105   8.056738
 0.195000   1.876536   7.344336
 0.200000   1.911549   6.705371
 0.205000   1.943590   6.169629
 0.210000   1.973245   5.788574
 0.215000   2.001476   5.529395
 0.220000   2.028539   5.303223
 0.225000   2.054508   5.080566
 0.230000   2.079345   4.838477
 0.235000   2.102893   4.566992
 0.240000   2.125015   4.238477
 0.245000   2.145277   3.832227
 0.250000   2.163337   3.361328
 0.255000   2.178891   2.832910
 0.260000   2.191666   2.249219
 0.265000   2.201383   1.629297
 0.270000   2.207959   0.976660
 0.275000   2.211149   0.274609
 0.280000   2.210705   -0.489160
 0.285000   2.206258   -1.335547
 0.290000   2.197350   -2.286523
 0.295000   2.183393   -3.361426
 0.300000   2.163735   -4.549512
 0.305000   2.137897   -5.844336
 0.310000   2.105292   -7.240430
 0.315000   2.065493   -8.711523
 0.320000   2.018177   -10.225781
 0.325000   1.963235   -11.688086
 0.330000   1.901296   -12.995410
 0.335000   1.833281   -14.096289
 0.340000   1.760333   -14.954687
 0.345000   1.683734   -15.569922
 0.350000   1.604634   -15.930957
 0.355000   1.524425   -16.215527
 0.360000   1.442479   -16.630664
 0.365000   1.358118   -17.189844
 0.370000   1.270580   -17.941797
 0.375000   1.178700   -18.950195
 0.380000   1.081078   -20.352930
 0.385000   0.975171   -22.026074
 0.390000   0.860817   -23.671484
 0.395000   0.738456   -25.217285
 0.400000   0.608645   -26.686523
 0.405000   0.471591   -28.196777
 0.410000   0.326677   -30.205859
 0.415000   0.169532   -32.896875
 0.420000   -0.002292   -36.097461
 0.425000   -0.191442   -39.789062
 0.430000   -0.400183   -43.873535
 0.435000   -0.630178   -48.280469
 0.440000   -0.882987   -52.997168
 0.445000   -1.160149   -57.264355
 0.450000   -1.455631   -60.512695
 0.455000   -1.765276   -62.808984
 0.460000   -2.083721   -63.907422
 0.465000   -2.404351   -63.519336
 0.470000   -2.718914   -61.179785
 0.475000   -3.016148   -57.075195
 0.480000   -3.289666   -51.886719
 0.485000   -3.535016   -46.018555
 0.490000   -3.749852   -39.888867
 0.495000   -3.933904   -33.639844
 0.500000   -4.086250   -27.721875
 0.505000   -4.211123   -22.963867
 0.510000   -4.315889   -19.409961
 0.515000   -4.405223   -16.767578
 0.520000   -4.483564   -14.943750
 0.525000   -4.554660   -13.755078
 0.530000   -4.621115   -12.910742
 0.535000   -4.683768   -12.154297
 0.540000   -4.742658   -11.396094
 0.545000   -4.797729   -10.631836
 0.550000   -4.848977   -9.866992
 0.555000   -4.896398   -9.104492
 0.560000   -4.940021   -8.347461
 0.565000   -4.979873   -7.590625
 0.570000   -5.015928   -6.836719
 0.575000   -5.048240   -6.091602
 0.580000   -5.076844   -5.354883
 0.585000   -5.101789   -4.625781
 0.590000   -5.123102   -3.907813
 0.595000   -5.140867   -3.206250
 0.600000   -5.155164   -2.517187
 0.605000   -5.166039   -1.842773
 0.610000   -5.173592   -1.185156
 0.615000   -5.177891   -0.544141
 0.620000   -5.179033   0.077344
 0.625000   -5.177117   0.678516
 0.630000   -5.172248   1.259570
 0.635000   -5.164521   1.816211
 0.640000   -5.154086   2.350586
 0.645000   -5.141016   2.862109
 0.650000   -5.125465   3.346680
 0.655000   -5.107549   3.808594
 0.660000   -5.087379   4.243164
 0.665000   -5.065117   4.653125
 0.670000   -5.040848   5.055469
 0.675000   -5.014563   5.509180
 0.680000   -4.985756   6.085742
 0.685000   -4.953705   6.817187
 0.690000   -4.917584   7.706055
 0.695000   -4.876645   8.745703
 0.700000   -4.830127   9.962500
 0.705000   -4.777020   11.290430
 0.710000   -4.717223   12.508203
 0.715000   -4.651937   13.501758
 0.720000   -4.582205   14.226562
 0.725000   -4.509672   14.595898
 0.730000   -4.436246   14.542383
 0.735000   -4.364248   13.982617
 0.740000   -4.296420   12.965234
 0.745000   -4.234596   11.633398
 0.750000   -4.180086   10.097461
 0.755000   -4.133621   8.478320
 0.760000   -4.095303   6.850781
 0.765000   -4.065113   5.389258
 0.770000   -4.041410   4.211719
 0.775000   -4.022996   3.226172
 0.780000   -4.009148   2.348242
 0.785000   -3.999514   1.473047
 0.790000   -3.994418   0.488867
 0.795000   -3.994625   -0.734375
 0.800000   -4.001762   -2.275586
 0.805000   -4.017381   -4.096484
 0.810000   -4.042727   -6.130078
 0.815000   -4.078682   -8.285937
 0.820000   -4.125586   -10.430859
 0.825000   -4.182990   -12.369922
 0.830000   -4.249285   -13.951172
 0.835000   -4.322502   -15.103125
 0.840000   -4.400316   -15.772070
 0.845000   -4.480223   -15.910742
 0.850000   -4.559424   -15.492773
 0.855000   -4.635150   -14.722266
 0.860000   -4.706646   -13.804492
 0.865000   -4.773195   -12.791211
 0.870000   -4.834559   -11.773437
 0.875000   -4.890930   -10.807422
 0.880000   -4.942633   -9.962891
 0.885000   -4.990559   -9.233203
 0.890000   -5.034965   -8.549609
 0.895000   -5.076055   -7.919531
 0.900000   -5.114160   -7.332812
 0.905000   -5.149383   -6.763672
 0.910000   -5.181797   -6.038672
 0.915000   -5.209770   -4.747656
 0.920000   -5.229273   -2.440625
 0.925000   -5.234176   1.443359
 0.930000   -5.214840   7.793359
 0.935000   -5.156242   18.200391
 0.940000   -5.032836   33.790234
 0.945000   -4.818340   53.360547
 0.950000   -4.499230   73.039453
 0.955000   -4.087945   85.902344
 0.960000   -3.640207   83.778125
 0.965000   -3.250164   64.101172
 0.970000   -2.999195   38.156641
 0.975000   -2.868598   35.156250
 0.980000   -2.647633   85.875000
 0.985000   -2.009848   191.307031
 0.990000   -0.734562   307.261328
 0.995000   1.062766   361.268750
 1.000000   2.878125   364.875000
3 N Z A of ION SPECIES
 6.000000   6.000000   12.010700
 1.000000   1.000000   2.000000
 1.000000   1.000000   2.000000
