201 psinorm ne(10^20/m^3) dne/dpsiN
 0.000000   0.515103   -0.473759
 0.005000   0.512744   -0.469852
 0.010000   0.510405   -0.465963
 0.015000   0.508085   -0.462107
 0.020000   0.505784   -0.458285
 0.025000   0.503502   -0.454495
 0.030000   0.501239   -0.450738
 0.035000   0.498994   -0.447013
 0.040000   0.496769   -0.443320
 0.045000   0.494561   -0.439659
 0.050000   0.492372   -0.436029
 0.055000   0.490201   -0.432429
 0.060000   0.488048   -0.428861
 0.065000   0.485912   -0.425323
 0.070000   0.483795   -0.421814
 0.075000   0.481694   -0.418335
 0.080000   0.479611   -0.414886
 0.085000   0.477545   -0.411466
 0.090000   0.475496   -0.408074
 0.095000   0.473465   -0.404711
 0.100000   0.471449   -0.401376
 0.105000   0.469451   -0.398069
 0.110000   0.467469   -0.394790
 0.115000   0.465503   -0.391537
 0.120000   0.463553   -0.388312
 0.125000   0.461620   -0.385114
 0.130000   0.459702   -0.381942
 0.135000   0.457800   -0.378796
 0.140000   0.455914   -0.375676
 0.145000   0.454044   -0.372582
 0.150000   0.452188   -0.369513
 0.155000   0.450348   -0.366469
 0.160000   0.448524   -0.363450
 0.165000   0.446714   -0.360456
 0.170000   0.444919   -0.357486
 0.175000   0.443139   -0.354540
 0.180000   0.441374   -0.351618
 0.185000   0.439623   -0.348720
 0.190000   0.437887   -0.345845
 0.195000   0.436164   -0.342993
 0.200000   0.434457   -0.340164
 0.205000   0.432763   -0.337358
 0.210000   0.431083   -0.334574
 0.215000   0.429417   -0.331813
 0.220000   0.427765   -0.329073
 0.225000   0.426126   -0.326355
 0.230000   0.424501   -0.323659
 0.235000   0.422890   -0.320984
 0.240000   0.421292   -0.318330
 0.245000   0.419706   -0.315696
 0.250000   0.418135   -0.313084
 0.255000   0.416576   -0.310492
 0.260000   0.415030   -0.307920
 0.265000   0.413496   -0.305369
 0.270000   0.411976   -0.302837
 0.275000   0.410468   -0.300324
 0.280000   0.408973   -0.297832
 0.285000   0.407490   -0.295358
 0.290000   0.406019   -0.292904
 0.295000   0.404561   -0.290468
 0.300000   0.403114   -0.288051
 0.305000   0.401680   -0.285652
 0.310000   0.400258   -0.283272
 0.315000   0.398848   -0.280909
 0.320000   0.397449   -0.278565
 0.325000   0.396062   -0.276238
 0.330000   0.394686   -0.273929
 0.335000   0.393323   -0.271637
 0.340000   0.391970   -0.269363
 0.345000   0.390629   -0.267105
 0.350000   0.389299   -0.264864
 0.355000   0.387980   -0.262640
 0.360000   0.386673   -0.260433
 0.365000   0.385376   -0.258241
 0.370000   0.384090   -0.256066
 0.375000   0.382815   -0.253907
 0.380000   0.381551   -0.251763
 0.385000   0.380298   -0.249636
 0.390000   0.379055   -0.247523
 0.395000   0.377822   -0.245426
 0.400000   0.376601   -0.243345
 0.405000   0.375389   -0.241278
 0.410000   0.374188   -0.239226
 0.415000   0.372997   -0.237189
 0.420000   0.371816   -0.235167
 0.425000   0.370645   -0.233158
 0.430000   0.369484   -0.231164
 0.435000   0.368333   -0.229185
 0.440000   0.367192   -0.227219
 0.445000   0.366061   -0.225267
 0.450000   0.364940   -0.223329
 0.455000   0.363828   -0.221404
 0.460000   0.362726   -0.219493
 0.465000   0.361633   -0.217595
 0.470000   0.360550   -0.215710
 0.475000   0.359476   -0.213838
 0.480000   0.358411   -0.211979
 0.485000   0.357356   -0.210133
 0.490000   0.356310   -0.208299
 0.495000   0.355273   -0.206478
 0.500000   0.354245   -0.204669
 0.505000   0.353226   -0.202872
 0.510000   0.352217   -0.201087
 0.515000   0.351216   -0.199315
 0.520000   0.350223   -0.197554
 0.525000   0.349240   -0.195805
 0.530000   0.348265   -0.194067
 0.535000   0.347299   -0.192341
 0.540000   0.346342   -0.190626
 0.545000   0.345393   -0.188923
 0.550000   0.344453   -0.187230
 0.555000   0.343521   -0.185549
 0.560000   0.342597   -0.183878
 0.565000   0.341682   -0.182219
 0.570000   0.340775   -0.180569
 0.575000   0.339876   -0.178931
 0.580000   0.338986   -0.177303
 0.585000   0.338103   -0.175685
 0.590000   0.337229   -0.174077
 0.595000   0.336363   -0.172479
 0.600000   0.335504   -0.170892
 0.605000   0.334654   -0.169314
 0.610000   0.333811   -0.167746
 0.615000   0.332976   -0.166187
 0.620000   0.332149   -0.164639
 0.625000   0.331330   -0.163099
 0.630000   0.330518   -0.161569
 0.635000   0.329714   -0.160048
 0.640000   0.328918   -0.158536
 0.645000   0.328129   -0.157033
 0.650000   0.327347   -0.155539
 0.655000   0.326573   -0.154054
 0.660000   0.325807   -0.152577
 0.665000   0.325048   -0.151108
 0.670000   0.324296   -0.149648
 0.675000   0.323551   -0.148196
 0.680000   0.322814   -0.146752
 0.685000   0.322084   -0.145315
 0.690000   0.321361   -0.143885
 0.695000   0.320645   -0.142463
 0.700000   0.319936   -0.141046
 0.705000   0.319234   -0.139636
 0.710000   0.318540   -0.138231
 0.715000   0.317852   -0.136830
 0.720000   0.317171   -0.135433
 0.725000   0.316498   -0.134038
 0.730000   0.315831   -0.132643
 0.735000   0.315171   -0.131246
 0.740000   0.314518   -0.129845
 0.745000   0.313873   -0.128436
 0.750000   0.313234   -0.127015
 0.755000   0.312603   -0.125577
 0.760000   0.311978   -0.124114
 0.765000   0.311361   -0.122617
 0.770000   0.310752   -0.121077
 0.775000   0.310151   -0.119477
 0.780000   0.309557   -0.117802
 0.785000   0.308973   -0.116027
 0.790000   0.308397   -0.114124
 0.795000   0.307831   -0.112058
 0.800000   0.307277   -0.109783
 0.805000   0.306734   -0.107245
 0.810000   0.306204   -0.104372
 0.815000   0.305690   -0.101078
 0.820000   0.305193   -0.097258
 0.825000   0.304717   -0.092780
 0.830000   0.304265   -0.087488
 0.835000   0.303842   -0.081190
 0.840000   0.303454   -0.073660
 0.845000   0.303106   -0.064635
 0.850000   0.302807   -0.053811
 0.855000   0.302568   -0.040853
 0.860000   0.302399   -0.025402
 0.865000   0.302314   -0.007106
 0.870000   0.302328   0.014338
 0.875000   0.302457   0.039102
 0.880000   0.302719   0.067097
 0.885000   0.303128   0.097763
 0.890000   0.303696   0.129755
 0.895000   0.304426   0.160455
 0.900000   0.305301   0.185283
 0.905000   0.306278   0.196747
 0.910000   0.307268   0.183250
 0.915000   0.308111   0.127822
 0.920000   0.308547   0.007274
 0.925000   0.308184   -0.207163
 0.930000   0.306475   -0.545940
 0.935000   0.302724   -1.031951
 0.940000   0.296155   -1.665286
 0.945000   0.286071   -2.405864
 0.950000   0.272097   -3.164805
 0.955000   0.254423   -3.818205
 0.960000   0.233915   -4.246737
 0.965000   0.211956   -4.382971
 0.970000   0.190085   -4.236055
 0.975000   0.169595   -3.878207
 0.980000   0.151303   -3.406588
 0.985000   0.135530   -2.907359
 0.990000   0.122229   -2.438085
 0.995000   0.111149   -2.027472
 1.000000   0.101955   -1.650159
201 psinorm te(KeV) dte/dpsiN
 0.000000   3.810472   -2.567074
 0.005000   3.797588   -2.586765
 0.010000   3.784605   -2.606326
 0.015000   3.771524   -2.625624
 0.020000   3.758348   -2.644659
 0.025000   3.745078   -2.663428
 0.030000   3.731714   -2.681931
 0.035000   3.718258   -2.700167
 0.040000   3.704712   -2.718135
 0.045000   3.691077   -2.735833
 0.050000   3.677354   -2.753261
 0.055000   3.663544   -2.770417
 0.060000   3.649650   -2.787302
 0.065000   3.635671   -2.803913
 0.070000   3.621611   -2.820250
 0.075000   3.607469   -2.836312
 0.080000   3.593248   -2.852099
 0.085000   3.578948   -2.867609
 0.090000   3.564572   -2.882843
 0.095000   3.550120   -2.897800
 0.100000   3.535594   -2.912478
 0.105000   3.520995   -2.926878
 0.110000   3.506325   -2.940999
 0.115000   3.491585   -2.954841
 0.120000   3.476776   -2.968403
 0.125000   3.461901   -2.981685
 0.130000   3.446959   -2.994687
 0.135000   3.431954   -3.007408
 0.140000   3.416885   -3.019848
 0.145000   3.401755   -3.032007
 0.150000   3.386565   -3.043885
 0.155000   3.371317   -3.055482
 0.160000   3.356010   -3.066797
 0.165000   3.340649   -3.077832
 0.170000   3.325232   -3.088585
 0.175000   3.309763   -3.099057
 0.180000   3.294242   -3.109248
 0.185000   3.278670   -3.119158
 0.190000   3.263050   -3.128788
 0.195000   3.247382   -3.138137
 0.200000   3.231669   -3.147207
 0.205000   3.215910   -3.155997
 0.210000   3.200109   -3.164507
 0.215000   3.184265   -3.172739
 0.220000   3.168381   -3.180692
 0.225000   3.152458   -3.188367
 0.230000   3.136498   -3.195765
 0.235000   3.120501   -3.202886
 0.240000   3.104469   -3.209730
 0.245000   3.088403   -3.216299
 0.250000   3.072306   -3.222594
 0.255000   3.056177   -3.228614
 0.260000   3.040020   -3.234361
 0.265000   3.023834   -3.239835
 0.270000   3.007621   -3.245037
 0.275000   2.991383   -3.249969
 0.280000   2.975122   -3.254630
 0.285000   2.958837   -3.259023
 0.290000   2.942531   -3.263147
 0.295000   2.926206   -3.267005
 0.300000   2.909861   -3.270596
 0.305000   2.893500   -3.273923
 0.310000   2.877122   -3.276986
 0.315000   2.860730   -3.279786
 0.320000   2.844324   -3.282325
 0.325000   2.827907   -3.284603
 0.330000   2.811478   -3.286622
 0.335000   2.795040   -3.288384
 0.340000   2.778594   -3.289890
 0.345000   2.762141   -3.291140
 0.350000   2.745683   -3.292136
 0.355000   2.729220   -3.292881
 0.360000   2.712754   -3.293374
 0.365000   2.696286   -3.293618
 0.370000   2.679818   -3.293614
 0.375000   2.663350   -3.293364
 0.380000   2.646884   -3.292869
 0.385000   2.630422   -3.292130
 0.390000   2.613963   -3.291150
 0.395000   2.597510   -3.289930
 0.400000   2.581064   -3.288471
 0.405000   2.564625   -3.286776
 0.410000   2.548196   -3.284845
 0.415000   2.531777   -3.282681
 0.420000   2.515369   -3.280286
 0.425000   2.498974   -3.277661
 0.430000   2.482593   -3.274807
 0.435000   2.466226   -3.271728
 0.440000   2.449875   -3.268424
 0.445000   2.433542   -3.264898
 0.450000   2.417226   -3.261151
 0.455000   2.400930   -3.257185
 0.460000   2.384654   -3.253002
 0.465000   2.368400   -3.248605
 0.470000   2.352168   -3.243995
 0.475000   2.335960   -3.239173
 0.480000   2.319777   -3.234143
 0.485000   2.303619   -3.228906
 0.490000   2.287488   -3.223464
 0.495000   2.271384   -3.217819
 0.500000   2.255309   -3.211973
 0.505000   2.239264   -3.205928
 0.510000   2.223250   -3.199687
 0.515000   2.207268   -3.193251
 0.520000   2.191318   -3.186623
 0.525000   2.175401   -3.179805
 0.530000   2.159520   -3.172798
 0.535000   2.143673   -3.165606
 0.540000   2.127864   -3.158230
 0.545000   2.112091   -3.150672
 0.550000   2.096357   -3.142935
 0.555000   2.080662   -3.135020
 0.560000   2.065007   -3.126931
 0.565000   2.049392   -3.118668
 0.570000   2.033820   -3.110235
 0.575000   2.018290   -3.101634
 0.580000   2.002804   -3.092867
 0.585000   1.987361   -3.083936
 0.590000   1.971964   -3.074844
 0.595000   1.956613   -3.065592
 0.600000   1.941308   -3.056183
 0.605000   1.926051   -3.046620
 0.610000   1.910842   -3.036904
 0.615000   1.895682   -3.027038
 0.620000   1.880572   -3.017024
 0.625000   1.865512   -3.006865
 0.630000   1.850503   -2.996562
 0.635000   1.835546   -2.986118
 0.640000   1.820642   -2.975536
 0.645000   1.805791   -2.964818
 0.650000   1.790994   -2.953966
 0.655000   1.776251   -2.942982
 0.660000   1.761564   -2.931868
 0.665000   1.746933   -2.920628
 0.670000   1.732358   -2.909263
 0.675000   1.717840   -2.897775
 0.680000   1.703380   -2.886168
 0.685000   1.688978   -2.874443
 0.690000   1.674635   -2.862602
 0.695000   1.660352   -2.850648
 0.700000   1.646129   -2.838583
 0.705000   1.631966   -2.826410
 0.710000   1.617865   -2.814130
 0.715000   1.603825   -2.801746
 0.720000   1.589847   -2.789261
 0.725000   1.575932   -2.776677
 0.730000   1.562081   -2.763995
 0.735000   1.548292   -2.751218
 0.740000   1.534568   -2.738349
 0.745000   1.520909   -2.725390
 0.750000   1.507315   -2.712342
 0.755000   1.493786   -2.699209
 0.760000   1.480322   -2.685992
 0.765000   1.466926   -2.672694
 0.770000   1.453596   -2.659316
 0.775000   1.440332   -2.645862
 0.780000   1.427137   -2.632332
 0.785000   1.414009   -2.618729
 0.790000   1.400950   -2.605056
 0.795000   1.387959   -2.591312
 0.800000   1.375037   -2.577501
 0.805000   1.362184   -2.563624
 0.810000   1.349400   -2.549680
 0.815000   1.336687   -2.535669
 0.820000   1.324044   -2.521590
 0.825000   1.311471   -2.507439
 0.830000   1.298969   -2.493210
 0.835000   1.286539   -2.478892
 0.840000   1.274180   -2.464466
 0.845000   1.261894   -2.449906
 0.850000   1.249681   -2.435172
 0.855000   1.237542   -2.420201
 0.860000   1.225479   -2.404905
 0.865000   1.213493   -2.389155
 0.870000   1.201588   -2.372771
 0.875000   1.189766   -2.355508
 0.880000   1.178033   -2.337040
 0.885000   1.166395   -2.316968
 0.890000   1.154863   -2.294847
 0.895000   1.143447   -2.270290
 0.900000   1.132160   -2.243228
 0.905000   1.121015   -2.214459
 0.910000   1.110015   -2.186788
 0.915000   1.099147   -2.167252
 0.920000   1.088343   -2.171358
 0.925000   1.077433   -2.230880
 0.930000   1.066034   -2.407731
 0.935000   1.053356   -2.817195
 0.940000   1.037862   -3.662807
 0.945000   1.016728   -5.276169
 0.950000   0.985100   -8.123553
 0.955000   0.935492   -12.668290
 0.960000   0.858418   -18.903741
 0.965000   0.746455   -25.567444
 0.970000   0.602743   -29.892800
 0.975000   0.447527   -29.272482
 0.980000   0.310018   -23.882046
 0.985000   0.208706   -16.671305
 0.990000   0.143305   -10.501049
 0.995000   0.103696   -6.348065
 1.000000   0.079825   -3.200428
201 psinorm ni(10^20/m^3) dni/dpsiN
 0.000000   0.329190   -0.521106
 0.005000   0.326849   -0.415297
 0.010000   0.325037   -0.333311
 0.015000   0.323516   -0.281591
 0.020000   0.322221   -0.240200
 0.025000   0.321114   -0.205077
 0.030000   0.320170   -0.175423
 0.035000   0.319360   -0.151268
 0.040000   0.318658   -0.131491
 0.045000   0.318045   -0.115071
 0.050000   0.317507   -0.102065
 0.055000   0.317024   -0.092161
 0.060000   0.316585   -0.084076
 0.065000   0.316183   -0.077969
 0.070000   0.315806   -0.073971
 0.075000   0.315444   -0.071233
 0.080000   0.315093   -0.069668
 0.085000   0.314747   -0.069845
 0.090000   0.314395   -0.071177
 0.095000   0.314035   -0.073103
 0.100000   0.313664   -0.075786
 0.105000   0.313277   -0.079807
 0.110000   0.312866   -0.084497
 0.115000   0.312432   -0.089022
 0.120000   0.311976   -0.093891
 0.125000   0.311494   -0.099086
 0.130000   0.310985   -0.104541
 0.135000   0.310448   -0.110190
 0.140000   0.309883   -0.115813
 0.145000   0.309290   -0.121491
 0.150000   0.308668   -0.127368
 0.155000   0.308016   -0.133248
 0.160000   0.307336   -0.139067
 0.165000   0.306626   -0.144796
 0.170000   0.305888   -0.150373
 0.175000   0.305122   -0.155795
 0.180000   0.304330   -0.161086
 0.185000   0.303511   -0.166187
 0.190000   0.302668   -0.171019
 0.195000   0.301801   -0.175595
 0.200000   0.300912   -0.179934
 0.205000   0.300002   -0.184041
 0.210000   0.299071   -0.187907
 0.215000   0.298122   -0.191526
 0.220000   0.297156   -0.195292
 0.225000   0.296170   -0.198860
 0.230000   0.295168   -0.201788
 0.235000   0.294152   -0.204424
 0.240000   0.293123   -0.206825
 0.245000   0.292083   -0.209000
 0.250000   0.291033   -0.210969
 0.255000   0.289974   -0.213083
 0.260000   0.288902   -0.215054
 0.265000   0.287823   -0.216459
 0.270000   0.286738   -0.217590
 0.275000   0.285647   -0.218548
 0.280000   0.284552   -0.219368
 0.285000   0.283454   -0.220388
 0.290000   0.282348   -0.221204
 0.295000   0.281242   -0.221497
 0.300000   0.280134   -0.221666
 0.305000   0.279025   -0.221718
 0.310000   0.277916   -0.221935
 0.315000   0.276806   -0.222027
 0.320000   0.275696   -0.221701
 0.325000   0.274589   -0.221260
 0.330000   0.273483   -0.220789
 0.335000   0.272381   -0.220422
 0.340000   0.271279   -0.219910
 0.345000   0.270182   -0.219143
 0.350000   0.269088   -0.218342
 0.355000   0.267998   -0.217636
 0.360000   0.266911   -0.216926
 0.365000   0.265829   -0.216023
 0.370000   0.264751   -0.215025
 0.375000   0.263679   -0.214054
 0.380000   0.262611   -0.213110
 0.385000   0.261548   -0.212021
 0.390000   0.260490   -0.210776
 0.395000   0.259440   -0.209498
 0.400000   0.258395   -0.208251
 0.405000   0.257357   -0.206892
 0.410000   0.256327   -0.205353
 0.415000   0.255304   -0.203765
 0.420000   0.254289   -0.202220
 0.425000   0.253282   -0.200602
 0.430000   0.252283   -0.198831
 0.435000   0.251293   -0.197014
 0.440000   0.250313   -0.195256
 0.445000   0.249341   -0.193474
 0.450000   0.248378   -0.191577
 0.455000   0.247425   -0.189679
 0.460000   0.246481   -0.187864
 0.465000   0.245546   -0.186033
 0.470000   0.244621   -0.184109
 0.475000   0.243705   -0.182189
 0.480000   0.242799   -0.180319
 0.485000   0.241902   -0.178384
 0.490000   0.241015   -0.176314
 0.495000   0.240139   -0.174213
 0.500000   0.239273   -0.172122
 0.505000   0.238418   -0.169947
 0.510000   0.237574   -0.167644
 0.515000   0.236741   -0.165310
 0.520000   0.235920   -0.162975
 0.525000   0.235111   -0.160564
 0.530000   0.234315   -0.158052
 0.535000   0.233531   -0.155516
 0.540000   0.232760   -0.152972
 0.545000   0.232001   -0.150355
 0.550000   0.231256   -0.147649
 0.555000   0.230525   -0.144914
 0.560000   0.229807   -0.142157
 0.565000   0.229103   -0.139321
 0.570000   0.228414   -0.136398
 0.575000   0.227739   -0.133432
 0.580000   0.227079   -0.130425
 0.585000   0.226435   -0.127340
 0.590000   0.225806   -0.124178
 0.595000   0.225193   -0.120976
 0.600000   0.224596   -0.117743
 0.605000   0.224016   -0.114463
 0.610000   0.223452   -0.111139
 0.615000   0.222904   -0.107792
 0.620000   0.222374   -0.104418
 0.625000   0.221860   -0.101002
 0.630000   0.221364   -0.097535
 0.635000   0.220885   -0.094011
 0.640000   0.220424   -0.090408
 0.645000   0.219981   -0.086728
 0.650000   0.219556   -0.082972
 0.655000   0.219151   -0.079143
 0.660000   0.218765   -0.075249
 0.665000   0.218398   -0.071284
 0.670000   0.218052   -0.067289
 0.675000   0.217726   -0.063277
 0.680000   0.217419   -0.059143
 0.685000   0.217134   -0.054672
 0.690000   0.216873   -0.049764
 0.695000   0.216637   -0.044391
 0.700000   0.216429   -0.038481
 0.705000   0.216252   -0.032021
 0.710000   0.216108   -0.024791
 0.715000   0.216004   -0.016989
 0.720000   0.215939   -0.009114
 0.725000   0.215913   -0.001180
 0.730000   0.215927   0.006840
 0.735000   0.215981   0.014823
 0.740000   0.216075   0.022657
 0.745000   0.216208   0.029963
 0.750000   0.216375   0.036304
 0.755000   0.216571   0.041654
 0.760000   0.216791   0.046049
 0.765000   0.217031   0.049353
 0.770000   0.217285   0.051299
 0.775000   0.217544   0.051731
 0.780000   0.217802   0.051194
 0.785000   0.218056   0.050215
 0.790000   0.218304   0.048905
 0.795000   0.218545   0.047505
 0.800000   0.218779   0.046154
 0.805000   0.219007   0.045143
 0.810000   0.219231   0.045188
 0.815000   0.219459   0.046511
 0.820000   0.219696   0.048904
 0.825000   0.219948   0.052381
 0.830000   0.220220   0.056917
 0.835000   0.220517   0.062517
 0.840000   0.220845   0.069294
 0.845000   0.221210   0.077490
 0.850000   0.221620   0.087413
 0.855000   0.222084   0.099363
 0.860000   0.222613   0.113704
 0.865000   0.223221   0.130929
 0.870000   0.223923   0.151581
 0.875000   0.224737   0.176241
 0.880000   0.225685   0.205142
 0.885000   0.226788   0.237762
 0.890000   0.228063   0.272663
 0.895000   0.229515   0.307967
 0.900000   0.231142   0.338642
 0.905000   0.232901   0.356810
 0.910000   0.234710   0.351758
 0.915000   0.236419   0.306606
 0.920000   0.237776   0.198457
 0.925000   0.238403   0.002092
 0.930000   0.237797   -0.312162
 0.935000   0.235282   -0.766415
 0.940000   0.230133   -1.354075
 0.945000   0.221741   -2.027222
 0.950000   0.209861   -2.687315
 0.955000   0.194868   -3.195847
 0.960000   0.177902   -3.435275
 0.965000   0.160515   -3.361244
 0.970000   0.144290   -3.018910
 0.975000   0.130326   -2.533663
 0.980000   0.118953   -2.048480
 0.985000   0.109841   -1.659974
 0.990000   0.102354   -1.394721
 0.995000   0.095894   -1.222342
 1.000000   0.090130   -1.083133
201 psinorm ti(KeV) dti/dpsiN
 0.000000   5.444154   0.002370
 0.005000   5.443564   -0.238251
 0.010000   5.441771   -0.482325
 0.015000   5.438741   -0.733035
 0.020000   5.434441   -0.989776
 0.025000   5.428843   -1.251840
 0.030000   5.421922   -1.518444
 0.035000   5.413659   -1.788773
 0.040000   5.404035   -2.061706
 0.045000   5.393041   -2.336539
 0.050000   5.380669   -2.612808
 0.055000   5.366913   -2.889652
 0.060000   5.351773   -3.166245
 0.065000   5.335251   -3.441633
 0.070000   5.317356   -3.713842
 0.075000   5.298113   -3.981986
 0.080000   5.277537   -4.246341
 0.085000   5.255649   -4.506226
 0.090000   5.232474   -4.761033
 0.095000   5.208039   -5.010322
 0.100000   5.182371   -5.252784
 0.105000   5.155511   -5.488269
 0.110000   5.127488   -5.717433
 0.115000   5.098337   -5.939628
 0.120000   5.068092   -6.154721
 0.125000   5.036789   -6.363381
 0.130000   5.004458   -6.566610
 0.135000   4.971123   -6.765015
 0.140000   4.936808   -6.957237
 0.145000   4.901551   -7.141434
 0.150000   4.865394   -7.316928
 0.155000   4.828382   -7.483325
 0.160000   4.790561   -7.640097
 0.165000   4.751981   -7.786431
 0.170000   4.712696   -7.921813
 0.175000   4.672763   -8.045924
 0.180000   4.632237   -8.158403
 0.185000   4.591178   -8.259110
 0.190000   4.549646   -8.347482
 0.195000   4.507704   -8.423199
 0.200000   4.465414   -8.488441
 0.205000   4.422819   -8.545536
 0.210000   4.379959   -8.595800
 0.215000   4.336861   -8.641025
 0.220000   4.293548   -8.683164
 0.225000   4.250030   -8.725164
 0.230000   4.206297   -8.765753
 0.235000   4.162372   -8.802525
 0.240000   4.118271   -8.835937
 0.245000   4.074013   -8.865381
 0.250000   4.029618   -8.890765
 0.255000   3.985105   -8.912764
 0.260000   3.940490   -8.922547
 0.265000   3.895880   -8.914803
 0.270000   3.851342   -8.893134
 0.275000   3.806948   -8.857010
 0.280000   3.762772   -8.806003
 0.285000   3.718888   -8.738873
 0.290000   3.675383   -8.653921
 0.295000   3.632349   -8.551937
 0.300000   3.589864   -8.433929
 0.305000   3.548010   -8.299420
 0.310000   3.506870   -8.148747
 0.315000   3.466522   -7.980453
 0.320000   3.427065   -7.809220
 0.325000   3.388430   -7.647652
 0.330000   3.350589   -7.492097
 0.335000   3.313509   -7.343096
 0.340000   3.277158   -7.201058
 0.345000   3.241499   -7.069427
 0.350000   3.206463   -6.947705
 0.355000   3.172021   -6.831078
 0.360000   3.138153   -6.718252
 0.365000   3.104839   -6.608287
 0.370000   3.072070   -6.499857
 0.375000   3.039840   -6.396978
 0.380000   3.008100   -6.291850
 0.385000   2.976922   -6.171177
 0.390000   2.946388   -6.034666
 0.395000   2.916575   -5.882570
 0.400000   2.887562   -5.715030
 0.405000   2.859425   -5.530532
 0.410000   2.832257   -5.329156
 0.415000   2.806133   -5.117601
 0.420000   2.781081   -4.901788
 0.425000   2.757115   -4.684770
 0.430000   2.734233   -4.470080
 0.435000   2.712415   -4.256726
 0.440000   2.691666   -4.048820
 0.445000   2.671926   -3.855860
 0.450000   2.653107   -3.677608
 0.455000   2.635150   -3.511435
 0.460000   2.617993   -3.357879
 0.465000   2.601572   -3.216177
 0.470000   2.585831   -3.088258
 0.475000   2.570689   -2.977464
 0.480000   2.556057   -2.881960
 0.485000   2.541869   -2.798926
 0.490000   2.528067   -2.726900
 0.495000   2.514600   -2.663969
 0.500000   2.501428   -2.606391
 0.505000   2.488536   -2.550038
 0.510000   2.475927   -2.495000
 0.515000   2.463586   -2.443313
 0.520000   2.451494   -2.395961
 0.525000   2.439627   -2.353754
 0.530000   2.427957   -2.317195
 0.535000   2.416455   -2.286262
 0.540000   2.405094   -2.260789
 0.545000   2.393847   -2.240725
 0.550000   2.382687   -2.225963
 0.555000   2.371587   -2.216406
 0.560000   2.360523   -2.212041
 0.565000   2.349467   -2.212489
 0.570000   2.338398   -2.217401
 0.575000   2.327293   -2.226719
 0.580000   2.316131   -2.240207
 0.585000   2.304891   -2.257612
 0.590000   2.293555   -2.278713
 0.595000   2.282104   -2.303042
 0.600000   2.270524   -2.330273
 0.605000   2.258801   -2.360447
 0.610000   2.246920   -2.393540
 0.615000   2.234866   -2.429520
 0.620000   2.222625   -2.468742
 0.625000   2.210178   -2.510716
 0.630000   2.197517   -2.554544
 0.635000   2.184633   -2.599992
 0.640000   2.171517   -2.646633
 0.645000   2.158166   -2.693999
 0.650000   2.144577   -2.742251
 0.655000   2.130744   -2.790371
 0.660000   2.116674   -2.837610
 0.665000   2.102368   -2.885201
 0.670000   2.087822   -2.934038
 0.675000   2.073027   -2.984648
 0.680000   2.057975   -3.039470
 0.685000   2.042633   -3.096988
 0.690000   2.027005   -3.152122
 0.695000   2.011112   -3.203030
 0.700000   1.994975   -3.248378
 0.705000   1.978628   -3.286844
 0.710000   1.962107   -3.318939
 0.715000   1.945438   -3.343475
 0.720000   1.928672   -3.358310
 0.725000   1.911855   -3.364009
 0.730000   1.895032   -3.360971
 0.735000   1.878246   -3.349051
 0.740000   1.861541   -3.327678
 0.745000   1.844969   -3.296393
 0.750000   1.828577   -3.256624
 0.755000   1.812403   -3.210021
 0.760000   1.796477   -3.157783
 0.765000   1.780825   -3.101880
 0.770000   1.765458   -3.044387
 0.775000   1.750381   -2.988301
 0.780000   1.735575   -2.934810
 0.785000   1.721033   -2.881583
 0.790000   1.706759   -2.826709
 0.795000   1.692766   -2.769698
 0.800000   1.679063   -2.710390
 0.805000   1.665662   -2.648992
 0.810000   1.652573   -2.587834
 0.815000   1.639783   -2.529852
 0.820000   1.627274   -2.476756
 0.825000   1.615016   -2.429999
 0.830000   1.602974   -2.390900
 0.835000   1.591107   -2.361444
 0.840000   1.579360   -2.339653
 0.845000   1.567710   -2.323171
 0.850000   1.556128   -2.314082
 0.855000   1.544569   -2.315287
 0.860000   1.532975   -2.331560
 0.865000   1.521254   -2.373485
 0.870000   1.509240   -2.438457
 0.875000   1.496869   -2.520990
 0.880000   1.484030   -2.627488
 0.885000   1.470594   -2.762096
 0.890000   1.456409   -2.930587
 0.895000   1.441289   -3.155558
 0.900000   1.424854   -3.432221
 0.905000   1.406966   -3.757545
 0.910000   1.387278   -4.160846
 0.915000   1.365358   -4.658896
 0.920000   1.340689   -5.267813
 0.925000   1.312680   -6.046746
 0.930000   1.280222   -6.970491
 0.935000   1.242975   -7.983297
 0.940000   1.200389   -9.094538
 0.945000   1.152029   -10.266243
 0.950000   1.097726   -11.433289
 0.955000   1.037697   -12.548328
 0.960000   0.972243   -13.462855
 0.965000   0.903068   -14.032521
 0.970000   0.831918   -14.239125
 0.975000   0.760677   -14.063565
 0.980000   0.691282   -13.515194
 0.985000   0.625525   -12.637797
 0.990000   0.564904   -11.496106
 0.995000   0.510564   -10.190512
 1.000000   0.462999   -8.835298
201 psinorm nb(10^20/m^3) dnb/dpsiN
 0.000000   0.092943   0.047346
 0.005000   0.092925   -0.054510
 0.010000   0.092398   -0.132559
 0.015000   0.091599   -0.180376
 0.020000   0.090594   -0.217899
 0.025000   0.089420   -0.249188
 0.030000   0.088102   -0.275043
 0.035000   0.086670   -0.295432
 0.040000   0.085148   -0.311479
 0.045000   0.083555   -0.324204
 0.050000   0.081906   -0.333552
 0.055000   0.080220   -0.339832
 0.060000   0.078507   -0.344329
 0.065000   0.076776   -0.346883
 0.070000   0.075038   -0.347367
 0.075000   0.073303   -0.346625
 0.080000   0.071572   -0.344748
 0.085000   0.069855   -0.341165
 0.090000   0.068161   -0.336464
 0.095000   0.066490   -0.331206
 0.100000   0.064849   -0.325229
 0.105000   0.063238   -0.317950
 0.110000   0.061669   -0.310040
 0.115000   0.060138   -0.302331
 0.120000   0.058646   -0.294315
 0.125000   0.057195   -0.286010
 0.130000   0.055786   -0.277481
 0.135000   0.054420   -0.268795
 0.140000   0.053098   -0.260170
 0.145000   0.051818   -0.251527
 0.150000   0.050582   -0.242720
 0.155000   0.049391   -0.233945
 0.160000   0.048243   -0.225266
 0.165000   0.047138   -0.216711
 0.170000   0.046076   -0.208344
 0.175000   0.045055   -0.200166
 0.180000   0.044074   -0.192153
 0.185000   0.043133   -0.184364
 0.190000   0.042231   -0.176877
 0.195000   0.041364   -0.169680
 0.200000   0.040534   -0.162752
 0.205000   0.039737   -0.156088
 0.210000   0.038973   -0.149697
 0.215000   0.038240   -0.143583
 0.220000   0.037537   -0.137352
 0.225000   0.036866   -0.131351
 0.230000   0.036224   -0.126021
 0.235000   0.035606   -0.121014
 0.240000   0.035013   -0.116274
 0.245000   0.034444   -0.111791
 0.250000   0.033895   -0.107545
 0.255000   0.033368   -0.103186
 0.260000   0.032864   -0.098999
 0.265000   0.032378   -0.095405
 0.270000   0.031910   -0.092110
 0.275000   0.031457   -0.089014
 0.280000   0.031019   -0.086078
 0.285000   0.030596   -0.082966
 0.290000   0.030190   -0.080077
 0.295000   0.029795   -0.077729
 0.300000   0.029412   -0.075522
 0.305000   0.029040   -0.073447
 0.310000   0.028678   -0.071221
 0.315000   0.028328   -0.069129
 0.320000   0.027987   -0.067463
 0.325000   0.027653   -0.065919
 0.330000   0.027328   -0.064418
 0.335000   0.027009   -0.062826
 0.340000   0.026699   -0.061400
 0.345000   0.026395   -0.060259
 0.350000   0.026097   -0.059185
 0.355000   0.025803   -0.058038
 0.360000   0.025516   -0.056915
 0.365000   0.025234   -0.056000
 0.370000   0.024956   -0.055187
 0.375000   0.024682   -0.054352
 0.380000   0.024413   -0.053474
 0.385000   0.024148   -0.052709
 0.390000   0.023886   -0.052068
 0.395000   0.023627   -0.051425
 0.400000   0.023371   -0.050710
 0.405000   0.023120   -0.050056
 0.410000   0.022871   -0.049528
 0.415000   0.022625   -0.049003
 0.420000   0.022381   -0.048392
 0.425000   0.022141   -0.047811
 0.430000   0.021903   -0.047343
 0.435000   0.021667   -0.046872
 0.440000   0.021434   -0.046302
 0.445000   0.021204   -0.045748
 0.450000   0.020977   -0.045305
 0.455000   0.020751   -0.044859
 0.460000   0.020528   -0.044326
 0.465000   0.020308   -0.043810
 0.470000   0.020090   -0.043390
 0.475000   0.019874   -0.042960
 0.480000   0.019660   -0.042455
 0.485000   0.019449   -0.041980
 0.490000   0.019240   -0.041601
 0.495000   0.019033   -0.041209
 0.500000   0.018828   -0.040762
 0.505000   0.018626   -0.040352
 0.510000   0.018425   -0.040024
 0.515000   0.018226   -0.039681
 0.520000   0.018028   -0.039297
 0.525000   0.017833   -0.038946
 0.530000   0.017639   -0.038657
 0.535000   0.017446   -0.038356
 0.540000   0.017255   -0.038028
 0.545000   0.017066   -0.037738
 0.550000   0.016878   -0.037502
 0.555000   0.016691   -0.037258
 0.560000   0.016505   -0.036999
 0.565000   0.016321   -0.036778
 0.570000   0.016137   -0.036603
 0.575000   0.015955   -0.036429
 0.580000   0.015773   -0.036253
 0.585000   0.015592   -0.036111
 0.590000   0.015412   -0.036005
 0.595000   0.015232   -0.035909
 0.600000   0.015053   -0.035820
 0.605000   0.014874   -0.035758
 0.610000   0.014695   -0.035727
 0.615000   0.014517   -0.035710
 0.620000   0.014338   -0.035716
 0.625000   0.014159   -0.035747
 0.630000   0.013981   -0.035793
 0.635000   0.013802   -0.035853
 0.640000   0.013622   -0.035947
 0.645000   0.013442   -0.036068
 0.650000   0.013261   -0.036191
 0.655000   0.013080   -0.036323
 0.660000   0.012898   -0.036484
 0.665000   0.012715   -0.036681
 0.670000   0.012531   -0.036879
 0.675000   0.012347   -0.037068
 0.680000   0.012161   -0.037265
 0.685000   0.011974   -0.037511
 0.690000   0.011786   -0.037769
 0.695000   0.011596   -0.037996
 0.700000   0.011406   -0.038228
 0.705000   0.011214   -0.038480
 0.710000   0.011021   -0.038774
 0.715000   0.010826   -0.039063
 0.720000   0.010630   -0.039324
 0.725000   0.010433   -0.039589
 0.730000   0.010234   -0.039874
 0.735000   0.010034   -0.040194
 0.740000   0.009832   -0.040501
 0.745000   0.009629   -0.040778
 0.750000   0.009425   -0.041053
 0.755000   0.009219   -0.041329
 0.760000   0.009011   -0.041628
 0.765000   0.008802   -0.041906
 0.770000   0.008592   -0.042134
 0.775000   0.008381   -0.042349
 0.780000   0.008169   -0.042548
 0.785000   0.007956   -0.042741
 0.790000   0.007741   -0.042923
 0.795000   0.007526   -0.043074
 0.800000   0.007311   -0.043193
 0.805000   0.007094   -0.043292
 0.810000   0.006878   -0.043368
 0.815000   0.006661   -0.043419
 0.820000   0.006443   -0.043434
 0.825000   0.006226   -0.043411
 0.830000   0.006009   -0.043352
 0.835000   0.005793   -0.043255
 0.840000   0.005577   -0.043119
 0.845000   0.005362   -0.042944
 0.850000   0.005147   -0.042727
 0.855000   0.004934   -0.042440
 0.860000   0.004723   -0.042103
 0.865000   0.004513   -0.041786
 0.870000   0.004305   -0.041515
 0.875000   0.004098   -0.041279
 0.880000   0.003892   -0.041070
 0.885000   0.003687   -0.040876
 0.890000   0.003484   -0.040680
 0.895000   0.003281   -0.040461
 0.900000   0.003079   -0.040193
 0.905000   0.002879   -0.039855
 0.910000   0.002680   -0.039405
 0.915000   0.002485   -0.038808
 0.920000   0.002292   -0.038033
 0.925000   0.002104   -0.037072
 0.930000   0.001922   -0.036010
 0.935000   0.001744   -0.035006
 0.940000   0.001572   -0.034258
 0.945000   0.001402   -0.033914
 0.950000   0.001232   -0.033887
 0.955000   0.001063   -0.033609
 0.960000   0.000896   -0.032271
 0.965000   0.000740   -0.029467
 0.970000   0.000602   -0.025492
 0.975000   0.000485   -0.021068
 0.980000   0.000391   -0.017081
 0.985000   0.000314   -0.014359
 0.990000   0.000247   -0.012797
 0.995000   0.000186   -0.012563
 1.000000   0.000122   -0.013300
201 psinorm pb(KPa) dpb/dpsiN
 0.000000   37.629427   2.566007
 0.005000   37.543695   -36.858795
 0.010000   37.260839   -67.148833
 0.015000   36.872207   -85.442312
 0.020000   36.406416   -99.387323
 0.025000   35.878334   -110.903792
 0.030000   35.297378   -120.303913
 0.035000   34.675295   -127.564320
 0.040000   34.021735   -133.111386
 0.045000   33.344181   -137.369793
 0.050000   32.648037   -140.247001
 0.055000   31.941711   -141.976442
 0.060000   31.228273   -143.126804
 0.065000   30.510443   -143.580842
 0.070000   29.792464   -143.285904
 0.075000   29.077584   -142.599428
 0.080000   28.366470   -141.519234
 0.085000   27.662391   -139.722117
 0.090000   26.969249   -137.497731
 0.095000   26.287414   -135.095665
 0.100000   25.618292   -132.437214
 0.105000   24.963042   -129.241895
 0.110000   24.325873   -125.815888
 0.115000   23.704883   -122.546483
 0.120000   23.100409   -119.187068
 0.125000   22.513012   -115.731012
 0.130000   21.943098   -112.202578
 0.135000   21.390987   -108.628635
 0.140000   20.856812   -105.120414
 0.145000   20.339783   -101.621594
 0.150000   19.840596   -98.039818
 0.155000   19.359384   -94.472271
 0.160000   18.895873   -90.952726
 0.165000   18.449857   -87.492203
 0.170000   18.020951   -84.112728
 0.175000   17.608730   -80.815380
 0.180000   17.212798   -77.588157
 0.185000   16.832848   -74.455827
 0.190000   16.468239   -71.451142
 0.195000   16.118337   -68.566231
 0.200000   15.782577   -65.792367
 0.205000   15.460413   -63.127478
 0.210000   15.151302   -60.574184
 0.215000   14.854671   -58.133185
 0.220000   14.569970   -55.653760
 0.225000   14.298134   -53.251911
 0.230000   14.037451   -51.111301
 0.235000   13.787021   -49.118454
 0.240000   13.546267   -47.236363
 0.245000   13.314657   -45.456839
 0.250000   13.091698   -43.771264
 0.255000   12.876944   -42.048422
 0.260000   12.671214   -40.395388
 0.265000   12.472991   -38.969874
 0.270000   12.281515   -37.662846
 0.275000   12.096362   -36.437166
 0.280000   11.917144   -35.275418
 0.285000   11.743608   -34.047415
 0.290000   11.576670   -32.903512
 0.295000   11.414573   -31.963768
 0.300000   11.257032   -31.078971
 0.305000   11.103783   -30.244968
 0.310000   10.954582   -29.354716
 0.315000   10.810236   -28.516155
 0.320000   10.669421   -27.839365
 0.325000   10.531842   -27.210954
 0.330000   10.397311   -26.601707
 0.335000   10.265825   -25.961085
 0.340000   10.137700   -25.382058
 0.345000   10.012005   -24.909837
 0.350000   9.888602   -24.463923
 0.355000   9.767365   -23.992681
 0.360000   9.648675   -23.531186
 0.365000   9.532054   -23.148413
 0.370000   9.417191   -22.804507
 0.375000   9.304008   -22.453427
 0.380000   9.192657   -22.088325
 0.385000   9.083125   -21.763979
 0.390000   8.975017   -21.483677
 0.395000   8.868288   -21.202017
 0.400000   8.762997   -20.899056
 0.405000   8.659298   -20.623439
 0.410000   8.556762   -20.394228
 0.415000   8.455356   -20.167180
 0.420000   8.355091   -19.911549
 0.425000   8.256240   -19.667279
 0.430000   8.158418   -19.462856
 0.435000   8.061612   -19.257154
 0.440000   7.965846   -19.016347
 0.445000   7.871448   -18.780959
 0.450000   7.778037   -18.586636
 0.455000   7.685582   -18.394539
 0.460000   7.594091   -18.174663
 0.465000   7.503835   -17.957507
 0.470000   7.414516   -17.771444
 0.475000   7.326121   -17.582675
 0.480000   7.238689   -17.369802
 0.485000   7.152423   -17.169222
 0.490000   7.066997   -17.003082
 0.495000   6.982392   -16.834696
 0.500000   6.898650   -16.650257
 0.505000   6.815889   -16.480883
 0.510000   6.733841   -16.340026
 0.515000   6.652489   -16.195892
 0.520000   6.571883   -16.040083
 0.525000   6.492088   -15.894206
 0.530000   6.412940   -15.766586
 0.535000   6.334422   -15.637172
 0.540000   6.256569   -15.501632
 0.545000   6.179406   -15.378258
 0.550000   6.102786   -15.271146
 0.555000   6.026695   -15.162276
 0.560000   5.951163   -15.049391
 0.565000   5.876201   -14.947962
 0.570000   5.801684   -14.861062
 0.575000   5.727590   -14.776793
 0.580000   5.653916   -14.693692
 0.585000   5.580653   -14.618668
 0.590000   5.507729   -14.552873
 0.595000   5.435124   -14.490937
 0.600000   5.362820   -14.432211
 0.605000   5.290802   -14.380934
 0.610000   5.219010   -14.337991
 0.615000   5.147422   -14.299758
 0.620000   5.076013   -14.272194
 0.625000   5.004700   -14.251584
 0.630000   4.933497   -14.231910
 0.635000   4.862381   -14.216660
 0.640000   4.791330   -14.213636
 0.645000   4.720245   -14.219248
 0.650000   4.649138   -14.223963
 0.655000   4.578005   -14.230672
 0.660000   4.506831   -14.245724
 0.665000   4.435548   -14.271545
 0.670000   4.364116   -14.296476
 0.675000   4.292583   -14.317306
 0.680000   4.220943   -14.339535
 0.685000   4.149188   -14.375696
 0.690000   4.077186   -14.414256
 0.695000   4.005045   -14.441933
 0.700000   3.932766   -14.470638
 0.705000   3.860339   -14.505374
 0.710000   3.787713   -14.552857
 0.715000   3.714810   -14.599018
 0.720000   3.641723   -14.636718
 0.725000   3.568443   -14.675668
 0.730000   3.494966   -14.721042
 0.735000   3.421233   -14.777105
 0.740000   3.347195   -14.829387
 0.745000   3.272939   -14.872658
 0.750000   3.198468   -14.915035
 0.755000   3.123789   -14.957139
 0.760000   3.048897   -15.005302
 0.765000   2.973736   -15.044961
 0.770000   2.898447   -15.068063
 0.775000   2.823055   -15.086141
 0.780000   2.747586   -15.098628
 0.785000   2.672069   -15.107848
 0.790000   2.596507   -15.113033
 0.795000   2.520938   -15.108973
 0.800000   2.445418   -15.096347
 0.805000   2.369975   -15.077498
 0.810000   2.294643   -15.051804
 0.815000   2.219457   -15.017767
 0.820000   2.144465   -14.971115
 0.825000   2.069746   -14.912058
 0.830000   1.995344   -14.842369
 0.835000   1.921322   -14.760223
 0.840000   1.847742   -14.665516
 0.845000   1.774667   -14.558245
 0.850000   1.702160   -14.436998
 0.855000   1.630297   -14.291920
 0.860000   1.559240   -14.129099
 0.865000   1.489006   -13.969414
 0.870000   1.419546   -13.816057
 0.875000   1.350845   -13.665061
 0.880000   1.282896   -13.513845
 0.885000   1.215707   -13.358867
 0.890000   1.149307   -13.195697
 0.895000   1.083750   -13.017611
 0.900000   1.019131   -12.816509
 0.905000   0.955585   -12.584796
 0.910000   0.893283   -12.298834
 0.915000   0.832596   -11.955971
 0.920000   0.773723   -11.557760
 0.925000   0.717019   -11.094209
 0.930000   0.662781   -10.590986
 0.935000   0.611109   -10.110216
 0.940000   0.561679   -9.748598
 0.945000   0.513623   -9.618405
 0.950000   0.465495   -9.804899
 0.955000   0.415574   -10.257000
 0.960000   0.362925   -10.752856
 0.965000   0.308045   -11.007423
 0.970000   0.252851   -10.799933
 0.975000   0.200046   -10.016055
 0.980000   0.152690   -8.702770
 0.985000   0.113018   -7.083976
 0.990000   0.081850   -5.403756
 0.995000   0.058981   -4.232046
 1.000000   0.039530   -3.548312
201 psinorm ptot(KPa) dptot/dpsiN
 0.000000   99.141889   -92.990173
 0.005000   98.598859   -124.221823
 0.010000   97.899671   -148.407532
 0.015000   97.114783   -163.258915
 0.020000   96.267081   -174.685485
 0.025000   95.367929   -184.252232
 0.030000   94.424559   -192.199381
 0.035000   93.445935   -198.503121
 0.040000   92.439528   -203.486740
 0.045000   91.411067   -207.482940
 0.050000   90.364698   -210.401167
 0.055000   89.307056   -212.442749
 0.060000   88.240271   -214.060547
 0.065000   87.166450   -215.145153
 0.070000   86.088819   -215.643268
 0.075000   85.010018   -215.834155
 0.080000   83.930478   -215.708352
 0.085000   82.852934   -214.985715
 0.090000   81.780621   -213.901374
 0.095000   80.713920   -212.654063
 0.100000   79.654080   -211.170570
 0.105000   78.602215   -209.216035
 0.110000   77.561920   -207.043120
 0.115000   76.531783   -204.965942
 0.120000   75.512260   -202.778386
 0.125000   74.504000   -200.475040
 0.130000   73.507510   -198.079180
 0.135000   72.523208   -195.614707
 0.140000   71.551363   -193.167672
 0.145000   70.591531   -190.678201
 0.150000   69.644581   -188.061429
 0.155000   68.710917   -185.396709
 0.160000   67.790614   -182.710217
 0.165000   66.883815   -180.006704
 0.170000   65.990547   -177.301088
 0.175000   65.110804   -174.593209
 0.180000   64.244615   -171.871708
 0.185000   63.392087   -169.156884
 0.190000   62.553046   -166.473834
 0.195000   61.727348   -163.815146
 0.200000   60.914894   -161.185709
 0.205000   60.115491   -158.596713
 0.210000   59.328927   -156.057700
 0.215000   58.554914   -153.579082
 0.220000   57.793136   -151.047581
 0.225000   57.044438   -148.570576
 0.230000   56.307431   -146.296066
 0.235000   55.581478   -144.123523
 0.240000   54.866195   -142.023031
 0.245000   54.161247   -139.984881
 0.250000   53.466347   -138.002173
 0.255000   52.781226   -135.969913
 0.260000   52.106647   -133.934452
 0.265000   51.441881   -132.002297
 0.270000   50.786624   -130.102706
 0.275000   50.140854   -128.203860
 0.280000   49.504586   -126.289954
 0.285000   48.877955   -124.246238
 0.290000   48.262124   -122.192325
 0.295000   47.656031   -120.235034
 0.300000   47.059773   -118.255508
 0.305000   46.473476   -116.249333
 0.310000   45.897280   -114.128122
 0.315000   45.332195   -111.978065
 0.320000   44.777499   -109.962819
 0.325000   44.232567   -108.045331
 0.330000   43.697046   -106.183457
 0.335000   43.170732   -104.335909
 0.340000   42.653687   -102.583791
 0.345000   42.144894   -100.981998
 0.350000   41.643867   -99.458899
 0.355000   41.150305   -97.946928
 0.360000   40.664398   -96.469947
 0.365000   40.185606   -95.082943
 0.370000   39.713568   -93.745173
 0.375000   39.248154   -92.434458
 0.380000   38.789224   -91.109099
 0.385000   38.337063   -89.756819
 0.390000   37.891655   -88.380303
 0.395000   37.453260   -86.942302
 0.400000   37.022232   -85.427426
 0.405000   36.598986   -83.872212
 0.410000   36.183510   -82.294084
 0.415000   35.776045   -80.684919
 0.420000   35.376661   -79.044185
 0.425000   34.985603   -77.419973
 0.430000   34.602461   -75.852305
 0.435000   34.227080   -74.300509
 0.440000   33.859456   -72.752393
 0.445000   33.499556   -71.284465
 0.450000   33.146612   -69.926509
 0.455000   32.800291   -68.632387
 0.460000   32.460288   -67.377034
 0.465000   32.126521   -66.182671
 0.470000   31.798461   -65.081630
 0.475000   31.475704   -64.057280
 0.480000   31.157888   -63.081502
 0.485000   30.844889   -62.173484
 0.490000   30.536153   -61.345812
 0.495000   30.231431   -60.557600
 0.500000   29.930577   -59.780893
 0.505000   29.633622   -59.025867
 0.510000   29.340319   -58.304545
 0.515000   29.050577   -57.597161
 0.520000   28.764347   -56.900192
 0.525000   28.481575   -56.235333
 0.530000   28.201994   -55.611674
 0.535000   27.925458   -55.011755
 0.540000   27.651876   -54.430875
 0.545000   27.381150   -53.884355
 0.550000   27.113033   -53.375030
 0.555000   26.847399   -52.886579
 0.560000   26.584167   -52.416668
 0.565000   26.323233   -51.977002
 0.570000   26.064397   -51.568767
 0.575000   25.807545   -51.181367
 0.580000   25.552583   -50.812315
 0.585000   25.299422   -50.466115
 0.590000   25.047922   -50.142930
 0.595000   24.797992   -49.836802
 0.600000   24.549554   -49.546067
 0.605000   24.302532   -49.274450
 0.610000   24.056809   -49.022780
 0.615000   23.812304   -48.787994
 0.620000   23.568930   -48.577213
 0.625000   23.326532   -48.384372
 0.630000   23.085086   -48.199788
 0.635000   22.844534   -48.026005
 0.640000   22.604826   -47.868461
 0.645000   22.365849   -47.721994
 0.650000   22.127606   -47.577979
 0.655000   21.890070   -47.435637
 0.660000   21.653249   -47.298724
 0.665000   21.417082   -47.174262
 0.670000   21.181507   -47.055392
 0.675000   20.946528   -46.941306
 0.680000   20.712094   -46.843760
 0.685000   20.478091   -46.763657
 0.690000   20.244457   -46.668402
 0.695000   20.011407   -46.537835
 0.700000   19.779079   -46.377408
 0.705000   19.547633   -46.187460
 0.710000   19.317204   -45.971429
 0.715000   19.087918   -45.716971
 0.720000   18.860035   -45.422621
 0.725000   18.633692   -45.100542
 0.730000   18.409029   -44.756688
 0.735000   18.186125   -44.397860
 0.740000   17.965051   -44.010351
 0.745000   17.746022   -43.596272
 0.750000   17.529088   -43.178860
 0.755000   17.314233   -42.764338
 0.760000   17.101444   -42.361365
 0.765000   16.890620   -41.964897
 0.770000   16.681795   -41.579684
 0.775000   16.474823   -41.230360
 0.780000   16.269492   -40.906556
 0.785000   16.065757   -40.588511
 0.790000   15.863607   -40.264909
 0.795000   15.663108   -39.922253
 0.800000   15.464384   -39.556434
 0.805000   15.267544   -39.162887
 0.810000   15.072755   -38.732590
 0.815000   14.880218   -38.268927
 0.820000   14.690066   -37.777100
 0.825000   14.502447   -37.260304
 0.830000   14.317463   -36.723095
 0.835000   14.135216   -36.167630
 0.840000   13.955787   -35.579986
 0.845000   13.779416   -34.941635
 0.850000   13.606370   -34.247339
 0.855000   13.436943   -33.486548
 0.860000   13.271505   -32.670349
 0.865000   13.110239   -31.844680
 0.870000   12.953058   -30.989337
 0.875000   12.800346   -30.069353
 0.880000   12.652365   -29.109658
 0.885000   12.509249   -28.151797
 0.890000   12.370847   -27.277917
 0.895000   12.236470   -26.668839
 0.900000   12.104158   -26.498957
 0.905000   11.971480   -27.060860
 0.910000   11.833550   -28.887855
 0.915000   11.682602   -32.700591
 0.920000   11.506544   -39.441223
 0.925000   11.288190   -50.347834
 0.930000   11.003065   -66.450590
 0.935000   10.623684   -88.420902
 0.940000   10.118856   -116.364379
 0.945000   9.460040   -148.909541
 0.950000   8.629761   -182.920832
 0.955000   7.630832   -213.543453
 0.960000   6.494326   -234.317973
 0.965000   5.287652   -238.221528
 0.970000   4.112111   -220.446567
 0.975000   3.083186   -183.142390
 0.980000   2.280687   -137.376586
 0.985000   1.709420   -96.221032
 0.990000   1.318477   -66.080955
 0.995000   1.048611   -46.549350
 1.000000   0.852983   -31.701639
201 psinorm omeg(kRad/s) domeg/dpsiN
 0.000000   60.171293   0.015813
 0.005000   60.170866   -0.186650
 0.010000   60.169427   -0.414378
 0.015000   60.166723   -0.695208
 0.020000   60.162475   -1.033121
 0.025000   60.156391   -1.430124
 0.030000   60.148174   -1.886533
 0.035000   60.137526   -2.400924
 0.040000   60.124164   -2.966806
 0.045000   60.107858   -3.579898
 0.050000   60.088365   -4.238295
 0.055000   60.065475   -4.936208
 0.060000   60.039003   -5.667838
 0.065000   60.008797   -6.426605
 0.070000   59.974737   -7.193524
 0.075000   59.936861   -7.967618
 0.080000   59.895061   -8.763021
 0.085000   59.849231   -9.579119
 0.090000   59.799270   -10.418055
 0.095000   59.745051   -11.284628
 0.100000   59.686424   -12.175947
 0.105000   59.623291   -13.095866
 0.110000   59.555465   -14.049656
 0.115000   59.482795   -15.032474
 0.120000   59.405140   -16.048286
 0.125000   59.322312   -17.110049
 0.130000   59.234040   -18.241288
 0.135000   59.139899   -19.456114
 0.140000   59.039479   -20.735033
 0.145000   58.932548   -22.059020
 0.150000   58.818888   -23.424999
 0.155000   58.698298   -24.829051
 0.160000   58.570598   -26.269618
 0.165000   58.435602   -27.736615
 0.170000   58.293232   -29.213596
 0.175000   58.143466   -30.694754
 0.180000   57.986284   -32.176924
 0.185000   57.821697   -33.653403
 0.190000   57.649750   -35.113178
 0.195000   57.470565   -36.540792
 0.200000   57.284342   -37.928941
 0.205000   57.091276   -39.255854
 0.210000   56.891784   -40.485528
 0.215000   56.686421   -41.592673
 0.220000   56.475857   -42.537276
 0.225000   56.261048   -43.262303
 0.230000   56.043234   -43.841922
 0.235000   55.822629   -44.338456
 0.240000   55.599849   -44.718981
 0.245000   55.375439   -44.998376
 0.250000   55.149866   -45.172724
 0.255000   54.923712   -45.176870
 0.260000   54.698097   -45.101165
 0.265000   54.472700   -45.021505
 0.270000   54.247882   -44.884142
 0.275000   54.023859   -44.718846
 0.280000   53.800693   -44.551278
 0.285000   53.578346   -44.381996
 0.290000   53.356873   -44.333850
 0.295000   53.135007   -44.464343
 0.300000   52.912230   -44.682970
 0.305000   52.688178   -44.952445
 0.310000   52.462706   -45.222861
 0.315000   52.235949   -45.438082
 0.320000   52.008325   -45.595652
 0.325000   51.779992   -45.719048
 0.330000   51.551134   -45.806964
 0.335000   51.321923   -45.861644
 0.340000   51.092518   -45.885879
 0.345000   50.863064   -45.873161
 0.350000   50.633786   -45.838696
 0.355000   50.404677   -45.798590
 0.360000   50.175800   -45.745589
 0.365000   49.947221   -45.680811
 0.370000   49.718992   -45.606658
 0.375000   49.491155   -45.526133
 0.380000   49.263731   -45.433997
 0.385000   49.036815   -45.306604
 0.390000   48.810665   -45.120371
 0.395000   48.585611   -44.864817
 0.400000   48.362017   -44.536015
 0.405000   48.140251   -44.113209
 0.410000   47.920885   -43.603416
 0.415000   47.704217   -43.058514
 0.420000   47.490299   -42.533742
 0.425000   47.278879   -42.105796
 0.430000   47.069241   -41.866754
 0.435000   46.860212   -41.966424
 0.440000   46.649577   -42.497137
 0.445000   46.435240   -43.326243
 0.450000   46.216315   -44.342294
 0.455000   45.991817   -45.532497
 0.460000   45.760990   -46.850366
 0.465000   45.523314   -48.359332
 0.470000   45.277396   -50.017837
 0.475000   45.023135   -51.497858
 0.480000   44.762418   -52.703037
 0.485000   44.496105   -53.710960
 0.490000   44.225308   -54.473003
 0.495000   43.951375   -54.984029
 0.500000   43.675468   -55.164966
 0.505000   43.399725   -54.848854
 0.510000   43.126979   -54.118760
 0.515000   42.858538   -53.185361
 0.520000   42.595126   -52.158138
 0.525000   42.336956   -51.139239
 0.530000   42.083733   -50.212791
 0.535000   41.834828   -49.345193
 0.540000   41.590282   -48.495527
 0.545000   41.349873   -47.690031
 0.550000   41.113381   -46.930167
 0.555000   40.880571   -46.230182
 0.560000   40.651079   -45.640703
 0.565000   40.424164   -45.096548
 0.570000   40.200114   -44.559878
 0.575000   39.978566   -44.104380
 0.580000   39.759070   -43.748379
 0.585000   39.541082   -43.513426
 0.590000   39.323936   -43.443504
 0.595000   39.106647   -43.505690
 0.600000   38.888879   -43.680065
 0.605000   38.669846   -44.012067
 0.610000   38.448758   -44.501451
 0.615000   38.224832   -45.145370
 0.620000   37.997305   -45.887390
 0.625000   37.765958   -46.735646
 0.630000   37.529948   -47.731420
 0.635000   37.288644   -48.842921
 0.640000   37.041519   -50.050286
 0.645000   36.788141   -51.335896
 0.650000   36.528160   -52.602357
 0.655000   36.262117   -53.920798
 0.660000   35.988952   -55.432288
 0.665000   35.707794   -57.144489
 0.670000   35.417507   -59.126585
 0.675000   35.116528   -61.463519
 0.680000   34.802872   -64.333641
 0.685000   34.473192   -67.820575
 0.690000   34.124666   -71.731142
 0.695000   33.755881   -75.842279
 0.700000   33.366243   -79.988519
 0.705000   32.955995   -84.018494
 0.710000   32.526058   -87.906061
 0.715000   32.076935   -91.527534
 0.720000   31.610783   -94.688998
 0.725000   31.130045   -97.368108
 0.730000   30.637102   -99.535083
 0.735000   30.134694   -101.124884
 0.740000   29.625853   -102.052213
 0.745000   29.114172   -102.238623
 0.750000   28.603467   -101.733904
 0.755000   28.096833   -100.637469
 0.760000   27.597092   -99.061778
 0.765000   27.106215   -97.198528
 0.770000   26.625107   -95.321207
 0.775000   26.153003   -93.772169
 0.780000   25.687385   -92.486046
 0.785000   25.228142   -91.107849
 0.790000   24.776307   -89.451402
 0.795000   24.333628   -87.401900
 0.800000   23.902288   -84.962802
 0.805000   23.484000   -82.172775
 0.810000   23.080560   -78.931024
 0.815000   22.694690   -75.348119
 0.820000   22.327079   -71.704398
 0.825000   21.977646   -68.154587
 0.830000   21.645533   -64.888361
 0.835000   21.328763   -62.133095
 0.840000   21.024202   -59.908525
 0.845000   20.729677   -58.340260
 0.850000   20.440799   -57.811519
 0.855000   20.151562   -58.656758
 0.860000   19.854232   -61.276974
 0.865000   19.538792   -66.336711
 0.870000   19.190865   -74.114865
 0.875000   18.797644   -84.757324
 0.880000   18.343291   -98.717529
 0.885000   17.810468   -116.213596
 0.890000   17.181156   -137.251559
 0.895000   16.437953   -162.213330
 0.900000   15.559022   -189.525739
 0.905000   14.542695   -216.964580
 0.910000   13.389376   -243.206526
 0.915000   12.110630   -265.831429
 0.920000   10.731062   -282.183417
 0.925000   9.288796   -290.091057
 0.930000   7.830152   -286.820918
 0.935000   6.420587   -270.933766
 0.940000   5.120814   -243.453406
 0.945000   3.986053   -206.212102
 0.950000   3.058693   -162.459799
 0.955000   2.361455   -116.338536
 0.960000   1.895308   -72.889343
 0.965000   1.632561   -36.559997
 0.970000   1.529708   -9.622837
 0.975000   1.536333   7.321286
 0.980000   1.602920   15.087869
 0.985000   1.687212   15.429490
 0.990000   1.757215   10.752962
 0.995000   1.794741   3.426085
 1.000000   1.791476   -4.732149
201 psinorm omegp(kRad/s) domegp/dpsiN
 0.000000   -0.006150   136.240028
 0.005000   0.536504   80.821633
 0.010000   0.802066   50.091516
 0.015000   1.037419   45.758059
 0.020000   1.259647   43.392134
 0.025000   1.471341   40.935789
 0.030000   1.669005   37.832471
 0.035000   1.849665   34.804429
 0.040000   2.017049   32.131105
 0.045000   2.170977   29.628051
 0.050000   2.313330   27.589626
 0.055000   2.446873   26.227957
 0.060000   2.575609   25.592458
 0.065000   2.702797   25.413001
 0.070000   2.829739   25.490415
 0.075000   2.957702   25.692956
 0.080000   3.086669   25.798825
 0.085000   3.215690   25.811832
 0.090000   3.344787   25.618155
 0.095000   3.471871   25.049104
 0.100000   3.595278   24.205793
 0.105000   3.713929   23.153207
 0.110000   3.826810   22.018585
 0.115000   3.934115   20.751585
 0.120000   4.034326   19.467121
 0.125000   4.128786   18.333041
 0.130000   4.217657   17.317737
 0.135000   4.301964   16.349901
 0.140000   4.381156   15.496014
 0.145000   4.456924   14.685492
 0.150000   4.528010   13.787486
 0.155000   4.594799   12.717729
 0.160000   4.655188   11.514356
 0.165000   4.709942   10.246540
 0.170000   4.757653   8.856051
 0.175000   4.798503   7.407815
 0.180000   4.831731   5.854314
 0.185000   4.857046   4.331342
 0.190000   4.875045   2.772939
 0.195000   4.884775   1.284844
 0.200000   4.887893   -0.111523
 0.205000   4.883660   -1.504514
 0.210000   4.872848   -2.704918
 0.215000   4.856611   -3.815151
 0.220000   4.834697   -4.802471
 0.225000   4.808586   -5.754023
 0.230000   4.777156   -6.786016
 0.235000   4.740726   -7.760450
 0.240000   4.699552   -8.831774
 0.245000   4.652408   -9.943548
 0.250000   4.600116   -11.022971
 0.255000   4.542179   -12.206662
 0.260000   4.478050   -13.311649
 0.265000   4.409062   -14.384978
 0.270000   4.334200   -15.532068
 0.275000   4.253741   -16.570239
 0.280000   4.168498   -17.634801
 0.285000   4.077393   -18.770095
 0.290000   3.980797   -19.843256
 0.295000   3.878961   -20.976615
 0.300000   3.771030   -22.135291
 0.305000   3.657608   -23.228458
 0.310000   3.538746   -24.373548
 0.315000   3.413872   -25.516801
 0.320000   3.283578   -26.603802
 0.325000   3.147834   -27.714867
 0.330000   3.006429   -28.770663
 0.335000   2.860128   -29.696575
 0.340000   2.709463   -30.517864
 0.345000   2.554949   -31.152794
 0.350000   2.397935   -31.474918
 0.355000   2.240200   -31.636143
 0.360000   2.081574   -31.809280
 0.365000   1.922107   -31.997321
 0.370000   1.761601   -32.296130
 0.375000   1.599146   -32.741880
 0.380000   1.434182   -33.387299
 0.385000   1.265273   -34.306424
 0.390000   1.091118   -35.407731
 0.395000   0.911196   -36.556205
 0.400000   0.725556   -37.684787
 0.405000   0.534348   -38.724887
 0.410000   0.338307   -39.730635
 0.415000   0.137041   -41.061608
 0.420000   -0.072309   -43.126182
 0.425000   -0.294220   -46.116675
 0.430000   -0.533476   -50.051907
 0.435000   -0.794740   -54.976765
 0.440000   -1.083244   -61.156139
 0.445000   -1.406301   -67.588492
 0.450000   -1.759129   -73.328567
 0.455000   -2.139587   -78.464519
 0.460000   -2.543774   -82.699179
 0.465000   -2.966578   -85.687024
 0.470000   -3.400644   -86.766216
 0.475000   -3.834241   -85.457360
 0.480000   -4.255218   -81.951484
 0.485000   -4.653755   -76.622724
 0.490000   -5.021445   -69.865026
 0.495000   -5.352406   -61.850940
 0.500000   -5.639954   -53.003470
 0.505000   -5.882440   -44.640658
 0.510000   -6.086361   -37.446484
 0.515000   -6.256905   -31.244759
 0.520000   -6.398808   -26.072231
 0.525000   -6.517628   -22.047043
 0.530000   -6.619279   -19.461132
 0.535000   -6.712239   -18.064887
 0.540000   -6.799928   -17.180393
 0.545000   -6.884043   -16.631600
 0.550000   -6.966244   -16.219714
 0.555000   -7.046240   -15.864864
 0.560000   -7.124892   -15.502270
 0.565000   -7.201263   -14.932597
 0.570000   -7.274218   -14.090530
 0.575000   -7.342168   -12.965238
 0.580000   -7.403871   -11.652619
 0.585000   -7.458694   -10.128643
 0.590000   -7.505157   -8.334722
 0.595000   -7.542041   -6.412470
 0.600000   -7.569282   -4.512949
 0.605000   -7.587171   -2.658770
 0.610000   -7.595869   -0.901358
 0.615000   -7.596184   0.647545
 0.620000   -7.589394   1.963566
 0.625000   -7.576549   3.073820
 0.630000   -7.558656   3.979431
 0.635000   -7.536754   4.675570
 0.640000   -7.511900   5.237565
 0.645000   -7.484379   5.729222
 0.650000   -7.454608   6.145871
 0.655000   -7.422920   6.518617
 0.660000   -7.389422   6.880362
 0.665000   -7.354116   7.218716
 0.670000   -7.317235   7.483475
 0.675000   -7.279282   7.713159
 0.680000   -7.240103   7.956698
 0.685000   -7.199715   8.209549
 0.690000   -7.158007   8.497025
 0.695000   -7.114744   8.868108
 0.700000   -7.069326   9.365742
 0.705000   -7.021087   9.927588
 0.710000   -6.970051   10.440998
 0.715000   -6.916677   10.841139
 0.720000   -6.861639   11.061773
 0.725000   -6.806059   10.993642
 0.730000   -6.751703   10.616417
 0.735000   -6.699895   9.878769
 0.740000   -6.652915   8.709318
 0.745000   -6.612802   7.204013
 0.750000   -6.580875   5.503561
 0.755000   -6.557766   3.722082
 0.760000   -6.543654   1.953741
 0.765000   -6.538229   0.351629
 0.770000   -6.540138   -1.009166
 0.775000   -6.548321   -2.213542
 0.780000   -6.562273   -3.449554
 0.785000   -6.582816   -4.860884
 0.790000   -6.610882   -6.761300
 0.795000   -6.650429   -9.434816
 0.800000   -6.705230   -12.913420
 0.805000   -6.779563   -17.177434
 0.810000   -6.877005   -22.122547
 0.815000   -7.000789   -27.638090
 0.820000   -7.153385   -33.559399
 0.825000   -7.336383   -39.227362
 0.830000   -7.545659   -44.237308
 0.835000   -7.778756   -48.653049
 0.840000   -8.032190   -52.001968
 0.845000   -8.298776   -53.782157
 0.850000   -8.570011   -53.656089
 0.855000   -8.835336   -51.370722
 0.860000   -9.083718   -46.897623
 0.865000   -9.304313   -40.571999
 0.870000   -9.489438   -32.981075
 0.875000   -9.634123   -24.606980
 0.880000   -9.735508   -15.616702
 0.885000   -9.790290   -6.231348
 0.890000   -9.797822   2.991676
 0.895000   -9.760374   11.584603
 0.900000   -9.681976   19.136434
 0.905000   -9.569009   25.008763
 0.910000   -9.431888   29.095839
 0.915000   -9.278051   31.502615
 0.920000   -9.116862   32.378997
 0.925000   -8.954261   32.412350
 0.930000   -8.792738   33.979256
 0.935000   -8.614468   35.928579
 0.940000   -8.433453   37.036529
 0.945000   -8.244103   39.371779
 0.950000   -8.039735   44.171489
 0.955000   -7.802388   51.065558
 0.960000   -7.529079   62.549586
 0.965000   -7.176892   87.781977
 0.970000   -6.651259   136.469354
 0.975000   -5.812199   218.041686
 0.980000   -4.470842   332.299335
 0.985000   -2.489206   455.814206
 0.990000   0.087300   540.631725
 0.995000   2.917112   526.255543
 1.000000   5.349855   446.841764
201 psinorm omgvb(kRad/s) domgvb/dpsiN
 0.000000   60.165144   136.255840
 0.005000   60.707371   80.634983
 0.010000   60.971493   49.677138
 0.015000   61.204142   45.062851
 0.020000   61.422122   42.359012
 0.025000   61.627732   39.505665
 0.030000   61.817178   35.945938
 0.035000   61.987191   32.403505
 0.040000   62.141214   29.164299
 0.045000   62.278834   26.048153
 0.050000   62.401695   23.351331
 0.055000   62.512348   21.291749
 0.060000   62.614613   19.924620
 0.065000   62.711594   18.986396
 0.070000   62.804477   18.296891
 0.075000   62.894563   17.725338
 0.080000   62.981730   17.035804
 0.085000   63.064921   16.232713
 0.090000   63.144057   15.200100
 0.095000   63.216922   13.764476
 0.100000   63.281702   12.029846
 0.105000   63.337220   10.057341
 0.110000   63.382275   7.968929
 0.115000   63.416910   5.719111
 0.120000   63.439466   3.418834
 0.125000   63.451098   1.222992
 0.130000   63.451696   -0.923551
 0.135000   63.441862   -3.106213
 0.140000   63.420634   -5.239019
 0.145000   63.389472   -7.373528
 0.150000   63.346899   -9.637513
 0.155000   63.293097   -12.111322
 0.160000   63.225786   -14.755261
 0.165000   63.145545   -17.490075
 0.170000   63.050885   -20.357544
 0.175000   62.941969   -23.286939
 0.180000   62.818015   -26.322610
 0.185000   62.678743   -29.322061
 0.190000   62.524795   -32.340238
 0.195000   62.355341   -35.255948
 0.200000   62.172235   -38.040464
 0.205000   61.974936   -40.760367
 0.210000   61.764632   -43.190445
 0.215000   61.543032   -45.407824
 0.220000   61.310553   -47.339748
 0.225000   61.069634   -49.016327
 0.230000   60.820390   -50.627937
 0.235000   60.563355   -52.098906
 0.240000   60.299401   -53.550755
 0.245000   60.027847   -54.941924
 0.250000   59.749982   -56.195695
 0.255000   59.465890   -57.383532
 0.260000   59.176147   -58.412813
 0.265000   58.881762   -59.406482
 0.270000   58.582082   -60.416210
 0.275000   58.277600   -61.289084
 0.280000   57.969191   -62.186079
 0.285000   57.655739   -63.152091
 0.290000   57.337670   -64.177106
 0.295000   57.013968   -65.440958
 0.300000   56.683260   -66.818261
 0.305000   56.345785   -68.180904
 0.310000   56.001451   -69.596409
 0.315000   55.649821   -70.954883
 0.320000   55.291903   -72.199454
 0.325000   54.927827   -73.433915
 0.330000   54.557563   -74.577627
 0.335000   54.182051   -75.558219
 0.340000   53.801981   -76.403743
 0.345000   53.418013   -77.025955
 0.350000   53.031722   -77.313613
 0.355000   52.644877   -77.434734
 0.360000   52.257374   -77.554868
 0.365000   51.869328   -77.678133
 0.370000   51.480593   -77.902787
 0.375000   51.090300   -78.268013
 0.380000   50.697913   -78.821295
 0.385000   50.302088   -79.613027
 0.390000   49.901783   -80.528103
 0.395000   49.496806   -81.421023
 0.400000   49.087572   -82.220803
 0.405000   48.674598   -82.838095
 0.410000   48.259191   -83.334051
 0.415000   47.841258   -84.120121
 0.420000   47.417990   -85.659924
 0.425000   46.984659   -88.222471
 0.430000   46.535765   -91.918661
 0.435000   46.065472   -96.943189
 0.440000   45.566334   -103.653276
 0.445000   45.028939   -110.914735
 0.450000   44.457186   -117.670860
 0.455000   43.852231   -123.997016
 0.460000   43.217216   -129.549546
 0.465000   42.556735   -134.046356
 0.470000   41.876753   -136.784053
 0.475000   41.188895   -136.955218
 0.480000   40.507200   -134.654521
 0.485000   39.842350   -130.333684
 0.490000   39.203863   -124.338029
 0.495000   38.598969   -116.834969
 0.500000   38.035514   -108.168436
 0.505000   37.517285   -99.489512
 0.510000   37.040619   -91.565244
 0.515000   36.601632   -84.430121
 0.520000   36.196317   -78.230369
 0.525000   35.819329   -73.186282
 0.530000   35.464455   -69.673923
 0.535000   35.122590   -67.410080
 0.540000   34.790354   -65.675920
 0.545000   34.465830   -64.321631
 0.550000   34.147138   -63.149880
 0.555000   33.834332   -62.095046
 0.560000   33.526187   -61.142972
 0.565000   33.222902   -60.029145
 0.570000   32.925896   -58.650408
 0.575000   32.636398   -57.069618
 0.580000   32.355199   -55.400998
 0.585000   32.082388   -53.642070
 0.590000   31.818779   -51.778226
 0.595000   31.564605   -49.918160
 0.600000   31.319597   -48.193014
 0.605000   31.082675   -46.670836
 0.610000   30.852889   -45.402809
 0.615000   30.628647   -44.497826
 0.620000   30.407911   -43.923824
 0.625000   30.189409   -43.661826
 0.630000   29.971292   -43.751990
 0.635000   29.751889   -44.167351
 0.640000   29.529619   -44.812721
 0.645000   29.303762   -45.606674
 0.650000   29.073552   -46.456487
 0.655000   28.839197   -47.402181
 0.660000   28.599530   -48.551926
 0.665000   28.353678   -49.925773
 0.670000   28.100272   -51.643111
 0.675000   27.837247   -53.750360
 0.680000   27.562769   -56.376943
 0.685000   27.273477   -59.611026
 0.690000   26.966659   -63.234116
 0.695000   26.641136   -66.974171
 0.700000   26.296917   -70.622777
 0.705000   25.934908   -74.090906
 0.710000   25.556008   -77.465063
 0.715000   25.160258   -80.686396
 0.720000   24.749144   -83.627225
 0.725000   24.323985   -86.374465
 0.730000   23.885399   -88.918666
 0.735000   23.434799   -91.246115
 0.740000   22.972938   -93.342894
 0.745000   22.501370   -95.034610
 0.750000   22.022592   -96.230343
 0.755000   21.539066   -96.915387
 0.760000   21.053438   -97.108037
 0.765000   20.567986   -96.846898
 0.770000   20.084969   -96.330373
 0.775000   19.604682   -95.985711
 0.780000   19.125112   -95.935600
 0.785000   18.645326   -95.968733
 0.790000   18.165425   -96.212703
 0.795000   17.683199   -96.836716
 0.800000   17.197058   -97.876222
 0.805000   16.704437   -99.350209
 0.810000   16.203555   -101.053572
 0.815000   15.693901   -102.986209
 0.820000   15.173693   -105.263797
 0.825000   14.641263   -107.381949
 0.830000   14.099874   -109.125669
 0.835000   13.550007   -110.786144
 0.840000   12.992012   -111.910493
 0.845000   12.430902   -112.122417
 0.850000   11.870788   -111.467608
 0.855000   11.316226   -110.027480
 0.860000   10.770513   -108.174597
 0.865000   10.234480   -106.908711
 0.870000   9.701426   -107.095940
 0.875000   9.163520   -109.364304
 0.880000   8.607783   -114.334231
 0.885000   8.020178   -122.444944
 0.890000   7.383334   -134.259884
 0.895000   6.677579   -150.628727
 0.900000   5.877047   -170.389305
 0.905000   4.973686   -191.955817
 0.910000   3.957488   -214.110687
 0.915000   2.832579   -234.328813
 0.920000   1.614200   -249.804420
 0.925000   0.334535   -257.678707
 0.930000   -0.962587   -252.841662
 0.935000   -2.193882   -235.005187
 0.940000   -3.312639   -206.416876
 0.945000   -4.258050   -166.840323
 0.950000   -4.981042   -118.288310
 0.955000   -5.440933   -65.272978
 0.960000   -5.633772   -10.339757
 0.965000   -5.544331   51.221980
 0.970000   -5.121552   126.846517
 0.975000   -4.275866   225.362973
 0.980000   -2.867922   347.387204
 0.985000   -0.801994   471.243696
 0.990000   1.844515   551.384687
 0.995000   4.711853   529.681628
 1.000000   7.141331   442.109616
201 psinorm omgpp(kRad/s) domgpp/dpsiN
 0.000000   -0.031351   -15.620812
 0.005000   -0.126936   -22.613176
 0.010000   -0.257483   -26.461475
 0.015000   -0.391551   -27.133590
 0.020000   -0.528819   -27.727122
 0.025000   -0.668822   -28.226099
 0.030000   -0.811080   -28.643230
 0.035000   -0.955255   -28.977336
 0.040000   -1.100853   -29.216021
 0.045000   -1.247415   -29.365191
 0.050000   -1.394505   -29.413820
 0.055000   -1.541553   -29.361275
 0.060000   -1.688118   -29.252226
 0.065000   -1.834075   -29.035698
 0.070000   -1.978475   -28.670929
 0.075000   -2.120785   -28.208152
 0.080000   -2.260557   -27.646377
 0.085000   -2.397248   -26.982786
 0.090000   -2.530384   -26.400508
 0.095000   -2.661253   -25.830058
 0.100000   -2.788685   -25.111311
 0.105000   -2.912367   -24.333426
 0.110000   -3.032019   -23.485982
 0.115000   -3.147226   -22.544236
 0.120000   -3.257462   -21.831468
 0.125000   -3.365541   -21.321849
 0.130000   -3.470680   -20.713183
 0.135000   -3.572673   -20.034568
 0.140000   -3.671026   -19.233513
 0.145000   -3.765008   -18.295058
 0.150000   -3.853976   -17.296803
 0.155000   -3.937976   -16.274304
 0.160000   -4.016719   -15.192997
 0.165000   -4.089906   -14.049789
 0.170000   -4.157217   -12.844949
 0.175000   -4.218356   -11.488069
 0.180000   -4.272098   -10.160675
 0.185000   -4.319962   -8.943373
 0.190000   -4.361532   -7.687144
 0.195000   -4.396834   -6.462820
 0.200000   -4.426160   -5.323539
 0.205000   -4.450069   -4.361223
 0.210000   -4.469772   -3.852491
 0.215000   -4.488594   -3.593220
 0.220000   -4.505704   -3.257492
 0.225000   -4.521169   -2.940771
 0.230000   -4.535112   -2.636026
 0.235000   -4.547529   -2.682135
 0.240000   -4.561933   -2.566200
 0.245000   -4.573191   -1.822566
 0.250000   -4.580159   -0.951878
 0.255000   -4.582710   0.045267
 0.260000   -4.579706   1.260571
 0.265000   -4.570104   2.466680
 0.270000   -4.555040   3.999484
 0.275000   -4.530109   5.920769
 0.280000   -4.495832   7.660795
 0.285000   -4.453501   9.272415
 0.290000   -4.403108   10.875160
 0.295000   -4.344750   12.645280
 0.300000   -4.276655   14.717277
 0.305000   -4.197577   16.545103
 0.310000   -4.111204   17.757526
 0.315000   -4.020002   18.388380
 0.320000   -3.927320   18.389855
 0.325000   -3.836103   17.967266
 0.330000   -3.747647   17.090677
 0.335000   -3.665196   15.952069
 0.340000   -3.588127   15.056038
 0.345000   -3.514636   14.364208
 0.350000   -3.444485   13.730335
 0.355000   -3.377333   12.977985
 0.360000   -3.314705   11.994954
 0.365000   -3.257383   11.739574
 0.370000   -3.197309   12.027911
 0.375000   -3.137104   12.197431
 0.380000   -3.075335   12.686168
 0.385000   -3.010242   13.500928
 0.390000   -2.940326   14.856519
 0.395000   -2.861677   16.906180
 0.400000   -2.771264   18.726010
 0.405000   -2.674417   19.895888
 0.410000   -2.572305   20.820353
 0.415000   -2.466214   21.562068
 0.420000   -2.356684   22.607289
 0.425000   -2.240141   22.490152
 0.430000   -2.131783   21.244815
 0.435000   -2.027693   20.313890
 0.440000   -1.928644   19.251202
 0.445000   -1.835181   18.105146
 0.450000   -1.747592   17.375032
 0.455000   -1.661430   15.882209
 0.460000   -1.588770   13.813506
 0.465000   -1.523295   12.370720
 0.470000   -1.465063   10.914634
 0.475000   -1.414149   9.446762
 0.480000   -1.370595   7.862813
 0.485000   -1.335521   6.241648
 0.490000   -1.308179   5.049053
 0.495000   -1.285030   4.352250
 0.500000   -1.264656   3.877533
 0.505000   -1.246255   3.508375
 0.510000   -1.229573   3.130937
 0.515000   -1.214945   2.650437
 0.520000   -1.203068   2.030269
 0.525000   -1.194643   1.336934
 0.530000   -1.189699   0.644875
 0.535000   -1.188194   -0.038340
 0.540000   -1.190082   -0.723164
 0.545000   -1.195426   -1.390970
 0.550000   -1.203992   -2.028407
 0.555000   -1.215710   -2.657788
 0.560000   -1.230570   -3.276648
 0.565000   -1.248476   -3.878021
 0.570000   -1.269350   -4.475334
 0.575000   -1.293230   -5.044201
 0.580000   -1.319792   -5.559843
 0.585000   -1.348828   -6.041865
 0.590000   -1.380211   -6.488346
 0.595000   -1.413711   -6.887381
 0.600000   -1.449085   -7.243791
 0.605000   -1.486149   -7.579259
 0.610000   -1.524877   -7.909782
 0.615000   -1.565247   -8.227056
 0.620000   -1.607148   -8.523165
 0.625000   -1.650479   -8.800910
 0.630000   -1.695157   -9.098649
 0.635000   -1.741465   -9.421164
 0.640000   -1.789368   -9.624883
 0.645000   -1.837714   -9.725690
 0.650000   -1.886625   -9.815257
 0.655000   -1.935867   -9.865934
 0.660000   -1.985285   -9.964185
 0.665000   -2.035509   -10.283960
 0.670000   -2.088124   -10.538605
 0.675000   -2.140895   -10.742733
 0.680000   -2.195552   -11.217934
 0.685000   -2.253074   -11.884338
 0.690000   -2.314395   -12.858402
 0.695000   -2.381658   -14.400252
 0.700000   -2.458398   -14.919380
 0.705000   -2.530852   -14.593326
 0.710000   -2.604331   -14.712547
 0.715000   -2.677977   -14.640953
 0.720000   -2.750740   -14.420552
 0.725000   -2.822183   -14.528288
 0.730000   -2.896023   -13.273416
 0.735000   -2.954917   -10.956922
 0.740000   -3.005592   -9.142652
 0.745000   -3.046343   -6.995198
 0.750000   -3.075544   -4.538228
 0.755000   -3.091726   -1.282350
 0.760000   -3.088368   2.064036
 0.765000   -3.071085   4.728598
 0.770000   -3.041082   7.187445
 0.775000   -2.999211   9.437343
 0.780000   -2.946709   11.392584
 0.785000   -2.885285   13.962329
 0.790000   -2.807085   15.076232
 0.795000   -2.734523   14.387630
 0.800000   -2.663209   14.033489
 0.805000   -2.594188   13.337158
 0.810000   -2.529837   12.172835
 0.815000   -2.472460   10.519122
 0.820000   -2.424646   8.175911
 0.825000   -2.390700   6.207123
 0.830000   -2.362575   5.221543
 0.835000   -2.338485   4.473894
 0.840000   -2.317836   3.795854
 0.845000   -2.300526   2.861969
 0.850000   -2.289216   1.790482
 0.855000   -2.282622   0.648475
 0.860000   -2.282732   -0.963426
 0.865000   -2.292256   -3.130643
 0.870000   -2.314038   -5.970260
 0.875000   -2.351958   -11.031978
 0.880000   -2.424358   -17.677643
 0.885000   -2.528735   -22.857246
 0.890000   -2.652930   -27.667964
 0.895000   -2.805415   -33.899270
 0.900000   -2.991923   -41.562629
 0.905000   -3.221041   -54.508898
 0.910000   -3.537012   -72.323435
 0.915000   -3.944275   -86.655620
 0.920000   -4.403568   -101.377836
 0.925000   -4.958054   -122.386568
 0.930000   -5.627434   -147.975915
 0.935000   -6.437813   -185.263327
 0.940000   -7.480067   -236.342626
 0.945000   -8.801239   -282.932547
 0.950000   -10.309392   -333.376919
 0.955000   -12.135008   -398.282380
 0.960000   -14.292216   -457.337033
 0.965000   -16.708378   -492.989697
 0.970000   -19.222113   -473.785122
 0.975000   -21.446230   -351.693600
 0.980000   -22.739049   -145.952351
 0.985000   -22.905753   92.517575
 0.990000   -21.813873   332.492553
 0.995000   -19.580828   524.896717
 1.000000   -16.564906   681.471831
201 psinorm omgeb(kRad/s) domgeb/dpsiN
 0.000000   60.133792   120.635028
 0.005000   60.580434   58.021807
 0.010000   60.714010   23.215663
 0.015000   60.812591   17.929261
 0.020000   60.893303   14.631891
 0.025000   60.958910   11.279566
 0.030000   61.006098   7.302707
 0.035000   61.031937   3.426168
 0.040000   61.040360   -0.051723
 0.045000   61.031420   -3.317039
 0.050000   61.007190   -6.062489
 0.055000   60.970795   -8.069526
 0.060000   60.926494   -9.327606
 0.065000   60.877519   -10.049303
 0.070000   60.826001   -10.374038
 0.075000   60.773778   -10.482814
 0.080000   60.721173   -10.610573
 0.085000   60.667673   -10.750073
 0.090000   60.613673   -11.200408
 0.095000   60.555668   -12.065582
 0.100000   60.493017   -13.081465
 0.105000   60.424854   -14.276085
 0.110000   60.350256   -15.517053
 0.115000   60.269683   -16.825125
 0.120000   60.182005   -18.412633
 0.125000   60.085557   -20.098857
 0.130000   59.981016   -21.636734
 0.135000   59.869190   -23.140781
 0.140000   59.749608   -24.472532
 0.145000   59.624464   -25.668586
 0.150000   59.492922   -26.934316
 0.155000   59.355121   -28.385626
 0.160000   59.209066   -29.948258
 0.165000   59.055639   -31.539863
 0.170000   58.893668   -33.202493
 0.175000   58.723614   -34.775008
 0.180000   58.545917   -36.483284
 0.185000   58.358781   -38.265434
 0.190000   58.163263   -40.027382
 0.195000   57.958507   -41.718769
 0.200000   57.746075   -43.364003
 0.205000   57.524867   -45.121591
 0.210000   57.294860   -47.042936
 0.215000   57.054438   -49.001045
 0.220000   56.804849   -50.597240
 0.225000   56.548465   -51.957098
 0.230000   56.285278   -53.263963
 0.235000   56.015826   -54.781040
 0.240000   55.737468   -56.116955
 0.245000   55.454656   -56.764489
 0.250000   55.169823   -57.147573
 0.255000   54.883180   -57.338265
 0.260000   54.596440   -57.152242
 0.265000   54.311658   -56.939802
 0.270000   54.027042   -56.416725
 0.275000   53.747491   -55.368316
 0.280000   53.473359   -54.525284
 0.285000   53.202238   -53.879677
 0.290000   52.934562   -53.301947
 0.295000   52.669218   -52.795678
 0.300000   52.406605   -52.100984
 0.305000   52.148208   -51.635801
 0.310000   51.890247   -51.838882
 0.315000   51.629820   -52.566503
 0.320000   51.364582   -53.809598
 0.325000   51.091724   -55.466649
 0.330000   50.809916   -57.486950
 0.335000   50.516854   -59.606150
 0.340000   50.213854   -61.347705
 0.345000   49.903377   -62.661747
 0.350000   49.587237   -63.583278
 0.355000   49.267544   -64.456749
 0.360000   48.942669   -65.559915
 0.365000   48.611945   -65.938559
 0.370000   48.283284   -65.874876
 0.375000   47.953196   -66.070582
 0.380000   47.622578   -66.135128
 0.385000   47.291845   -66.112099
 0.390000   46.961457   -65.671584
 0.395000   46.635129   -64.514843
 0.400000   46.316309   -63.494793
 0.405000   46.000181   -62.942208
 0.410000   45.686887   -62.513698
 0.415000   45.375044   -62.558053
 0.420000   45.061306   -63.052635
 0.425000   44.744518   -65.732320
 0.430000   44.403983   -70.673846
 0.435000   44.037780   -76.629299
 0.440000   43.637690   -84.402075
 0.445000   43.193759   -92.809589
 0.450000   42.709594   -100.295828
 0.455000   42.190800   -108.114807
 0.460000   41.628446   -115.736040
 0.465000   41.033440   -121.675636
 0.470000   40.411690   -125.869419
 0.475000   39.774746   -127.508456
 0.480000   39.136605   -126.791708
 0.485000   38.506829   -124.092036
 0.490000   37.895685   -119.288976
 0.495000   37.313939   -112.482719
 0.500000   36.770857   -104.290904
 0.505000   36.271030   -95.981137
 0.510000   35.811046   -88.434307
 0.515000   35.386687   -81.779684
 0.520000   34.993249   -76.200099
 0.525000   34.624686   -71.849347
 0.530000   34.274756   -69.029048
 0.535000   33.934395   -67.448421
 0.540000   33.600272   -66.399084
 0.545000   33.270405   -65.712601
 0.550000   32.943146   -65.178288
 0.555000   32.618622   -64.752834
 0.560000   32.295617   -64.419621
 0.565000   31.974426   -63.907166
 0.570000   31.656546   -63.125742
 0.575000   31.343168   -62.113819
 0.580000   31.035407   -60.960840
 0.585000   30.733560   -59.683935
 0.590000   30.438568   -58.266572
 0.595000   30.150894   -56.805541
 0.600000   29.870513   -55.436804
 0.605000   29.596526   -54.250095
 0.610000   29.328012   -53.312591
 0.615000   29.063400   -52.724882
 0.620000   28.800763   -52.446988
 0.625000   28.538930   -52.462736
 0.630000   28.276135   -52.850639
 0.635000   28.010424   -53.588515
 0.640000   27.740250   -54.437604
 0.645000   27.466048   -55.332364
 0.650000   27.186927   -56.271744
 0.655000   26.903330   -57.268114
 0.660000   26.614246   -58.516111
 0.665000   26.318169   -60.209733
 0.670000   26.012148   -62.181716
 0.675000   25.696352   -64.493093
 0.680000   25.367217   -67.594877
 0.685000   25.020403   -71.495364
 0.690000   24.652264   -76.092519
 0.695000   24.259478   -81.374423
 0.700000   23.838519   -85.542158
 0.705000   23.404057   -88.684232
 0.710000   22.951677   -92.177610
 0.715000   22.482280   -95.327349
 0.720000   21.998404   -98.047777
 0.725000   21.501803   -100.902753
 0.730000   20.989376   -102.192081
 0.735000   20.479882   -102.203037
 0.740000   19.967346   -102.485546
 0.745000   19.455026   -102.029808
 0.750000   18.947048   -100.768571
 0.755000   18.447341   -98.197738
 0.760000   17.965070   -95.044001
 0.765000   17.496901   -92.118300
 0.770000   17.043887   -89.142928
 0.775000   16.605471   -86.548368
 0.780000   16.178404   -84.543016
 0.785000   15.760041   -82.006404
 0.790000   15.358339   -81.136470
 0.795000   14.948676   -82.449086
 0.800000   14.533849   -83.842733
 0.805000   14.110249   -86.013050
 0.810000   13.673718   -88.880737
 0.815000   13.221442   -92.467087
 0.820000   12.749047   -97.087885
 0.825000   12.250563   -101.174826
 0.830000   11.737299   -103.904126
 0.835000   11.211522   -106.312249
 0.840000   10.674177   -108.114639
 0.845000   10.130375   -109.260448
 0.850000   9.581572   -109.677126
 0.855000   9.033604   -109.379005
 0.860000   8.487782   -109.138023
 0.865000   7.942224   -110.039353
 0.870000   7.387388   -113.066200
 0.875000   6.811562   -120.396282
 0.880000   6.183426   -132.011874
 0.885000   5.491443   -145.302190
 0.890000   4.730404   -161.927848
 0.895000   3.872165   -184.527997
 0.900000   2.885124   -211.951933
 0.905000   1.752645   -246.464715
 0.910000   0.420477   -286.434122
 0.915000   -1.111696   -320.984433
 0.920000   -2.789368   -351.182256
 0.925000   -4.623519   -380.065274
 0.930000   -6.590020   -400.817577
 0.935000   -8.631694   -420.268513
 0.940000   -10.792706   -442.759502
 0.945000   -13.059289   -449.772870
 0.950000   -15.290434   -451.665229
 0.955000   -17.575942   -463.555358
 0.960000   -19.925988   -467.676790
 0.965000   -22.252710   -441.767716
 0.970000   -24.343665   -346.938605
 0.975000   -25.722096   -126.330627
 0.980000   -25.606971   201.434853
 0.985000   -23.707747   563.761271
 0.990000   -19.969359   883.877240
 0.995000   -14.868975   1054.578346
 1.000000   -9.423575   1123.581446
201 psinorm er(kV/m) der/dpsiN
 0.000000   0.678370   1199.512025
 0.005000   5.458767   712.646609
 0.010000   7.804836   415.427826
 0.015000   9.613045   335.234155
 0.020000   11.157178   290.039991
 0.025000   12.513445   258.828738
 0.030000   13.745465   236.407802
 0.035000   14.877523   218.314708
 0.040000   15.928612   203.546131
 0.045000   16.912984   191.330989
 0.050000   17.841922   180.682394
 0.055000   18.719808   170.567610
 0.060000   19.547598   161.299448
 0.065000   20.332803   155.049479
 0.070000   21.098093   149.754873
 0.075000   21.830352   142.389307
 0.080000   22.521986   137.548982
 0.085000   23.205841   134.092399
 0.090000   23.862910   127.105334
 0.095000   24.476895   123.916598
 0.100000   25.102076   119.819453
 0.105000   25.675089   115.232567
 0.110000   26.254402   111.796511
 0.115000   26.793054   107.120891
 0.120000   27.325611   103.858771
 0.125000   27.831642   99.510272
 0.130000   28.320714   96.152146
 0.135000   28.793164   92.644644
 0.140000   29.247160   89.008045
 0.145000   29.683244   86.375263
 0.150000   30.110913   82.351903
 0.155000   30.506763   79.973002
 0.160000   30.910643   75.716116
 0.165000   31.263924   73.834514
 0.170000   31.648988   69.182253
 0.175000   31.955747   66.300093
 0.180000   32.311989   64.528715
 0.185000   32.601034   59.306062
 0.190000   32.905049   59.067715
 0.195000   33.191711   53.087661
 0.200000   33.435926   52.322594
 0.205000   33.714937   47.511191
 0.210000   33.911038   43.430820
 0.215000   34.149245   44.396760
 0.220000   34.355005   37.473186
 0.225000   34.523977   37.093620
 0.230000   34.725942   33.345409
 0.235000   34.857431   28.841127
 0.240000   35.014353   30.732958
 0.245000   35.164761   24.176393
 0.250000   35.256117   22.838019
 0.255000   35.393141   24.006516
 0.260000   35.496182   18.425532
 0.265000   35.577396   19.413824
 0.270000   35.690320   17.843387
 0.275000   35.755830   14.490671
 0.280000   35.835227   17.679032
 0.285000   35.932620   13.620944
 0.290000   35.971436   11.201672
 0.295000   36.044637   15.284124
 0.300000   36.124278   9.768389
 0.305000   36.142321   8.061313
 0.310000   36.204891   11.837647
 0.315000   36.260697   5.381562
 0.320000   36.258706   2.852649
 0.325000   36.289224   4.929900
 0.330000   36.308005   -1.927937
 0.335000   36.269945   -5.037368
 0.340000   36.257632   -3.339920
 0.345000   36.236545   -9.344401
 0.350000   36.164188   -11.733670
 0.355000   36.119209   -9.626149
 0.360000   36.067926   -14.735214
 0.365000   35.971856   -16.975082
 0.370000   35.898175   -14.824410
 0.375000   35.823612   -18.019435
 0.380000   35.717981   -20.332944
 0.385000   35.620283   -19.082312
 0.390000   35.527158   -20.359743
 0.395000   35.416686   -22.057262
 0.400000   35.306585   -20.959865
 0.405000   35.207087   -20.817473
 0.410000   35.098411   -23.189044
 0.415000   34.975196   -23.689691
 0.420000   34.861514   -23.444054
 0.425000   34.740756   -28.121598
 0.430000   34.580298   -33.008458
 0.435000   34.410671   -36.799729
 0.440000   34.212300   -44.887020
 0.445000   33.961801   -53.010009
 0.450000   33.682200   -58.677911
 0.455000   33.375022   -65.774832
 0.460000   33.024452   -73.664156
 0.465000   32.638380   -79.040175
 0.470000   32.234050   -82.512624
 0.475000   31.813254   -85.629448
 0.480000   31.377756   -86.086979
 0.485000   30.952384   -83.824531
 0.490000   30.539510   -81.247688
 0.495000   30.139908   -76.967577
 0.500000   29.769835   -70.507538
 0.505000   29.434832   -64.207041
 0.510000   29.127764   -59.312828
 0.515000   28.841704   -54.408875
 0.520000   28.583676   -49.699530
 0.525000   28.344709   -47.187505
 0.530000   28.111800   -45.574669
 0.535000   27.888962   -44.095746
 0.540000   27.670843   -43.662323
 0.545000   27.452339   -43.988740
 0.550000   27.230956   -43.792935
 0.555000   27.014409   -43.270552
 0.560000   26.798250   -43.925299
 0.565000   26.575156   -43.995413
 0.570000   26.358296   -43.047979
 0.575000   26.144677   -42.623673
 0.580000   25.932059   -42.421107
 0.585000   25.720465   -41.459652
 0.590000   25.517463   -40.052367
 0.595000   25.319942   -39.676177
 0.600000   25.120701   -38.928291
 0.605000   24.930659   -37.545394
 0.610000   24.745247   -37.069460
 0.615000   24.559964   -37.311417
 0.620000   24.372133   -37.111592
 0.625000   24.188848   -36.788312
 0.630000   24.004250   -37.879795
 0.635000   23.810050   -38.939777
 0.640000   23.614852   -39.270949
 0.645000   23.417341   -40.138591
 0.650000   23.213466   -41.812372
 0.655000   22.999217   -42.755616
 0.660000   22.785910   -43.313584
 0.665000   22.566081   -45.408839
 0.670000   22.331821   -47.711022
 0.675000   22.088971   -49.415948
 0.680000   21.837662   -51.844826
 0.685000   21.570523   -56.306944
 0.690000   21.274593   -60.573641
 0.695000   20.964786   -64.435660
 0.700000   20.630236   -68.479760
 0.705000   20.279989   -72.155840
 0.710000   19.908678   -75.157266
 0.715000   19.528416   -77.396071
 0.720000   19.134717   -80.678881
 0.725000   18.721627   -83.840595
 0.730000   18.296311   -84.526000
 0.735000   17.876367   -84.347803
 0.740000   17.452833   -85.966747
 0.745000   17.016700   -85.899856
 0.750000   16.593834   -83.925309
 0.755000   16.177447   -82.167966
 0.760000   15.772155   -80.459335
 0.765000   15.372854   -77.863797
 0.770000   14.993517   -74.669402
 0.775000   14.626159   -73.152118
 0.780000   14.261995   -72.070021
 0.785000   13.905459   -69.512651
 0.790000   13.566869   -68.507192
 0.795000   13.220387   -70.608848
 0.800000   12.860780   -72.225704
 0.805000   12.498130   -73.638791
 0.810000   12.124393   -76.315662
 0.815000   11.734974   -80.346030
 0.820000   11.320932   -84.649045
 0.825000   10.888483   -87.876470
 0.830000   10.442168   -90.669600
 0.835000   9.981787   -93.451777
 0.840000   9.507650   -95.132790
 0.845000   9.030459   -95.948026
 0.850000   8.548170   -96.752793
 0.855000   8.062931   -96.932486
 0.860000   7.578845   -96.676470
 0.865000   7.096167   -97.414743
 0.870000   6.604697   -100.558120
 0.875000   6.090586   -107.406094
 0.880000   5.530636   -117.681950
 0.885000   4.913766   -129.591718
 0.890000   4.234719   -144.738796
 0.895000   3.466378   -165.130817
 0.900000   2.583411   -189.641316
 0.905000   1.569965   -220.618396
 0.910000   0.377227   -256.373171
 0.915000   -0.993767   -287.239857
 0.920000   -2.495172   -314.381148
 0.925000   -4.137578   -341.641749
 0.930000   -5.911589   -362.293672
 0.935000   -7.760515   -380.125557
 0.940000   -9.712845   -400.142951
 0.945000   -11.761945   -418.117887
 0.950000   -13.894023   -427.068539
 0.955000   -16.032630   -430.919470
 0.960000   -18.203218   -432.551375
 0.965000   -20.358144   -443.903538
 0.970000   -22.642254   -363.795907
 0.975000   -23.996103   -127.785700
 0.980000   -23.920111   181.545020
 0.985000   -22.180653   516.211131
 0.990000   -18.757999   818.133158
 0.995000   -13.999321   985.631326
 1.000000   -8.901686   1053.422650
201 psinorm ommvb() dommvb/dpsiN
 0.000000   51.461632   25961.298811
 0.005000   155.167732   15521.141245
 0.010000   206.673044   9110.480903
 0.015000   246.272541   7214.305197
 0.020000   278.816096   6122.013038
 0.025000   307.492671   5292.663365
 0.030000   331.742730   4555.091778
 0.035000   353.043589   3936.199056
 0.040000   371.104720   3381.216444
 0.045000   386.855754   2942.828993
 0.050000   400.533010   2478.958273
 0.055000   411.645336   2174.937093
 0.060000   422.282381   1960.535591
 0.065000   431.250692   1687.007272
 0.070000   439.152454   1505.713999
 0.075000   446.307832   1311.171342
 0.080000   452.264167   1063.545325
 0.085000   456.943286   846.772942
 0.090000   460.731897   582.581026
 0.095000   462.769096   367.908481
 0.100000   464.410982   238.324222
 0.105000   465.152338   52.483178
 0.110000   464.935813   -70.226060
 0.115000   464.450077   -168.818699
 0.120000   463.247627   -397.634515
 0.125000   460.473732   -532.908531
 0.130000   457.918541   -563.890979
 0.135000   454.834822   -647.605809
 0.140000   451.442483   -694.613962
 0.145000   447.888683   -825.922390
 0.150000   443.183259   -981.123703
 0.155000   438.077446   -1059.213289
 0.160000   432.591126   -1135.593273
 0.165000   426.721513   -1199.565285
 0.170000   420.595473   -1250.705852
 0.175000   414.214455   -1305.605046
 0.180000   407.539423   -1364.367445
 0.185000   400.570780   -1385.174838
 0.190000   393.687675   -1424.843164
 0.195000   386.322348   -1528.526953
 0.200000   378.402405   -1503.684637
 0.205000   371.285502   -1418.061589
 0.210000   364.221789   -1406.555331
 0.215000   357.219949   -1391.342053
 0.220000   350.308369   -1381.285721
 0.225000   343.407092   -1371.688372
 0.230000   336.591485   -1334.522145
 0.235000   330.061870   -1400.484511
 0.240000   322.586640   -1435.994113
 0.245000   315.701929   -1274.618168
 0.250000   309.840458   -1148.234232
 0.255000   304.219587   -1103.673702
 0.260000   298.803721   -1062.453409
 0.265000   293.595053   -1082.513877
 0.270000   287.978582   -1152.672628
 0.275000   282.068326   -1024.424364
 0.280000   277.734339   -845.521821
 0.285000   273.613108   -806.399710
 0.290000   269.670342   -769.848840
 0.295000   265.914620   -885.772238
 0.300000   260.812619   -839.484535
 0.305000   257.519774   -627.763183
 0.310000   254.534987   -581.851077
 0.315000   251.701264   -553.110040
 0.320000   249.003887   -655.945227
 0.325000   245.141811   -600.518970
 0.330000   242.998697   -414.995590
 0.335000   240.991855   -389.758941
 0.340000   239.101108   -417.145888
 0.345000   236.820396   -449.345935
 0.350000   234.607649   -358.756045
 0.355000   233.232836   -266.209222
 0.360000   231.945556   -250.684191
 0.365000   230.725994   -324.232103
 0.370000   228.703235   -292.133073
 0.375000   227.804663   -172.387627
 0.380000   226.979359   -158.725153
 0.385000   226.217412   -217.798756
 0.390000   224.801371   -222.156260
 0.395000   223.995849   -131.725762
 0.400000   223.484114   -96.051532
 0.405000   223.035334   -134.688186
 0.410000   222.137232   -146.954530
 0.415000   221.565789   -84.832469
 0.420000   221.288907   -54.628585
 0.425000   221.019503   -98.817210
 0.430000   220.300735   -130.841412
 0.435000   219.711089   -93.164257
 0.440000   219.369093   -74.205077
 0.445000   218.969038   -128.655025
 0.450000   218.082542   -154.628693
 0.455000   217.422751   -108.089002
 0.460000   217.001652   -89.905751
 0.465000   216.523693   -152.533159
 0.470000   215.476321   -185.168596
 0.475000   214.672007   -131.776705
 0.480000   214.158554   -100.696355
 0.485000   213.665044   -140.978817
 0.490000   212.748766   -144.416805
 0.495000   212.220876   -78.133811
 0.500000   211.967427   -43.850204
 0.505000   211.782374   -69.283183
 0.510000   211.274596   -60.755896
 0.515000   211.174815   -0.825923
 0.520000   211.266336   22.151971
 0.525000   211.396335   -15.949761
 0.530000   211.106839   -11.544036
 0.535000   211.280894   47.896310
 0.540000   211.585802   64.335734
 0.545000   211.924252   38.643098
 0.550000   211.972233   47.432774
 0.555000   212.398579   95.345941
 0.560000   212.925692   109.562818
 0.565000   213.494208   98.044191
 0.570000   213.906134   118.526467
 0.575000   214.679472   164.710840
 0.580000   215.553243   180.636941
 0.585000   216.485842   181.138052
 0.590000   217.364623   202.238822
 0.595000   218.508230   238.763523
 0.600000   219.752258   256.743606
 0.605000   221.075666   276.871084
 0.610000   222.520969   307.797440
 0.615000   224.153640   340.242625
 0.620000   225.923395   364.844493
 0.625000   227.802085   391.392850
 0.630000   229.837324   428.384080
 0.635000   232.085926   455.817729
 0.640000   234.395501   475.338032
 0.645000   236.839306   507.918497
 0.650000   239.474686   566.885149
 0.655000   242.508158   595.717875
 0.660000   245.431865   599.654802
 0.665000   248.504706   630.182721
 0.670000   251.733692   692.493681
 0.675000   255.429643   736.013331
 0.680000   259.093825   736.120617
 0.685000   262.790849   755.221277
 0.690000   266.646038   792.812647
 0.695000   270.718975   866.607389
 0.700000   275.312112   902.715043
 0.705000   279.746126   907.908285
 0.710000   284.391195   952.556213
 0.715000   289.271688   1018.765944
 0.720000   294.578854   1105.781779
 0.725000   300.329506   1144.615144
 0.730000   306.025006   1170.209486
 0.735000   312.031600   1234.402490
 0.740000   318.369031   1317.556774
 0.745000   325.207168   1426.489278
 0.750000   332.633924   1478.660302
 0.755000   339.993771   1506.677379
 0.760000   347.700697   1576.776559
 0.765000   355.761537   1646.642998
 0.770000   364.167127   1749.235610
 0.775000   373.253893   1822.479392
 0.780000   382.391921   1865.578260
 0.785000   391.909676   1952.285517
 0.790000   401.914776   2050.928297
 0.795000   412.418958   2154.220395
 0.800000   423.456980   2267.865173
 0.805000   435.097610   2367.583492
 0.810000   447.132815   2461.842177
 0.815000   459.716032   2574.250860
 0.820000   472.875324   2692.986633
 0.825000   486.645898   2820.076780
 0.830000   501.076092   2941.949363
 0.835000   516.065392   3026.245592
 0.840000   531.338548   3158.050857
 0.845000   547.645901   3334.294411
 0.850000   564.681492   3488.171273
 0.855000   582.527613   3658.390361
 0.860000   601.265395   3876.000587
 0.865000   621.287619   4206.603610
 0.870000   643.331431   4632.989677
 0.875000   667.617516   5029.430038
 0.880000   693.625732   5494.251440
 0.885000   722.560030   6083.360112
 0.890000   754.459333   6650.378523
 0.895000   789.063816   7186.438190
 0.900000   826.323715   7710.387023
 0.905000   866.167686   8202.282852
 0.910000   908.346543   8600.643277
 0.915000   952.174119   8802.442275
 0.920000   996.370966   8800.446728
 0.925000   1040.178586   8879.218218
 0.930000   1085.163148   9782.093762
 0.935000   1137.999523   12879.432766
 0.940000   1213.957476   20112.345145
 0.945000   1339.122975   33830.649069
 0.950000   1552.263967   55268.224650
 0.955000   1891.805221   81474.552916
 0.960000   2367.009496   105927.182926
 0.965000   2951.077051   120380.877609
 0.970000   3570.818272   115012.406244
 0.975000   4101.201113   83753.739097
 0.980000   4408.355663   35816.950084
 0.985000   4459.370614   -9461.442780
 0.990000   4313.741235   -29180.391479
 0.995000   4167.566699   231951.111732
 1.000000   6633.252352   754323.149564
201 psinorm ommpp() dommpp/dpsiN
 0.000000   8.672160   -25840.663783
 0.005000   -94.587298   -15463.119438
 0.010000   -145.959034   -9087.265239
 0.015000   -185.459950   -7196.375936
 0.020000   -217.922793   -6107.381147
 0.025000   -246.533762   -5281.383799
 0.030000   -270.736631   -4547.789071
 0.035000   -292.011652   -3932.772888
 0.040000   -310.064360   -3381.268167
 0.045000   -325.824334   -2946.146031
 0.050000   -339.525821   -2485.020762
 0.055000   -350.674542   -2183.006618
 0.060000   -361.355887   -1969.863197
 0.065000   -370.373174   -1697.056574
 0.070000   -378.326453   -1516.088037
 0.075000   -385.534054   -1321.654156
 0.080000   -391.542994   -1074.155898
 0.085000   -396.275613   -857.523015
 0.090000   -400.118224   -593.781434
 0.095000   -402.213427   -379.974063
 0.100000   -403.917965   -251.405687
 0.105000   -404.727484   -66.759263
 0.110000   -404.585558   54.709007
 0.115000   -404.180394   151.993574
 0.120000   -403.065622   379.221882
 0.125000   -400.388175   512.809674
 0.130000   -397.937525   542.254245
 0.135000   -394.965633   624.465027
 0.140000   -391.692875   670.141430
 0.145000   -388.264219   800.253804
 0.150000   -383.690337   954.189387
 0.155000   -378.722325   1030.827663
 0.160000   -373.382060   1105.645015
 0.165000   -367.665875   1168.025421
 0.170000   -361.701806   1217.503359
 0.175000   -355.490841   1270.830038
 0.180000   -348.993506   1327.884161
 0.185000   -342.211999   1346.909404
 0.190000   -335.524412   1384.815782
 0.195000   -328.363842   1486.808184
 0.200000   -320.656330   1460.320634
 0.205000   -313.760635   1372.939999
 0.210000   -306.926930   1359.512395
 0.215000   -300.165511   1342.341008
 0.220000   -293.503520   1330.688481
 0.225000   -286.858626   1319.731274
 0.230000   -280.306207   1281.258183
 0.235000   -274.046045   1345.703471
 0.240000   -266.849172   1379.877158
 0.245000   -260.247273   1217.853679
 0.250000   -254.670635   1091.086659
 0.255000   -249.336406   1046.335437
 0.260000   -244.207281   1005.301167
 0.265000   -239.283395   1025.574075
 0.270000   -233.951540   1096.255902
 0.275000   -228.320836   969.056048
 0.280000   -224.260980   790.996537
 0.285000   -220.410870   752.520033
 0.290000   -216.735779   716.546894
 0.295000   -213.245401   832.976560
 0.300000   -208.406014   787.383550
 0.305000   -205.371566   576.127382
 0.310000   -202.644740   530.012195
 0.315000   -200.071444   500.543538
 0.320000   -197.639305   602.135629
 0.325000   -194.050088   545.052321
 0.330000   -192.188781   357.508640
 0.335000   -190.475001   330.152791
 0.340000   -188.887254   355.798183
 0.345000   -186.917019   386.684188
 0.350000   -185.020412   295.172767
 0.355000   -183.965292   201.752474
 0.360000   -183.002887   185.124276
 0.365000   -182.114049   258.293544
 0.370000   -180.419951   226.258197
 0.375000   -179.851467   106.317045
 0.380000   -179.356781   92.590026
 0.385000   -178.925567   151.686657
 0.390000   -177.839914   156.484677
 0.395000   -177.360720   67.210919
 0.400000   -177.167805   32.556740
 0.405000   -177.035153   71.745978
 0.410000   -176.450345   84.440832
 0.415000   -176.190744   22.274416
 0.420000   -176.227601   -8.424050
 0.425000   -176.274985   33.084890
 0.430000   -175.896752   60.167567
 0.435000   -175.673309   16.534958
 0.440000   -175.731403   -10.196998
 0.445000   -175.775279   35.845436
 0.450000   -175.372948   54.332865
 0.455000   -175.231950   -0.025805
 0.460000   -175.373206   -25.830289
 0.465000   -175.490253   30.857522
 0.470000   -175.064631   59.299177
 0.475000   -174.897262   4.268248
 0.480000   -175.021949   -26.095353
 0.485000   -175.158215   16.886781
 0.490000   -174.853081   25.127829
 0.495000   -174.906937   -34.348908
 0.500000   -175.196570   -60.440700
 0.505000   -175.511344   -26.697954
 0.510000   -175.463550   -27.678411
 0.515000   -175.788128   -80.953761
 0.520000   -176.273087   -98.352070
 0.525000   -176.771649   -55.899587
 0.530000   -176.832083   -57.485012
 0.535000   -177.346499   -115.344731
 0.540000   -177.985530   -130.734818
 0.545000   -178.653847   -104.355699
 0.550000   -179.029087   -112.611061
 0.555000   -179.779958   -160.098775
 0.560000   -180.630075   -173.982439
 0.565000   -181.519782   -161.951357
 0.570000   -182.249589   -181.652208
 0.575000   -183.336304   -226.824659
 0.580000   -184.517835   -241.597782
 0.585000   -185.752282   -240.821987
 0.590000   -186.926055   -260.505394
 0.595000   -188.357336   -295.569064
 0.600000   -189.881746   -312.180411
 0.605000   -191.479140   -331.121179
 0.610000   -193.192958   -361.110031
 0.615000   -195.090240   -392.967506
 0.620000   -197.122633   -417.291482
 0.625000   -199.263155   -443.855586
 0.630000   -201.561189   -481.234719
 0.635000   -204.075502   -509.406244
 0.640000   -206.655251   -529.775636
 0.645000   -209.373259   -563.250861
 0.650000   -212.287760   -623.156893
 0.655000   -215.604828   -652.985990
 0.660000   -218.817619   -658.170913
 0.665000   -222.186537   -690.392453
 0.670000   -225.721544   -754.675397
 0.675000   -229.733291   -800.506423
 0.680000   -233.726608   -803.715494
 0.685000   -237.770446   -826.716641
 0.690000   -241.993775   -868.905165
 0.695000   -246.459497   -947.981812
 0.700000   -251.473593   -988.257201
 0.705000   -256.342069   -996.592517
 0.710000   -261.439518   -1044.733823
 0.715000   -266.789407   -1114.093293
 0.720000   -272.580451   -1203.829556
 0.725000   -278.827703   -1245.517898
 0.730000   -285.035630   -1272.401567
 0.735000   -291.551719   -1336.605527
 0.740000   -298.401685   -1420.042320
 0.745000   -305.752142   -1528.519086
 0.750000   -313.686876   -1579.428873
 0.755000   -321.546431   -1604.875117
 0.760000   -329.735627   -1671.820560
 0.765000   -338.264636   -1738.761298
 0.770000   -347.123240   -1838.378538
 0.775000   -356.648422   -1909.027760
 0.780000   -366.213518   -1950.121276
 0.785000   -376.149634   -2034.291922
 0.790000   -386.556437   -2132.064767
 0.795000   -397.470282   -2236.669480
 0.800000   -408.923132   -2351.707906
 0.805000   -420.987361   -2453.596542
 0.810000   -433.459097   -2550.722914
 0.815000   -446.494590   -2666.717947
 0.820000   -460.126277   -2790.074518
 0.825000   -474.395335   -2921.251606
 0.830000   -489.338793   -3045.853489
 0.835000   -504.853870   -3132.557842
 0.840000   -520.664371   -3266.165496
 0.845000   -537.515525   -3443.554859
 0.850000   -555.099920   -3597.848398
 0.855000   -573.494009   -3767.769366
 0.860000   -592.777613   -3985.138611
 0.865000   -613.345395   -4316.642963
 0.870000   -635.944043   -4746.055878
 0.875000   -660.805954   -5149.826320
 0.880000   -687.442306   -5626.263314
 0.885000   -717.068587   -6228.662302
 0.890000   -749.728929   -6812.306371
 0.895000   -785.191651   -7370.966187
 0.900000   -823.438591   -7922.338957
 0.905000   -864.415041   -8448.747567
 0.910000   -907.926067   -8887.077398
 0.915000   -953.285815   -9123.426708
 0.920000   -999.160334   -9151.628984
 0.925000   -1044.802104   -9259.283492
 0.930000   -1091.753169   -10182.911338
 0.935000   -1146.631218   -13299.701279
 0.940000   -1224.750182   -20555.104647
 0.945000   -1352.182264   -34280.421939
 0.950000   -1567.554401   -55719.889879
 0.955000   -1909.381163   -81938.108274
 0.960000   -2386.935484   -106394.859717
 0.965000   -2973.329760   -120822.645325
 0.970000   -3595.161937   -115359.344849
 0.975000   -4126.923209   -83880.069724
 0.980000   -4433.962634   -35615.515231
 0.985000   -4483.078361   10025.204051
 0.990000   -4333.710594   30064.268719
 0.995000   -4182.435674   -230896.533387
 1.000000   -6642.675928   -753199.568118
201 psinorm omevb() domevb/dpsiN
 0.000000   40.876337   121.546385
 0.005000   41.331601   60.559099
 0.010000   41.481928   26.649073
 0.015000   41.598092   21.528678
 0.020000   41.697215   18.396716
 0.025000   41.782059   15.209181
 0.030000   41.849307   11.396474
 0.035000   41.896024   7.683429
 0.040000   41.926141   4.368355
 0.045000   41.939707   1.265158
 0.050000   41.938793   -1.318888
 0.055000   41.926518   -3.165255
 0.060000   41.907140   -4.263419
 0.065000   41.883884   -4.825972
 0.070000   41.858881   -4.992354
 0.075000   41.833961   -4.943586
 0.080000   41.809445   -4.914627
 0.085000   41.784814   -4.898255
 0.090000   41.760462   -5.193580
 0.095000   41.732879   -5.904625
 0.100000   41.701416   -6.767277
 0.105000   41.665206   -7.809579
 0.110000   41.623320   -8.899161
 0.115000   41.576214   -10.056796
 0.120000   41.522752   -11.494832
 0.125000   41.461266   -13.032564
 0.130000   41.392427   -14.422948
 0.135000   41.317036   -15.780515
 0.140000   41.234621   -16.966813
 0.145000   41.147368   -18.018460
 0.150000   41.054437   -19.140843
 0.155000   40.955960   -20.449879
 0.160000   40.849938   -21.871327
 0.165000   40.737247   -23.322852
 0.170000   40.616710   -24.846521
 0.175000   40.488781   -26.281206
 0.180000   40.353897   -27.852798
 0.185000   40.210253   -29.499424
 0.190000   40.058903   -31.127022
 0.195000   39.898983   -32.685244
 0.200000   39.732051   -34.198514
 0.205000   39.556998   -35.825348
 0.210000   39.373797   -37.617164
 0.215000   39.180826   -39.446980
 0.220000   38.979327   -40.916130
 0.225000   38.771665   -42.150204
 0.230000   38.557825   -43.332555
 0.235000   38.338340   -44.726401
 0.240000   38.110561   -45.940378
 0.245000   37.878936   -46.467277
 0.250000   37.645889   -46.731041
 0.255000   37.411625   -46.803737
 0.260000   37.177851   -46.501052
 0.265000   36.946615   -46.173294
 0.270000   36.716118   -45.536252
 0.275000   36.491252   -44.375239
 0.280000   36.272366   -43.420976
 0.285000   36.057043   -42.665515
 0.290000   35.845711   -41.979320
 0.295000   35.637249   -41.365981
 0.300000   35.432051   -40.565622
 0.305000   35.231593   -39.996182
 0.310000   35.032089   -40.096426
 0.315000   34.830629   -40.722634
 0.320000   34.624863   -41.865748
 0.325000   34.411971   -43.424256
 0.330000   34.190620   -45.347457
 0.335000   33.958497   -47.371008
 0.340000   33.716910   -49.018369
 0.345000   33.468313   -50.239677
 0.350000   33.214513   -51.069941
 0.355000   32.957614   -51.853615
 0.360000   32.695977   -52.868459
 0.365000   32.428929   -53.160261
 0.370000   32.164375   -53.011219
 0.375000   31.898817   -53.123053
 0.380000   31.633144   -53.105217
 0.385000   31.367765   -53.001301
 0.390000   31.103131   -52.481395
 0.395000   30.842951   -51.246762
 0.400000   30.590664   -50.150321
 0.405000   30.341448   -49.522850
 0.410000   30.095435   -49.020960
 0.415000   29.851238   -48.993441
 0.420000   29.605501   -49.417658
 0.425000   29.357061   -52.028488
 0.430000   29.085216   -56.902670
 0.435000   28.788035   -62.792289
 0.440000   28.457293   -70.500743
 0.445000   28.083027   -78.845447
 0.450000   27.668838   -86.270388
 0.455000   27.220323   -94.029578
 0.460000   26.728543   -101.592534
 0.465000   26.204398   -107.475362
 0.470000   25.653789   -111.613885
 0.475000   25.088259   -113.199169
 0.480000   24.521797   -112.430173
 0.485000   23.963958   -109.679757
 0.490000   23.425000   -104.827454
 0.495000   22.915683   -97.973453
 0.500000   22.445265   -89.735389
 0.505000   22.018329   -81.380868
 0.510000   21.631456   -73.790773
 0.515000   21.280421   -67.094372
 0.520000   20.960513   -61.474494
 0.525000   20.665676   -57.084928
 0.530000   20.389663   -54.227289
 0.535000   20.123404   -52.610795
 0.540000   19.863556   -51.527059
 0.545000   19.608133   -50.807637
 0.550000   19.355479   -50.241844
 0.555000   19.105715   -49.786361
 0.560000   18.857616   -49.424566
 0.565000   18.611469   -48.884970
 0.570000   18.368766   -48.077839
 0.575000   18.130690   -47.041638
 0.580000   17.898349   -45.865802
 0.585000   17.672032   -44.567454
 0.590000   17.452675   -43.130056
 0.595000   17.240732   -41.650388
 0.600000   17.036171   -40.264404
 0.605000   16.838088   -39.061829
 0.610000   16.645553   -38.109829
 0.615000   16.456990   -37.508982
 0.620000   16.270463   -37.219298
 0.625000   16.084797   -37.224586
 0.630000   15.898217   -37.603345
 0.635000   15.708763   -38.333374
 0.640000   15.514883   -39.175890
 0.645000   15.317004   -40.065325
 0.650000   15.114230   -41.000597
 0.655000   14.906998   -41.994039
 0.660000   14.694290   -43.240239
 0.665000   14.474596   -44.933141
 0.670000   14.244958   -46.905410
 0.675000   14.005542   -49.217991
 0.680000   13.752778   -52.321788
 0.685000   13.482324   -56.224960
 0.690000   13.190529   -60.825301
 0.695000   12.874071   -66.110674
 0.700000   12.529422   -70.281888
 0.705000   12.171252   -73.427103
 0.710000   11.795151   -76.922847
 0.715000   11.402024   -80.073620
 0.720000   10.994415   -82.793050
 0.725000   10.574093   -85.644108
 0.730000   10.137974   -86.925471
 0.735000   9.704838   -86.922993
 0.740000   9.268744   -87.184807
 0.745000   8.832990   -86.698843
 0.750000   8.401755   -85.394993
 0.755000   7.979040   -82.765567
 0.760000   7.574100   -79.532740
 0.765000   7.183713   -76.501789
 0.770000   6.809082   -73.387922
 0.775000   6.449834   -70.612782
 0.780000   6.102954   -68.373760
 0.785000   5.766096   -65.536748
 0.790000   5.447587   -64.282825
 0.795000   5.123268   -65.107133
 0.800000   4.796515   -65.882790
 0.805000   4.464440   -67.274594
 0.810000   4.123769   -69.166024
 0.815000   3.772780   -71.533866
 0.820000   3.408431   -74.641272
 0.825000   3.026367   -76.858603
 0.830000   2.639845   -77.291953
 0.835000   2.253447   -76.899692
 0.840000   1.870848   -75.313557
 0.845000   1.500312   -72.398248
 0.850000   1.146865   -68.004863
 0.855000   0.820263   -62.094525
 0.860000   0.525920   -55.433659
 0.865000   0.265927   -49.188590
 0.870000   0.034034   -44.570908
 0.875000   -0.179782   -44.226460
 0.880000   -0.408231   -48.984485
 0.885000   -0.669627   -57.665489
 0.890000   -0.984885   -74.243128
 0.895000   -1.412059   -104.969977
 0.900000   -2.034585   -154.175566
 0.905000   -2.953814   -232.193199
 0.910000   -4.356517   -348.877024
 0.915000   -6.442584   -509.040287
 0.920000   -9.446920   -734.046664
 0.925000   -13.783051   -1051.310964
 0.930000   -19.960030   -1480.302863
 0.935000   -28.586080   -2051.518155
 0.940000   -40.475211   -2782.285581
 0.945000   -56.408936   -3639.662414
 0.950000   -76.871835   -4548.315505
 0.955000   -101.892091   -5261.142860
 0.960000   -129.483264   -5177.578499
 0.965000   -153.667876   -3482.301305
 0.970000   -164.306277   31.060444
 0.975000   -153.357271   4008.413291
 0.980000   -124.222144   6317.314205
 0.985000   -90.184129   6278.970229
 0.990000   -61.432442   4987.028042
 0.995000   -40.313849   3595.932080
 1.000000   -25.473121   2340.358943
201 psinorm omepp() domepp/dpsiN
 0.000000   19.257455   -0.911357
 0.005000   19.248833   -2.537292
 0.010000   19.232082   -3.433410
 0.015000   19.214499   -3.599417
 0.020000   19.196088   -3.764825
 0.025000   19.176851   -3.929615
 0.030000   19.156791   -4.093767
 0.035000   19.135913   -4.257261
 0.040000   19.114219   -4.420077
 0.045000   19.091712   -4.582197
 0.050000   19.068397   -4.743601
 0.055000   19.044276   -4.904271
 0.060000   19.019354   -5.064187
 0.065000   18.993634   -5.223331
 0.070000   18.967121   -5.381684
 0.075000   18.939818   -5.539228
 0.080000   18.911729   -5.695945
 0.085000   18.882858   -5.851818
 0.090000   18.853210   -6.006827
 0.095000   18.822790   -6.160957
 0.100000   18.791601   -6.314189
 0.105000   18.759648   -6.466506
 0.110000   18.726936   -6.617892
 0.115000   18.693469   -6.768329
 0.120000   18.659252   -6.917801
 0.125000   18.624291   -7.066292
 0.130000   18.588590   -7.213786
 0.135000   18.552153   -7.360267
 0.140000   18.514987   -7.505718
 0.145000   18.477096   -7.650126
 0.150000   18.438486   -7.793474
 0.155000   18.399161   -7.935747
 0.160000   18.359128   -8.076931
 0.165000   18.318392   -8.217011
 0.170000   18.276958   -8.355973
 0.175000   18.234832   -8.493802
 0.180000   18.192020   -8.630486
 0.185000   18.148527   -8.766009
 0.190000   18.104360   -8.900360
 0.195000   18.059524   -9.033524
 0.200000   18.014025   -9.165489
 0.205000   17.967869   -9.296243
 0.210000   17.921062   -9.425772
 0.215000   17.873611   -9.554065
 0.220000   17.825522   -9.681110
 0.225000   17.776800   -9.806894
 0.230000   17.727453   -9.931408
 0.235000   17.677486   -10.054640
 0.240000   17.626906   -10.176578
 0.245000   17.575720   -10.297212
 0.250000   17.523934   -10.416532
 0.255000   17.471555   -10.534528
 0.260000   17.418589   -10.651190
 0.265000   17.365043   -10.766508
 0.270000   17.310924   -10.880473
 0.275000   17.256238   -10.993076
 0.280000   17.200993   -11.104309
 0.285000   17.145195   -11.214161
 0.290000   17.088851   -11.322627
 0.295000   17.031969   -11.429696
 0.300000   16.974554   -11.535363
 0.305000   16.916615   -11.639619
 0.310000   16.858158   -11.742456
 0.315000   16.799191   -11.843869
 0.320000   16.739720   -11.943850
 0.325000   16.679752   -12.042394
 0.330000   16.619296   -12.139493
 0.335000   16.558357   -12.235142
 0.340000   16.496944   -12.329336
 0.345000   16.435064   -12.422070
 0.350000   16.372724   -12.513337
 0.355000   16.309930   -12.603134
 0.360000   16.246692   -12.691456
 0.365000   16.183016   -12.778298
 0.370000   16.118909   -12.863657
 0.375000   16.054379   -12.947529
 0.380000   15.989434   -13.029910
 0.385000   15.924080   -13.110798
 0.390000   15.858326   -13.190189
 0.395000   15.792178   -13.268081
 0.400000   15.725645   -13.344471
 0.405000   15.658734   -13.419358
 0.410000   15.591452   -13.492738
 0.415000   15.523806   -13.564612
 0.420000   15.455805   -13.634977
 0.425000   15.387456   -13.703832
 0.430000   15.318767   -13.771176
 0.435000   15.249745   -13.837010
 0.440000   15.180397   -13.901332
 0.445000   15.110731   -13.964142
 0.450000   15.040756   -14.025441
 0.455000   14.970477   -14.085228
 0.460000   14.899903   -14.143506
 0.465000   14.829042   -14.200274
 0.470000   14.757901   -14.255534
 0.475000   14.686487   -14.309287
 0.480000   14.614808   -14.361535
 0.485000   14.542871   -14.412279
 0.490000   14.470685   -14.461522
 0.495000   14.398256   -14.509267
 0.500000   14.325592   -14.555515
 0.505000   14.252701   -14.600270
 0.510000   14.179590   -14.643534
 0.515000   14.106266   -14.685311
 0.520000   14.032736   -14.725605
 0.525000   13.959010   -14.764420
 0.530000   13.885092   -14.801758
 0.535000   13.810992   -14.837625
 0.540000   13.736716   -14.872026
 0.545000   13.662272   -14.904963
 0.550000   13.587666   -14.936444
 0.555000   13.512907   -14.966473
 0.560000   13.438002   -14.995055
 0.565000   13.362957   -15.022196
 0.570000   13.287780   -15.047903
 0.575000   13.212478   -15.072181
 0.580000   13.137058   -15.095038
 0.585000   13.061527   -15.116480
 0.590000   12.985893   -15.136516
 0.595000   12.910162   -15.155153
 0.600000   12.834341   -15.172400
 0.605000   12.758438   -15.188266
 0.610000   12.682459   -15.202762
 0.615000   12.606410   -15.215900
 0.620000   12.530300   -15.227691
 0.625000   12.454134   -15.238150
 0.630000   12.377918   -15.247294
 0.635000   12.301661   -15.255141
 0.640000   12.225367   -15.261714
 0.645000   12.149043   -15.267039
 0.650000   12.072697   -15.271147
 0.655000   11.996332   -15.274076
 0.660000   11.919956   -15.275872
 0.665000   11.843573   -15.276592
 0.670000   11.767190   -15.276306
 0.675000   11.690810   -15.275102
 0.680000   11.614439   -15.273089
 0.685000   11.538079   -15.270403
 0.690000   11.461735   -15.267217
 0.695000   11.385407   -15.263748
 0.700000   11.309097   -15.260270
 0.705000   11.232804   -15.257129
 0.710000   11.156526   -15.254764
 0.715000   11.080257   -15.253729
 0.720000   11.003989   -15.254727
 0.725000   10.927710   -15.258646
 0.730000   10.851402   -15.266611
 0.735000   10.775043   -15.280043
 0.740000   10.698602   -15.300739
 0.745000   10.622036   -15.330965
 0.750000   10.545292   -15.373577
 0.755000   10.468300   -15.432171
 0.760000   10.390970   -15.511261
 0.765000   10.313188   -15.616511
 0.770000   10.234805   -15.755006
 0.775000   10.155638   -15.935587
 0.780000   10.075450   -16.169256
 0.785000   9.993945   -16.469657
 0.790000   9.910753   -16.853645
 0.795000   9.825409   -17.341953
 0.800000   9.737333   -17.959943
 0.805000   9.645809   -18.738456
 0.810000   9.549949   -19.714712
 0.815000   9.448662   -20.933221
 0.820000   9.340617   -22.446613
 0.825000   9.224196   -24.316223
 0.830000   9.097454   -26.612173
 0.835000   8.958074   -29.412557
 0.840000   8.803329   -32.801082
 0.845000   8.630063   -36.862200
 0.850000   8.434707   -41.672263
 0.855000   8.213341   -47.284480
 0.860000   7.961862   -53.704365
 0.865000   7.676297   -60.850763
 0.870000   7.353354   -68.495293
 0.875000   6.991344   -76.169822
 0.880000   6.591656   -83.027389
 0.885000   6.161070   -87.636701
 0.890000   5.715289   -87.684720
 0.895000   5.284223   -79.558020
 0.900000   4.919709   -57.776367
 0.905000   4.706459   -14.271516
 0.910000   4.776994   62.442903
 0.915000   5.330888   188.055854
 0.920000   6.657552   382.864409
 0.925000   9.159533   671.245690
 0.930000   13.370009   1079.485286
 0.935000   19.954385   1631.249641
 0.940000   29.682506   2339.526079
 0.945000   43.349646   3189.889544
 0.950000   61.581401   4096.650276
 0.955000   84.316149   4797.587502
 0.960000   109.557276   4709.901708
 0.965000   131.415166   3040.533589
 0.970000   139.962612   -377.999049
 0.975000   127.635176   -4134.743918
 0.980000   98.615173   -6115.879352
 0.985000   66.476382   -5715.208958
 0.990000   41.463083   -4103.150802
 0.995000   25.444874   -2541.353735
 1.000000   16.049546   -1216.777497
201 psinorm kpol(km/s/T) dkpol/dpsiN
 0.000000   -0.006022   137.313172
 0.005000   0.546309   83.619083
 0.010000   0.830169   54.082670
 0.015000   1.087135   50.343502
 0.020000   1.333604   48.449862
 0.025000   1.571634   46.354366
 0.030000   1.797147   43.476696
 0.035000   2.006401   40.569275
 0.040000   2.202840   37.964249
 0.045000   2.386043   35.493980
 0.050000   2.557780   33.479609
 0.055000   2.720839   32.167781
 0.060000   2.879458   31.644147
 0.065000   3.037281   31.629012
 0.070000   3.195748   31.892313
 0.075000   3.356204   32.291355
 0.080000   3.518662   32.588817
 0.085000   3.682092   32.778200
 0.090000   3.846444   32.719859
 0.095000   4.009291   32.225137
 0.100000   4.168695   31.405036
 0.105000   4.323341   30.325981
 0.110000   4.471955   29.131398
 0.115000   4.614655   27.767919
 0.120000   4.749634   26.370757
 0.125000   4.878363   25.127533
 0.130000   5.000909   24.010259
 0.135000   5.118465   22.945659
 0.140000   5.230366   22.001048
 0.145000   5.338476   21.094163
 0.150000   5.441307   20.076926
 0.155000   5.539245   18.844770
 0.160000   5.629755   17.436067
 0.165000   5.713606   15.932412
 0.170000   5.789079   14.271272
 0.175000   5.856318   12.524049
 0.180000   5.914320   10.632221
 0.185000   5.962641   8.761555
 0.190000   6.001935   6.835818
 0.195000   6.030999   4.979090
 0.200000   6.051726   3.219679
 0.205000   6.063196   1.456687
 0.210000   6.066293   -0.081127
 0.215000   6.062384   -1.517419
 0.220000   6.051119   -2.810175
 0.225000   6.034283   -4.064910
 0.230000   6.010470   -5.426990
 0.235000   5.980013   -6.729040
 0.240000   5.943179   -8.158932
 0.245000   5.898423   -9.647447
 0.250000   5.846705   -11.107934
 0.255000   5.787344   -12.706894
 0.260000   5.719636   -14.215292
 0.265000   5.645191   -15.693942
 0.270000   5.562697   -17.273426
 0.275000   5.472457   -18.723653
 0.280000   5.375460   -20.214185
 0.285000   5.270315   -21.803473
 0.290000   5.157425   -23.323810
 0.295000   5.037077   -24.928198
 0.300000   4.908143   -26.574323
 0.305000   4.771334   -28.146748
 0.310000   4.626676   -29.792588
 0.315000   4.473408   -31.443507
 0.320000   4.312241   -33.031541
 0.325000   4.143092   -34.658520
 0.330000   3.965656   -36.220364
 0.335000   3.780889   -37.618855
 0.340000   3.589467   -38.884094
 0.345000   3.392048   -39.907420
 0.350000   3.190393   -40.519332
 0.355000   2.986854   -40.917374
 0.360000   2.781219   -41.331029
 0.365000   2.573544   -41.766004
 0.370000   2.363559   -42.349865
 0.375000   2.150046   -43.132606
 0.380000   1.932233   -44.188186
 0.385000   1.708164   -45.617507
 0.390000   1.476058   -47.299685
 0.395000   1.235167   -49.054794
 0.400000   0.985510   -50.791065
 0.405000   0.727256   -52.414558
 0.410000   0.461364   -53.999458
 0.415000   0.187262   -56.036807
 0.420000   -0.099004   -59.089643
 0.425000   -0.403635   -63.429964
 0.430000   -0.733303   -69.093335
 0.435000   -1.094568   -76.152335
 0.440000   -1.494827   -84.983382
 0.445000   -1.944402   -94.210821
 0.450000   -2.436935   -102.529752
 0.455000   -2.969700   -110.055210
 0.460000   -3.537487   -116.363988
 0.465000   -4.133339   -120.966272
 0.470000   -4.747150   -122.926033
 0.475000   -5.362600   -121.548660
 0.480000   -5.962636   -117.077647
 0.485000   -6.533376   -110.018396
 0.490000   -7.062820   -100.905384
 0.495000   -7.542430   -89.963586
 0.500000   -7.962456   -77.781180
 0.505000   -8.320242   -66.218996
 0.510000   -8.624646   -56.245468
 0.515000   -8.882697   -47.623659
 0.520000   -9.100883   -40.421676
 0.525000   -9.286913   -34.815691
 0.530000   -9.449040   -31.231158
 0.535000   -9.599225   -29.329873
 0.540000   -9.742338   -28.155508
 0.545000   -9.880780   -27.451361
 0.550000   -10.016852   -26.939033
 0.555000   -10.150170   -26.511137
 0.560000   -10.281963   -26.066759
 0.565000   -10.410838   -25.317088
 0.570000   -10.535134   -24.170456
 0.575000   -10.652542   -22.608721
 0.580000   -10.761221   -20.761475
 0.585000   -10.860157   -18.595119
 0.590000   -10.947173   -16.027545
 0.595000   -11.020433   -13.257828
 0.600000   -11.079751   -10.502671
 0.605000   -11.125459   -7.801414
 0.610000   -11.157765   -5.232288
 0.615000   -11.177782   -2.951484
 0.620000   -11.187280   -1.001892
 0.625000   -11.187801   0.649287
 0.630000   -11.180787   2.006665
 0.635000   -11.167734   3.063715
 0.640000   -11.150150   3.926184
 0.645000   -11.128473   4.683742
 0.650000   -11.103312   5.336652
 0.655000   -11.075106   5.929510
 0.660000   -11.044017   6.504689
 0.665000   -11.010059   7.046055
 0.670000   -10.973557   7.484727
 0.675000   -10.935212   7.872160
 0.680000   -10.894835   8.277393
 0.685000   -10.852438   8.700388
 0.690000   -10.807831   9.180743
 0.695000   -10.760631   9.787880
 0.700000   -10.709952   10.586160
 0.705000   -10.654769   11.490115
 0.710000   -10.595051   12.325357
 0.715000   -10.531515   12.988085
 0.720000   -10.465170   13.379227
 0.725000   -10.397723   13.334411
 0.730000   -10.331826   12.815672
 0.735000   -10.269566   11.736145
 0.740000   -10.214465   9.989642
 0.745000   -10.169670   7.720160
 0.750000   -10.137263   5.136295
 0.755000   -10.118307   2.411768
 0.760000   -10.113146   -0.302838
 0.765000   -10.121335   -2.771629
 0.770000   -10.140862   -4.881820
 0.775000   -10.170154   -6.760797
 0.780000   -10.208470   -8.693419
 0.785000   -10.257088   -10.909159
 0.790000   -10.317561   -13.904511
 0.795000   -10.396133   -18.122703
 0.800000   -10.498789   -23.619311
 0.805000   -10.632326   -30.376333
 0.810000   -10.802552   -38.240505
 0.815000   -11.014731   -47.037270
 0.820000   -11.272925   -56.513662
 0.825000   -11.579868   -65.636977
 0.830000   -11.929294   -73.765248
 0.835000   -12.317520   -80.985238
 0.840000   -12.739147   -86.543670
 0.845000   -13.182957   -89.638841
 0.850000   -13.635535   -89.712868
 0.855000   -14.080086   -86.336296
 0.860000   -14.498898   -79.448107
 0.865000   -14.874567   -69.569122
 0.870000   -15.194589   -57.613262
 0.875000   -15.450699   -44.337960
 0.880000   -15.637969   -30.011032
 0.885000   -15.750810   -14.985329
 0.890000   -15.787822   -0.146704
 0.895000   -15.752277   13.747471
 0.900000   -15.650347   26.018483
 0.905000   -15.492092   35.621731
 0.910000   -15.294130   42.378573
 0.915000   -15.068306   46.437264
 0.920000   -14.829758   48.018816
 0.925000   -14.588118   48.232191
 0.930000   -14.347436   50.961239
 0.935000   -14.078506   54.325835
 0.940000   -13.804177   56.326894
 0.945000   -13.515237   60.356003
 0.950000   -13.200617   68.461049
 0.955000   -12.830626   80.049165
 0.960000   -12.400126   99.254102
 0.965000   -11.838085   141.251717
 0.970000   -10.987608   222.218972
 0.975000   -9.615895   357.987388
 0.980000   -7.407735   548.540102
 0.985000   -4.130494   755.281107
 0.990000   0.145077   898.540334
 0.995000   4.854909   877.180605
 1.000000   8.916883   747.608825
201 psinorm omghb() domghb/dpsiN
 0.000000   -0.000072   -0.015820
 0.005000   -0.000268   -0.062535
 0.010000   -0.000698   -0.057676
 0.015000   -0.000845   -0.019735
 0.020000   -0.000895   -0.000660
 0.025000   -0.000852   0.017721
 0.030000   -0.000718   0.043345
 0.035000   -0.000418   0.071117
 0.040000   -0.000007   0.093059
 0.045000   0.000513   0.101648
 0.050000   0.001010   0.095591
 0.055000   0.001468   0.085588
 0.060000   0.001866   0.068302
 0.065000   0.002151   0.051516
 0.070000   0.002381   0.043423
 0.075000   0.002586   0.040852
 0.080000   0.002789   0.046095
 0.085000   0.003047   0.060409
 0.090000   0.003394   0.075334
 0.095000   0.003800   0.089076
 0.100000   0.004284   0.118614
 0.105000   0.004986   0.148408
 0.110000   0.005768   0.156875
 0.115000   0.006555   0.164872
 0.120000   0.007417   0.183743
 0.125000   0.008392   0.204015
 0.130000   0.009457   0.217139
 0.135000   0.010564   0.207561
 0.140000   0.011533   0.198291
 0.145000   0.012547   0.211557
 0.150000   0.013648   0.228040
 0.155000   0.014827   0.252113
 0.160000   0.016170   0.270528
 0.165000   0.017532   0.290027
 0.170000   0.019070   0.298796
 0.175000   0.020520   0.314596
 0.180000   0.022216   0.332315
 0.185000   0.023843   0.333863
 0.190000   0.025554   0.345691
 0.195000   0.027300   0.367141
 0.200000   0.029226   0.395624
 0.205000   0.031257   0.389757
 0.210000   0.033123   0.392456
 0.215000   0.035181   0.411972
 0.220000   0.037243   0.424085
 0.225000   0.039422   0.396893
 0.230000   0.041212   0.345894
 0.235000   0.042881   0.327442
 0.240000   0.044486   0.319970
 0.245000   0.046081   0.309550
 0.250000   0.047582   0.322495
 0.255000   0.049306   0.161502
 0.260000   0.049197   0.034422
 0.265000   0.049650   0.076827
 0.270000   0.049965   0.043113
 0.275000   0.050081   0.032697
 0.280000   0.050292   0.034461
 0.285000   0.050425   0.002407
 0.290000   0.050316   0.027977
 0.295000   0.050705   0.083593
 0.300000   0.051152   0.076206
 0.305000   0.051467   0.088348
 0.310000   0.052036   0.066327
 0.315000   0.052131   0.351638
 0.320000   0.055552   0.615708
 0.325000   0.058288   0.546863
 0.330000   0.061021   0.524304
 0.335000   0.063531   0.499060
 0.340000   0.066011   0.544714
 0.345000   0.068978   0.473753
 0.350000   0.070749   0.329224
 0.355000   0.072270   0.287724
 0.360000   0.073626   0.242060
 0.365000   0.074691   0.225777
 0.370000   0.075884   0.378655
 0.375000   0.078477   0.239109
 0.380000   0.078275   -0.043827
 0.385000   0.078039   -0.019593
 0.390000   0.078079   0.012684
 0.395000   0.078166   0.012125
 0.400000   0.078200   -0.075295
 0.405000   0.077413   -0.126963
 0.410000   0.076931   0.042132
 0.415000   0.077834   0.279759
 0.420000   0.079728   0.628514
 0.425000   0.084119   1.133355
 0.430000   0.091062   1.433514
 0.435000   0.098454   1.770695
 0.440000   0.108769   2.221565
 0.445000   0.120670   2.341824
 0.450000   0.132187   2.462570
 0.455000   0.145296   2.358973
 0.460000   0.155777   1.846383
 0.465000   0.163760   1.442831
 0.470000   0.170205   1.048001
 0.475000   0.174240   0.476189
 0.480000   0.174967   -0.271553
 0.485000   0.171524   -0.986035
 0.490000   0.165107   -1.451919
 0.495000   0.157005   -1.809141
 0.500000   0.147015   -2.083140
 0.505000   0.136174   -2.109780
 0.510000   0.125917   -2.058555
 0.515000   0.115588   -1.734570
 0.520000   0.108572   -1.216799
 0.525000   0.103420   -0.841719
 0.530000   0.100154   -0.540418
 0.535000   0.098016   -0.329683
 0.540000   0.096858   -0.133767
 0.545000   0.096678   -0.031853
 0.550000   0.096539   -0.044217
 0.555000   0.096236   -0.061854
 0.560000   0.095921   -0.071470
 0.565000   0.095521   -0.105303
 0.570000   0.094867   -0.152356
 0.575000   0.093998   -0.221987
 0.580000   0.092648   -0.297996
 0.585000   0.091018   -0.348526
 0.590000   0.089162   -0.384405
 0.595000   0.087174   -0.365368
 0.600000   0.085509   -0.318730
 0.605000   0.083986   -0.270427
 0.610000   0.082804   -0.182482
 0.615000   0.082162   -0.057253
 0.620000   0.082232   0.045632
 0.625000   0.082618   0.131422
 0.630000   0.083546   0.227683
 0.635000   0.084895   0.283121
 0.640000   0.086377   0.329486
 0.645000   0.088190   0.414314
 0.650000   0.090520   0.422797
 0.655000   0.092418   0.410612
 0.660000   0.094627   0.481874
 0.665000   0.097236   0.597056
 0.670000   0.100597   0.771428
 0.675000   0.104951   1.090183
 0.680000   0.111499   1.327910
 0.685000   0.118230   1.399995
 0.690000   0.125499   1.505624
 0.695000   0.133286   1.566522
 0.700000   0.141164   1.473741
 0.705000   0.148023   1.539251
 0.710000   0.156557   1.319849
 0.715000   0.161222   0.805354
 0.720000   0.164610   0.762577
 0.725000   0.168848   0.770661
 0.730000   0.172317   0.572078
 0.735000   0.174568   0.398918
 0.740000   0.176306   0.024778
 0.745000   0.174816   -0.399985
 0.750000   0.172306   -0.542583
 0.755000   0.169390   -0.737908
 0.760000   0.164927   -0.907222
 0.765000   0.160318   -1.080558
 0.770000   0.154121   -1.180279
 0.775000   0.148515   -0.716466
 0.780000   0.146957   -0.347004
 0.785000   0.145045   -0.216111
 0.790000   0.144796   0.016187
 0.795000   0.145207   0.128559
 0.800000   0.146081   0.491818
 0.805000   0.150125   1.282009
 0.810000   0.158901   1.571106
 0.815000   0.165836   1.464537
 0.820000   0.173547   1.448829
 0.825000   0.180325   1.257377
 0.830000   0.186121   1.184673
 0.835000   0.192171   0.934688
 0.840000   0.195467   0.501258
 0.845000   0.197184   0.226796
 0.850000   0.197735   0.046908
 0.855000   0.197653   0.029655
 0.860000   0.198032   0.462500
 0.865000   0.202278   0.801537
 0.870000   0.206047   1.575588
 0.875000   0.218034   3.080438
 0.880000   0.236852   4.467919
 0.885000   0.262713   5.856011
 0.890000   0.295412   8.645584
 0.895000   0.349169   9.422961
 0.900000   0.389641   10.092424
 0.905000   0.450093   12.717510
 0.910000   0.516816   13.367501
 0.915000   0.583768   12.873132
 0.920000   0.645548   15.320340
 0.925000   0.736972   10.764011
 0.930000   0.753188   4.378969
 0.935000   0.780761   5.290638
 0.940000   0.806094   4.890571
 0.945000   0.829667   4.851714
 0.950000   0.854611   11.942677
 0.955000   0.949094   7.518871
 0.960000   0.929800   -8.234038
 0.965000   0.866753   -25.244462
 0.970000   0.677356   -58.860268
 0.975000   0.278151   -103.430667
 0.980000   -0.356951   -141.899158
 0.985000   -1.140841   -150.900448
 0.990000   -1.865956   -106.966761
 0.995000   -2.210509   -21.004764
 1.000000   -2.076003   74.806868
201 psinorm nz1(10^20/m^3) dnz1/dpsiN
 0.000000   0.015495   0.000000
 0.005000   0.015495   -0.000008
 0.010000   0.015495   -0.000015
 0.015000   0.015495   -0.000023
 0.020000   0.015495   -0.000031
 0.025000   0.015495   -0.000038
 0.030000   0.015494   -0.000045
 0.035000   0.015494   -0.000052
 0.040000   0.015494   -0.000058
 0.045000   0.015494   -0.000064
 0.050000   0.015493   -0.000069
 0.055000   0.015493   -0.000073
 0.060000   0.015492   -0.000076
 0.065000   0.015492   -0.000078
 0.070000   0.015492   -0.000079
 0.075000   0.015491   -0.000080
 0.080000   0.015491   -0.000078
 0.085000   0.015491   -0.000076
 0.090000   0.015490   -0.000072
 0.095000   0.015490   -0.000067
 0.100000   0.015489   -0.000060
 0.105000   0.015489   -0.000052
 0.110000   0.015489   -0.000042
 0.115000   0.015489   -0.000031
 0.120000   0.015489   -0.000018
 0.125000   0.015489   -0.000003
 0.130000   0.015489   0.000013
 0.135000   0.015489   0.000031
 0.140000   0.015489   0.000051
 0.145000   0.015489   0.000073
 0.150000   0.015490   0.000096
 0.155000   0.015490   0.000121
 0.160000   0.015491   0.000147
 0.165000   0.015492   0.000175
 0.170000   0.015493   0.000205
 0.175000   0.015494   0.000237
 0.180000   0.015495   0.000270
 0.185000   0.015496   0.000305
 0.190000   0.015498   0.000342
 0.195000   0.015500   0.000380
 0.200000   0.015502   0.000420
 0.205000   0.015504   0.000462
 0.210000   0.015506   0.000505
 0.215000   0.015509   0.000549
 0.220000   0.015512   0.000595
 0.225000   0.015515   0.000643
 0.230000   0.015518   0.000692
 0.235000   0.015522   0.000742
 0.240000   0.015526   0.000795
 0.245000   0.015530   0.000849
 0.250000   0.015534   0.000905
 0.255000   0.015539   0.000963
 0.260000   0.015544   0.001022
 0.265000   0.015549   0.001082
 0.270000   0.015555   0.001144
 0.275000   0.015561   0.001206
 0.280000   0.015567   0.001269
 0.285000   0.015573   0.001333
 0.290000   0.015580   0.001396
 0.295000   0.015587   0.001460
 0.300000   0.015595   0.001523
 0.305000   0.015603   0.001586
 0.310000   0.015611   0.001647
 0.315000   0.015619   0.001708
 0.320000   0.015628   0.001766
 0.325000   0.015637   0.001824
 0.330000   0.015646   0.001880
 0.335000   0.015655   0.001935
 0.340000   0.015665   0.001991
 0.345000   0.015675   0.002050
 0.350000   0.015686   0.002110
 0.355000   0.015696   0.002172
 0.360000   0.015707   0.002235
 0.365000   0.015719   0.002297
 0.370000   0.015730   0.002358
 0.375000   0.015742   0.002416
 0.380000   0.015755   0.002470
 0.385000   0.015767   0.002516
 0.390000   0.015780   0.002553
 0.395000   0.015793   0.002583
 0.400000   0.015806   0.002603
 0.405000   0.015819   0.002612
 0.410000   0.015832   0.002609
 0.415000   0.015845   0.002596
 0.420000   0.015858   0.002574
 0.425000   0.015870   0.002543
 0.430000   0.015883   0.002502
 0.435000   0.015896   0.002450
 0.440000   0.015908   0.002390
 0.445000   0.015919   0.002326
 0.450000   0.015931   0.002259
 0.455000   0.015942   0.002189
 0.460000   0.015953   0.002116
 0.465000   0.015963   0.002041
 0.470000   0.015973   0.001965
 0.475000   0.015983   0.001885
 0.480000   0.015992   0.001799
 0.485000   0.016001   0.001705
 0.490000   0.016009   0.001603
 0.495000   0.016017   0.001491
 0.500000   0.016024   0.001369
 0.505000   0.016031   0.001238
 0.510000   0.016036   0.001097
 0.515000   0.016041   0.000946
 0.520000   0.016046   0.000786
 0.525000   0.016049   0.000618
 0.530000   0.016052   0.000440
 0.535000   0.016054   0.000255
 0.540000   0.016055   0.000062
 0.545000   0.016054   -0.000138
 0.550000   0.016053   -0.000347
 0.555000   0.016051   -0.000563
 0.560000   0.016048   -0.000787
 0.565000   0.016043   -0.001020
 0.570000   0.016037   -0.001261
 0.575000   0.016030   -0.001512
 0.580000   0.016022   -0.001771
 0.585000   0.016013   -0.002039
 0.590000   0.016002   -0.002316
 0.595000   0.015990   -0.002599
 0.600000   0.015976   -0.002888
 0.605000   0.015961   -0.003182
 0.610000   0.015944   -0.003480
 0.615000   0.015926   -0.003781
 0.620000   0.015906   -0.004084
 0.625000   0.015885   -0.004392
 0.630000   0.015862   -0.004707
 0.635000   0.015838   -0.005031
 0.640000   0.015812   -0.005363
 0.645000   0.015784   -0.005706
 0.650000   0.015755   -0.006063
 0.655000   0.015724   -0.006431
 0.660000   0.015691   -0.006807
 0.665000   0.015656   -0.007191
 0.670000   0.015619   -0.007580
 0.675000   0.015580   -0.007975
 0.680000   0.015539   -0.008391
 0.685000   0.015496   -0.008855
 0.690000   0.015450   -0.009392
 0.695000   0.015402   -0.010013
 0.700000   0.015350   -0.010723
 0.705000   0.015295   -0.011522
 0.710000   0.015235   -0.012444
 0.715000   0.015170   -0.013463
 0.720000   0.015100   -0.014499
 0.725000   0.015025   -0.015545
 0.730000   0.014945   -0.016601
 0.735000   0.014859   -0.017646
 0.740000   0.014769   -0.018667
 0.745000   0.014673   -0.019603
 0.750000   0.014572   -0.020378
 0.755000   0.014469   -0.020984
 0.760000   0.014363   -0.021422
 0.765000   0.014255   -0.021677
 0.770000   0.014146   -0.021707
 0.775000   0.014038   -0.021477
 0.780000   0.013931   -0.021074
 0.785000   0.013827   -0.020584
 0.790000   0.013725   -0.020018
 0.795000   0.013627   -0.019415
 0.800000   0.013531   -0.018791
 0.805000   0.013439   -0.018183
 0.810000   0.013349   -0.017699
 0.815000   0.013262   -0.017362
 0.820000   0.013176   -0.017121
 0.825000   0.013091   -0.016958
 0.830000   0.013006   -0.016842
 0.835000   0.012922   -0.016742
 0.840000   0.012839   -0.016639
 0.845000   0.012756   -0.016530
 0.850000   0.012673   -0.016416
 0.855000   0.012592   -0.016296
 0.860000   0.012510   -0.016167
 0.865000   0.012430   -0.016042
 0.870000   0.012350   -0.015955
 0.875000   0.012270   -0.015977
 0.880000   0.012190   -0.016162
 0.885000   0.012109   -0.016520
 0.890000   0.012025   -0.017038
 0.895000   0.011938   -0.017842
 0.900000   0.011847   -0.018861
 0.905000   0.011750   -0.020035
 0.910000   0.011646   -0.021517
 0.915000   0.011535   -0.023329
 0.920000   0.011413   -0.025525
 0.925000   0.011279   -0.028697
 0.930000   0.011126   -0.032961
 0.935000   0.010950   -0.038422
 0.940000   0.010742   -0.046159
 0.945000   0.010488   -0.057455
 0.950000   0.010167   -0.073934
 0.955000   0.009749   -0.098125
 0.960000   0.009186   -0.129865
 0.965000   0.008450   -0.165377
 0.970000   0.007532   -0.198609
 0.975000   0.006464   -0.220579
 0.980000   0.005326   -0.223504
 0.985000   0.004229   -0.205504
 0.990000   0.003271   -0.171761
 0.995000   0.002511   -0.132094
 1.000000   0.001950   -0.092288
201 psinorm vtor1(km/s) dvtor1/dpsiN
 0.000000   104.775395   533.258393
 0.005000   106.844013   294.188640
 0.010000   107.717282   153.687929
 0.015000   108.380892   121.241481
 0.020000   108.929697   102.299277
 0.025000   109.403885   89.940715
 0.030000   109.829104   81.087468
 0.035000   110.214760   73.501947
 0.040000   110.564123   67.072022
 0.045000   110.885480   61.795378
 0.050000   111.182077   57.016838
 0.055000   111.455648   52.499492
 0.060000   111.707072   48.364206
 0.065000   111.939290   44.644363
 0.070000   112.153515   41.061280
 0.075000   112.349903   37.604657
 0.080000   112.529562   34.394528
 0.085000   112.693848   31.305231
 0.090000   112.842614   28.200990
 0.095000   112.975858   25.174452
 0.100000   113.094359   22.266341
 0.105000   113.198522   19.345178
 0.110000   113.287811   16.396040
 0.115000   113.362482   13.486339
 0.120000   113.422674   10.614120
 0.125000   113.468623   7.620735
 0.130000   113.498881   4.525512
 0.135000   113.513878   1.409883
 0.140000   113.512980   -1.851268
 0.145000   113.495366   -5.214152
 0.150000   113.460839   -8.586949
 0.155000   113.409496   -11.978611
 0.160000   113.341053   -15.467873
 0.165000   113.254818   -19.012612
 0.170000   113.150926   -22.524520
 0.175000   113.029572   -26.025131
 0.180000   112.890675   -29.541715
 0.185000   112.734155   -33.027342
 0.190000   112.560402   -36.447205
 0.195000   112.369683   -39.820354
 0.200000   112.162198   -43.117741
 0.205000   111.938506   -46.265937
 0.210000   111.699539   -49.212949
 0.215000   111.446376   -51.935507
 0.220000   111.180184   -54.326609
 0.225000   110.903110   -56.254671
 0.230000   110.617637   -57.901051
 0.235000   110.324100   -59.383416
 0.240000   110.023803   -60.613532
 0.245000   109.717964   -61.624682
 0.250000   109.407556   -62.437517
 0.255000   109.093589   -62.901591
 0.260000   108.778540   -63.176755
 0.265000   108.461822   -63.446573
 0.270000   108.144074   -63.604309
 0.275000   107.825778   -63.683091
 0.280000   107.507244   -63.734322
 0.285000   107.188435   -63.785261
 0.290000   106.869391   -64.071553
 0.295000   106.547720   -64.695659
 0.300000   106.222434   -65.501521
 0.305000   105.892705   -66.414310
 0.310000   105.558291   -67.310633
 0.315000   105.219598   -68.080417
 0.320000   104.877487   -68.737969
 0.325000   104.532219   -69.330880
 0.330000   104.184178   -69.842687
 0.335000   103.833792   -70.274098
 0.340000   103.481437   -70.642520
 0.345000   103.127366   -70.932825
 0.350000   102.772109   -71.172650
 0.355000   102.415640   -71.398821
 0.360000   102.058121   -71.590346
 0.365000   101.699736   -71.749400
 0.370000   101.340627   -71.888723
 0.375000   100.980849   -72.016662
 0.380000   100.620460   -72.108753
 0.385000   100.259762   -72.119435
 0.390000   99.899266   -72.014663
 0.395000   99.539615   -71.763375
 0.400000   99.181632   -71.347416
 0.405000   98.826141   -70.736309
 0.410000   98.474269   -69.948598
 0.415000   98.126655   -69.075867
 0.420000   97.783510   -68.233833
 0.425000   97.444317   -67.592232
 0.430000   97.107588   -67.336072
 0.435000   96.770956   -67.769844
 0.440000   96.429890   -69.095342
 0.445000   96.080002   -71.042715
 0.450000   95.719462   -73.375771
 0.455000   95.346245   -76.074396
 0.460000   94.958718   -79.044538
 0.465000   94.555799   -82.415904
 0.470000   94.134559   -86.106162
 0.475000   93.694738   -89.432237
 0.480000   93.240237   -92.190254
 0.485000   92.772835   -94.544057
 0.490000   92.294796   -96.389746
 0.495000   91.808938   -97.708114
 0.500000   91.317715   -98.341358
 0.505000   90.825524   -97.935958
 0.510000   90.338356   -96.652181
 0.515000   89.859002   -94.939621
 0.520000   89.388960   -93.026773
 0.525000   88.928735   -91.118469
 0.530000   88.477775   -89.398818
 0.535000   88.034746   -87.799526
 0.540000   87.599780   -86.228621
 0.545000   87.172460   -84.745288
 0.550000   86.752327   -83.352884
 0.555000   86.338931   -82.080873
 0.560000   85.931518   -81.039952
 0.565000   85.528532   -80.087835
 0.570000   85.130640   -79.147512
 0.575000   84.737057   -78.378771
 0.580000   84.346852   -77.813828
 0.585000   83.958919   -77.503904
 0.590000   83.571813   -77.545735
 0.595000   83.183461   -77.864346
 0.600000   82.793169   -78.421926
 0.605000   82.399242   -79.316547
 0.610000   82.000004   -80.547447
 0.615000   81.593767   -82.111798
 0.620000   81.178886   -83.886199
 0.625000   80.754905   -85.893356
 0.630000   80.319952   -88.221712
 0.635000   79.872688   -90.798884
 0.640000   79.411964   -93.589926
 0.645000   78.936789   -96.555195
 0.650000   78.446412   -99.484271
 0.655000   77.941946   -102.532664
 0.660000   77.421085   -106.002458
 0.665000   76.881922   -109.913480
 0.670000   76.321950   -114.414303
 0.675000   75.737779   -119.689983
 0.680000   75.125050   -126.132037
 0.685000   74.476458   -133.920630
 0.690000   73.785844   -142.643436
 0.695000   73.050024   -151.822419
 0.700000   72.267620   -161.098219
 0.705000   71.439042   -170.144563
 0.710000   70.566174   -178.901629
 0.715000   69.650026   -187.102500
 0.720000   68.695149   -194.322505
 0.725000   67.706800   -200.507062
 0.730000   66.690079   -205.591972
 0.735000   65.650881   -209.429397
 0.740000   64.595785   -211.829252
 0.745000   63.532588   -212.615576
 0.750000   62.469629   -211.892513
 0.755000   61.413663   -209.872929
 0.760000   60.370900   -206.796097
 0.765000   59.345702   -203.081279
 0.770000   58.340087   -199.325366
 0.775000   57.352448   -196.278109
 0.780000   56.377306   -193.799248
 0.785000   55.414456   -191.110062
 0.790000   54.466205   -187.801770
 0.795000   53.536438   -183.617764
 0.800000   52.630027   -178.564196
 0.805000   51.750796   -172.724076
 0.810000   50.902787   -165.870727
 0.815000   50.092089   -158.246785
 0.820000   49.320319   -150.468579
 0.825000   48.587403   -142.878797
 0.830000   47.891531   -135.896959
 0.835000   47.228434   -130.028983
 0.840000   46.591241   -125.322999
 0.845000   45.975204   -122.060512
 0.850000   45.370636   -121.097735
 0.855000   44.764226   -123.185039
 0.860000   44.138786   -129.224475
 0.865000   43.471982   -140.707369
 0.870000   42.731712   -158.271539
 0.875000   41.889266   -182.262447
 0.880000   40.909087   -213.711101
 0.885000   39.752155   -253.128049
 0.890000   38.377807   -300.551530
 0.895000   36.746640   -356.861100
 0.900000   34.809196   -418.561246
 0.905000   32.561027   -480.688092
 0.910000   30.002315   -540.275644
 0.915000   27.158271   -591.886223
 0.920000   24.083453   -629.531771
 0.925000   20.862953   -648.289335
 0.930000   17.600559   -641.952283
 0.935000   14.443430   -607.204742
 0.940000   11.528512   -546.263700
 0.945000   8.980793   -463.177832
 0.950000   6.896734   -365.209163
 0.955000   5.328702   -261.663788
 0.960000   4.280096   -163.915078
 0.965000   3.689551   -82.038784
 0.970000   3.459708   -21.225517
 0.975000   3.477296   17.100289
 0.980000   3.630711   34.717788
 0.985000   3.824474   35.539592
 0.990000   3.986107   24.977493
 0.995000   4.074249   8.374158
 1.000000   4.069848   -10.134302
201 psinorm vpol1(km/s) dvpol1/dpsiN
 0.000000   -0.000044   5.107617
 0.005000   0.027633   5.963086
 0.010000   0.059587   6.795801
 0.015000   0.095591   7.555273
 0.020000   0.135140   8.196875
 0.025000   0.177560   8.680566
 0.030000   0.221945   8.957227
 0.035000   0.267132   9.085156
 0.040000   0.312797   9.144922
 0.045000   0.358581   9.156055
 0.050000   0.404357   9.162988
 0.055000   0.450211   9.218555
 0.060000   0.496543   9.378320
 0.065000   0.543994   9.624902
 0.070000   0.592792   9.904492
 0.075000   0.643039   10.198828
 0.080000   0.694780   10.487109
 0.085000   0.747910   10.745605
 0.090000   0.802236   10.937305
 0.095000   0.857283   11.035449
 0.100000   0.912591   11.045898
 0.105000   0.967742   10.982813
 0.110000   1.022419   10.861719
 0.115000   1.076359   10.686426
 0.120000   1.129283   10.483008
 0.125000   1.181189   10.287500
 0.130000   1.232158   10.103027
 0.135000   1.282220   9.926953
 0.140000   1.331428   9.758203
 0.145000   1.379802   9.583984
 0.150000   1.427268   9.369629
 0.155000   1.473498   9.087402
 0.160000   1.518142   8.743164
 0.165000   1.560930   8.346680
 0.170000   1.601608   7.904297
 0.175000   1.639973   7.409375
 0.180000   1.675702   6.867383
 0.185000   1.708646   6.298437
 0.190000   1.738687   5.711328
 0.195000   1.765760   5.117969
 0.200000   1.789866   4.529687
 0.205000   1.811057   3.951660
 0.210000   1.829383   3.404590
 0.215000   1.845103   2.896582
 0.220000   1.858349   2.406152
 0.225000   1.869164   1.915723
 0.230000   1.877506   1.413965
 0.235000   1.883304   0.889648
 0.240000   1.886402   0.335645
 0.245000   1.886660   -0.243066
 0.250000   1.883972   -0.841602
 0.255000   1.878244   -1.456152
 0.260000   1.869410   -2.080957
 0.265000   1.857435   -2.707129
 0.270000   1.842339   -3.332324
 0.275000   1.824111   -3.961621
 0.280000   1.802723   -4.599414
 0.285000   1.778117   -5.252148
 0.290000   1.750201   -5.921191
 0.295000   1.718905   -6.605176
 0.300000   1.684149   -7.299805
 0.305000   1.645907   -8.000928
 0.310000   1.604140   -8.708789
 0.315000   1.558819   -9.420947
 0.320000   1.509931   -10.137012
 0.325000   1.457449   -10.848193
 0.330000   1.401449   -11.540918
 0.335000   1.342040   -12.196289
 0.340000   1.279486   -12.785840
 0.345000   1.214182   -13.289648
 0.350000   1.146589   -13.661914
 0.355000   1.077562   -13.939404
 0.360000   1.007195   -14.215479
 0.365000   0.935408   -14.512402
 0.370000   0.862071   -14.850781
 0.375000   0.786900   -15.251709
 0.380000   0.709554   -15.766113
 0.385000   0.629239   -16.412354
 0.390000   0.545431   -17.141992
 0.395000   0.457819   -17.911865
 0.400000   0.366312   -18.674219
 0.405000   0.271077   -19.386523
 0.410000   0.172447   -20.090381
 0.415000   0.070173   -20.963965
 0.420000   -0.037193   -22.218506
 0.425000   -0.152012   -23.962207
 0.430000   -0.276815   -26.210107
 0.435000   -0.414113   -28.998877
 0.440000   -0.566804   -32.474316
 0.445000   -0.738856   -36.105176
 0.450000   -0.927855   -39.408447
 0.455000   -1.132941   -42.435303
 0.460000   -1.352208   -44.982227
 0.465000   -1.582763   -46.878369
 0.470000   -1.820992   -47.790186
 0.475000   -2.060665   -47.396924
 0.480000   -2.294961   -45.786084
 0.485000   -2.518526   -43.185400
 0.490000   -2.726815   -39.782031
 0.495000   -2.916346   -35.614258
 0.500000   -3.082958   -30.952344
 0.505000   -3.225870   -26.546533
 0.510000   -3.348423   -22.699561
 0.515000   -3.452865   -19.350732
 0.520000   -3.541931   -16.579590
 0.525000   -3.618661   -14.413306
 0.530000   -3.686064   -12.998145
 0.535000   -3.748643   -12.250977
 0.540000   -3.808573   -11.814502
 0.545000   -3.866788   -11.522998
 0.550000   -3.923803   -11.300513
 0.555000   -3.979793   -11.147168
 0.560000   -4.035275   -10.975610
 0.565000   -4.089549   -10.661182
 0.570000   -4.141887   -10.204199
 0.575000   -4.191591   -9.604150
 0.580000   -4.237928   -8.860645
 0.585000   -4.280197   -7.985620
 0.590000   -4.317785   -6.979199
 0.595000   -4.349989   -5.883643
 0.600000   -4.376621   -4.773096
 0.605000   -4.397720   -3.691711
 0.610000   -4.413538   -2.678467
 0.615000   -4.424505   -1.757166
 0.620000   -4.431110   -0.960785
 0.625000   -4.434113   -0.301227
 0.630000   -4.434122   0.243640
 0.635000   -4.431676   0.686285
 0.640000   -4.427259   1.047244
 0.645000   -4.421204   1.350854
 0.650000   -4.413751   1.625632
 0.655000   -4.404948   1.883478
 0.660000   -4.394916   2.122186
 0.665000   -4.383726   2.341940
 0.670000   -4.371497   2.537682
 0.675000   -4.358349   2.712338
 0.680000   -4.344373   2.877640
 0.685000   -4.329572   3.057187
 0.690000   -4.313801   3.269551
 0.695000   -4.296877   3.525702
 0.700000   -4.278544   3.848648
 0.705000   -4.258391   4.227438
 0.710000   -4.236270   4.582861
 0.715000   -4.212562   4.856323
 0.720000   -4.187707   5.019507
 0.725000   -4.162367   5.024353
 0.730000   -4.137463   4.837122
 0.735000   -4.113996   4.408569
 0.740000   -4.093377   3.721021
 0.745000   -4.076785   2.834424
 0.750000   -4.065033   1.811865
 0.755000   -4.058667   0.720386
 0.760000   -4.057829   -0.350659
 0.765000   -4.062173   -1.317822
 0.770000   -4.071008   -2.159253
 0.775000   -4.083766   -2.913647
 0.780000   -4.100144   -3.662524
 0.785000   -4.120391   -4.526367
 0.790000   -4.145408   -5.731348
 0.795000   -4.177705   -7.417285
 0.800000   -4.219581   -9.592773
 0.805000   -4.273632   -12.286084
 0.810000   -4.342441   -15.449609
 0.815000   -4.428128   -18.961475
 0.820000   -4.532056   -22.725342
 0.825000   -4.655382   -26.372656
 0.830000   -4.795783   -29.639502
 0.835000   -4.951777   -32.485693
 0.840000   -5.120640   -34.648193
 0.845000   -5.298259   -35.870996
 0.850000   -5.479350   -35.883789
 0.855000   -5.657097   -34.423047
 0.860000   -5.823580   -31.554102
 0.865000   -5.972638   -27.568652
 0.870000   -6.099267   -22.715918
 0.875000   -6.199797   -17.252051
 0.880000   -6.271787   -11.407031
 0.885000   -6.313867   -5.373437
 0.890000   -6.325521   0.628906
 0.895000   -6.307578   6.288770
 0.900000   -6.262634   11.235937
 0.905000   -6.195219   15.061426
 0.910000   -6.112020   17.532227
 0.915000   -6.019896   18.863086
 0.920000   -5.923389   19.421094
 0.925000   -5.825686   19.498438
 0.930000   -5.728404   19.401758
 0.935000   -5.631668   19.592578
 0.940000   -5.532479   20.469531
 0.945000   -5.426973   21.935547
 0.950000   -5.313123   24.100781
 0.955000   -5.185965   28.025195
 0.960000   -5.032871   36.134375
 0.965000   -4.824621   53.932031
 0.970000   -4.493551   88.305664
 0.975000   -3.941564   145.021680
 0.980000   -3.043334   224.078906
 0.985000   -1.700775   310.311523
 0.990000   0.059781   369.845703
 0.995000   1.997682   360.404297
 1.000000   3.663824   306.052734
3 N Z A of ION SPECIES
 6.000000   6.000000   12.010700
 1.000000   1.000000   2.000000
 1.000000   1.000000   2.000000
