201 psinorm ne(10^20/m^3) dne/dpsiN
 0.000000   0.500129   -0.288477
 0.005000   0.498689   -0.287378
 0.010000   0.497255   -0.286282
 0.015000   0.495826   -0.285191
 0.020000   0.494403   -0.284104
 0.025000   0.492985   -0.283022
 0.030000   0.491573   -0.281944
 0.035000   0.490166   -0.280871
 0.040000   0.488764   -0.279803
 0.045000   0.487368   -0.278739
 0.050000   0.485977   -0.277680
 0.055000   0.484591   -0.276626
 0.060000   0.483210   -0.275576
 0.065000   0.481835   -0.274530
 0.070000   0.480465   -0.273489
 0.075000   0.479100   -0.272452
 0.080000   0.477741   -0.271420
 0.085000   0.476386   -0.270392
 0.090000   0.475037   -0.269368
 0.095000   0.473692   -0.268349
 0.100000   0.472353   -0.267334
 0.105000   0.471019   -0.266324
 0.110000   0.469690   -0.265317
 0.115000   0.468366   -0.264315
 0.120000   0.467047   -0.263318
 0.125000   0.465733   -0.262324
 0.130000   0.464424   -0.261335
 0.135000   0.463119   -0.260350
 0.140000   0.461820   -0.259369
 0.145000   0.460526   -0.258392
 0.150000   0.459236   -0.257419
 0.155000   0.457951   -0.256451
 0.160000   0.456672   -0.255487
 0.165000   0.455397   -0.254526
 0.170000   0.454126   -0.253570
 0.175000   0.452861   -0.252618
 0.180000   0.451600   -0.251670
 0.185000   0.450344   -0.250725
 0.190000   0.449093   -0.249785
 0.195000   0.447846   -0.248849
 0.200000   0.446604   -0.247917
 0.205000   0.445367   -0.246988
 0.210000   0.444135   -0.246064
 0.215000   0.442907   -0.245143
 0.220000   0.441683   -0.244226
 0.225000   0.440464   -0.243314
 0.230000   0.439250   -0.242405
 0.235000   0.438040   -0.241499
 0.240000   0.436835   -0.240598
 0.245000   0.435634   -0.239700
 0.250000   0.434438   -0.238806
 0.255000   0.433246   -0.237916
 0.260000   0.432059   -0.237030
 0.265000   0.430876   -0.236147
 0.270000   0.429697   -0.235268
 0.275000   0.428523   -0.234393
 0.280000   0.427353   -0.233521
 0.285000   0.426188   -0.232653
 0.290000   0.425027   -0.231789
 0.295000   0.423870   -0.230928
 0.300000   0.422718   -0.230071
 0.305000   0.421569   -0.229218
 0.310000   0.420425   -0.228368
 0.315000   0.419286   -0.227521
 0.320000   0.418150   -0.226678
 0.325000   0.417019   -0.225839
 0.330000   0.415892   -0.225003
 0.335000   0.414769   -0.224170
 0.340000   0.413650   -0.223341
 0.345000   0.412535   -0.222516
 0.350000   0.411425   -0.221693
 0.355000   0.410319   -0.220875
 0.360000   0.409216   -0.220059
 0.365000   0.408118   -0.219247
 0.370000   0.407024   -0.218439
 0.375000   0.405934   -0.217634
 0.380000   0.404847   -0.216832
 0.385000   0.403765   -0.216033
 0.390000   0.402687   -0.215238
 0.395000   0.401613   -0.214446
 0.400000   0.400543   -0.213657
 0.405000   0.399476   -0.212872
 0.410000   0.398414   -0.212089
 0.415000   0.397355   -0.211310
 0.420000   0.396301   -0.210535
 0.425000   0.395250   -0.209762
 0.430000   0.394203   -0.208993
 0.435000   0.393160   -0.208226
 0.440000   0.392121   -0.207463
 0.445000   0.391085   -0.206703
 0.450000   0.390054   -0.205947
 0.455000   0.389026   -0.205193
 0.460000   0.388002   -0.204442
 0.465000   0.386982   -0.203695
 0.470000   0.385965   -0.202950
 0.475000   0.384952   -0.202209
 0.480000   0.383943   -0.201471
 0.485000   0.382937   -0.200735
 0.490000   0.381936   -0.200003
 0.495000   0.380937   -0.199274
 0.500000   0.379943   -0.198547
 0.505000   0.378952   -0.197824
 0.510000   0.377965   -0.197103
 0.515000   0.376981   -0.196386
 0.520000   0.376001   -0.195671
 0.525000   0.375024   -0.194960
 0.530000   0.374051   -0.194251
 0.535000   0.373082   -0.193545
 0.540000   0.372116   -0.192842
 0.545000   0.371153   -0.192142
 0.550000   0.370194   -0.191445
 0.555000   0.369239   -0.190751
 0.560000   0.368287   -0.190059
 0.565000   0.367338   -0.189370
 0.570000   0.366393   -0.188684
 0.575000   0.365451   -0.188001
 0.580000   0.364513   -0.187321
 0.585000   0.363578   -0.186643
 0.590000   0.362647   -0.185968
 0.595000   0.361718   -0.185296
 0.600000   0.360794   -0.184627
 0.605000   0.359872   -0.183960
 0.610000   0.358954   -0.183296
 0.615000   0.358039   -0.182635
 0.620000   0.357128   -0.181976
 0.625000   0.356219   -0.181320
 0.630000   0.355314   -0.180667
 0.635000   0.354413   -0.180016
 0.640000   0.353514   -0.179368
 0.645000   0.352619   -0.178722
 0.650000   0.351727   -0.178079
 0.655000   0.350838   -0.177439
 0.660000   0.349953   -0.176801
 0.665000   0.349070   -0.176166
 0.670000   0.348191   -0.175534
 0.675000   0.347315   -0.174904
 0.680000   0.346442   -0.174276
 0.685000   0.345572   -0.173651
 0.690000   0.344705   -0.173029
 0.695000   0.343842   -0.172409
 0.700000   0.342981   -0.171791
 0.705000   0.342124   -0.171176
 0.710000   0.341270   -0.170564
 0.715000   0.340418   -0.169953
 0.720000   0.339570   -0.169346
 0.725000   0.338725   -0.168741
 0.730000   0.337883   -0.168138
 0.735000   0.337044   -0.167537
 0.740000   0.336207   -0.166939
 0.745000   0.335374   -0.166344
 0.750000   0.334544   -0.165750
 0.755000   0.333717   -0.165160
 0.760000   0.332892   -0.164571
 0.765000   0.332071   -0.163985
 0.770000   0.331252   -0.163401
 0.775000   0.330437   -0.162820
 0.780000   0.329624   -0.162240
 0.785000   0.328815   -0.161663
 0.790000   0.328008   -0.161089
 0.795000   0.327204   -0.160516
 0.800000   0.326402   -0.159946
 0.805000   0.325604   -0.159379
 0.810000   0.324809   -0.158813
 0.815000   0.324016   -0.158250
 0.820000   0.323226   -0.157689
 0.825000   0.322439   -0.157130
 0.830000   0.321655   -0.156573
 0.835000   0.320873   -0.156019
 0.840000   0.320095   -0.155466
 0.845000   0.319319   -0.154916
 0.850000   0.318546   -0.154369
 0.855000   0.317775   -0.153823
 0.860000   0.317007   -0.153279
 0.865000   0.316242   -0.152738
 0.870000   0.315480   -0.152199
 0.875000   0.314720   -0.151661
 0.880000   0.313963   -0.151127
 0.885000   0.313209   -0.150594
 0.890000   0.312457   -0.150065
 0.895000   0.311708   -0.149542
 0.900000   0.310962   -0.149031
 0.905000   0.310218   -0.148554
 0.910000   0.309476   -0.148169
 0.915000   0.308736   -0.148049
 0.920000   0.307996   -0.148690
 0.925000   0.307249   -0.151511
 0.930000   0.306481   -0.160569
 0.935000   0.305644   -0.187375
 0.940000   0.304607   -0.264183
 0.945000   0.303002   -0.478740
 0.950000   0.299820   -1.051670
 0.955000   0.292485   -2.427001
 0.960000   0.275550   -5.003073
 0.965000   0.242455   -7.855048
 0.970000   0.196999   -8.504065
 0.975000   0.157414   -6.367095
 0.980000   0.133328   -3.702904
 0.985000   0.120385   -2.053773
 0.990000   0.112790   -1.294196
 0.995000   0.107443   -0.975048
 1.000000   0.103040   -0.786090
201 psinorm te(KeV) dte/dpsiN
 0.000000   3.961539   -3.324561
 0.005000   3.944892   -3.334108
 0.010000   3.928198   -3.343535
 0.015000   3.911457   -3.352722
 0.020000   3.894670   -3.361669
 0.025000   3.877840   -3.370377
 0.030000   3.860967   -3.378846
 0.035000   3.844051   -3.387075
 0.040000   3.827096   -3.395066
 0.045000   3.810101   -3.402819
 0.050000   3.793068   -3.410333
 0.055000   3.775997   -3.417610
 0.060000   3.758891   -3.424650
 0.065000   3.741751   -3.431453
 0.070000   3.724577   -3.438020
 0.075000   3.707371   -3.444351
 0.080000   3.690133   -3.450447
 0.085000   3.672866   -3.456308
 0.090000   3.655570   -3.461935
 0.095000   3.638247   -3.467328
 0.100000   3.620897   -3.472489
 0.105000   3.603522   -3.477417
 0.110000   3.586123   -3.482114
 0.115000   3.568701   -3.486580
 0.120000   3.551257   -3.490816
 0.125000   3.533793   -3.494822
 0.130000   3.516309   -3.498600
 0.135000   3.498807   -3.502150
 0.140000   3.481287   -3.505473
 0.145000   3.463752   -3.508569
 0.150000   3.446202   -3.511440
 0.155000   3.428638   -3.514087
 0.160000   3.411061   -3.516511
 0.165000   3.393472   -3.518711
 0.170000   3.375874   -3.520690
 0.175000   3.358266   -3.522449
 0.180000   3.340649   -3.523987
 0.185000   3.323026   -3.525307
 0.190000   3.305396   -3.526410
 0.195000   3.287762   -3.527295
 0.200000   3.270123   -3.527966
 0.205000   3.252482   -3.528421
 0.210000   3.234839   -3.528664
 0.215000   3.217195   -3.528694
 0.220000   3.199552   -3.528514
 0.225000   3.181910   -3.528123
 0.230000   3.164271   -3.527524
 0.235000   3.146635   -3.526717
 0.240000   3.129004   -3.525704
 0.245000   3.111378   -3.524487
 0.250000   3.093759   -3.523065
 0.255000   3.076147   -3.521441
 0.260000   3.058544   -3.519616
 0.265000   3.040951   -3.517591
 0.270000   3.023368   -3.515368
 0.275000   3.005797   -3.512948
 0.280000   2.988239   -3.510332
 0.285000   2.970694   -3.507521
 0.290000   2.953164   -3.504517
 0.295000   2.935649   -3.501322
 0.300000   2.918151   -3.497937
 0.305000   2.900670   -3.494363
 0.310000   2.883207   -3.490601
 0.315000   2.865764   -3.486654
 0.320000   2.848340   -3.482523
 0.325000   2.830938   -3.478209
 0.330000   2.813558   -3.473713
 0.335000   2.796201   -3.469037
 0.340000   2.778868   -3.464184
 0.345000   2.761559   -3.459153
 0.350000   2.744276   -3.453947
 0.355000   2.727020   -3.448568
 0.360000   2.709791   -3.443017
 0.365000   2.692590   -3.437295
 0.370000   2.675418   -3.431404
 0.375000   2.658276   -3.425346
 0.380000   2.641164   -3.419122
 0.385000   2.624084   -3.412734
 0.390000   2.607037   -3.406184
 0.395000   2.590023   -3.399473
 0.400000   2.573042   -3.392603
 0.405000   2.556097   -3.385575
 0.410000   2.539186   -3.378392
 0.415000   2.522313   -3.371054
 0.420000   2.505476   -3.363564
 0.425000   2.488677   -3.355924
 0.430000   2.471917   -3.348134
 0.435000   2.455196   -3.340197
 0.440000   2.438515   -3.332114
 0.445000   2.421875   -3.323888
 0.450000   2.405276   -3.315519
 0.455000   2.388719   -3.307009
 0.460000   2.372206   -3.298361
 0.465000   2.355736   -3.289576
 0.470000   2.339310   -3.280656
 0.475000   2.322929   -3.271602
 0.480000   2.306594   -3.262416
 0.485000   2.290305   -3.253100
 0.490000   2.274063   -3.243656
 0.495000   2.257868   -3.234085
 0.500000   2.241722   -3.224390
 0.505000   2.225625   -3.214571
 0.510000   2.209576   -3.204632
 0.515000   2.193578   -3.194572
 0.520000   2.177631   -3.184395
 0.525000   2.161734   -3.174102
 0.530000   2.145890   -3.163695
 0.535000   2.130097   -3.153176
 0.540000   2.114358   -3.142546
 0.545000   2.098672   -3.131806
 0.550000   2.083040   -3.120960
 0.555000   2.067462   -3.110009
 0.560000   2.051940   -3.098954
 0.565000   2.036473   -3.087797
 0.570000   2.021062   -3.076540
 0.575000   2.005707   -3.065184
 0.580000   1.990410   -3.053733
 0.585000   1.975170   -3.042186
 0.590000   1.959988   -3.030546
 0.595000   1.944865   -3.018816
 0.600000   1.929800   -3.006995
 0.605000   1.914795   -2.995087
 0.610000   1.899849   -2.983093
 0.615000   1.884964   -2.971015
 0.620000   1.870139   -2.958854
 0.625000   1.855375   -2.946613
 0.630000   1.840673   -2.934292
 0.635000   1.826032   -2.921894
 0.640000   1.811454   -2.909421
 0.645000   1.796938   -2.896874
 0.650000   1.782485   -2.884254
 0.655000   1.768095   -2.871565
 0.660000   1.753769   -2.858806
 0.665000   1.739507   -2.845980
 0.670000   1.725310   -2.833089
 0.675000   1.711177   -2.820135
 0.680000   1.697108   -2.807118
 0.685000   1.683105   -2.794041
 0.690000   1.669168   -2.780906
 0.695000   1.655296   -2.767713
 0.700000   1.641491   -2.754466
 0.705000   1.627752   -2.741164
 0.710000   1.614079   -2.727811
 0.715000   1.600473   -2.714407
 0.720000   1.586935   -2.700954
 0.725000   1.573464   -2.687454
 0.730000   1.560060   -2.673908
 0.735000   1.546725   -2.660318
 0.740000   1.533457   -2.646686
 0.745000   1.520258   -2.633012
 0.750000   1.507127   -2.619299
 0.755000   1.494065   -2.605547
 0.760000   1.481072   -2.591758
 0.765000   1.468147   -2.577932
 0.770000   1.455292   -2.564071
 0.775000   1.442507   -2.550176
 0.780000   1.429791   -2.536246
 0.785000   1.417144   -2.522280
 0.790000   1.404568   -2.508278
 0.795000   1.392061   -2.494238
 0.800000   1.379625   -2.480155
 0.805000   1.367260   -2.466023
 0.810000   1.354965   -2.451833
 0.815000   1.342742   -2.437572
 0.820000   1.330590   -2.423223
 0.825000   1.318509   -2.408758
 0.830000   1.306502   -2.394145
 0.835000   1.294568   -2.379333
 0.840000   1.282709   -2.364261
 0.845000   1.270925   -2.348844
 0.850000   1.259220   -2.332976
 0.855000   1.247596   -2.316522
 0.860000   1.236055   -2.299322
 0.865000   1.224602   -2.281195
 0.870000   1.213243   -2.261962
 0.875000   1.201983   -2.241486
 0.880000   1.190828   -2.219770
 0.885000   1.179785   -2.197116
 0.890000   1.168857   -2.174440
 0.895000   1.158041   -2.153802
 0.900000   1.147319   -2.139326
 0.905000   1.136647   -2.138755
 0.910000   1.125931   -2.166011
 0.915000   1.114987   -2.245346
 0.920000   1.103478   -2.417849
 0.925000   1.090809   -2.751143
 0.930000   1.075967   -3.352558
 0.935000   1.057283   -4.383645
 0.940000   1.032130   -6.067053
 0.945000   0.996613   -8.661851
 0.950000   0.945512   -12.361029
 0.955000   0.873002   -17.060069
 0.960000   0.774911   -22.034771
 0.965000   0.652655   -25.820556
 0.970000   0.516705   -26.769816
 0.975000   0.384957   -24.232700
 0.980000   0.274378   -19.228370
 0.985000   0.192673   -13.676881
 0.990000   0.137610   -9.038737
 0.995000   0.102285   -5.772750
 1.000000   0.079882   -3.188637
201 psinorm ni(10^20/m^3) dni/dpsiN
 0.000000   0.299914   -0.430056
 0.005000   0.297967   -0.348702
 0.010000   0.296427   -0.275729
 0.015000   0.295209   -0.216176
 0.020000   0.294265   -0.165420
 0.025000   0.293555   -0.121112
 0.030000   0.293054   -0.082829
 0.035000   0.292727   -0.050553
 0.040000   0.292548   -0.022500
 0.045000   0.292502   0.001409
 0.050000   0.292562   0.020815
 0.055000   0.292710   0.037543
 0.060000   0.292938   0.051056
 0.065000   0.293221   0.061536
 0.070000   0.293553   0.069931
 0.075000   0.293920   0.075663
 0.080000   0.294310   0.079604
 0.085000   0.294716   0.082123
 0.090000   0.295131   0.083185
 0.095000   0.295548   0.083006
 0.100000   0.295961   0.081724
 0.105000   0.296365   0.079448
 0.110000   0.296755   0.076205
 0.115000   0.297127   0.072160
 0.120000   0.297477   0.067502
 0.125000   0.297802   0.062296
 0.130000   0.298100   0.056634
 0.135000   0.298368   0.050573
 0.140000   0.298606   0.044168
 0.145000   0.298810   0.037531
 0.150000   0.298981   0.030762
 0.155000   0.299118   0.023902
 0.160000   0.299220   0.016992
 0.165000   0.299288   0.010069
 0.170000   0.299321   0.003172
 0.175000   0.299319   -0.003658
 0.180000   0.299284   -0.010393
 0.185000   0.299216   -0.017308
 0.190000   0.299111   -0.024274
 0.195000   0.298973   -0.030821
 0.200000   0.298803   -0.037028
 0.205000   0.298602   -0.043028
 0.210000   0.298373   -0.048820
 0.215000   0.298114   -0.054386
 0.220000   0.297829   -0.059711
 0.225000   0.297517   -0.065111
 0.230000   0.297178   -0.070512
 0.235000   0.296812   -0.075332
 0.240000   0.296424   -0.079662
 0.245000   0.296015   -0.083793
 0.250000   0.295586   -0.087739
 0.255000   0.295138   -0.091757
 0.260000   0.294669   -0.095895
 0.265000   0.294179   -0.099625
 0.270000   0.293673   -0.102943
 0.275000   0.293150   -0.106168
 0.280000   0.292611   -0.109371
 0.285000   0.292056   -0.112863
 0.290000   0.291482   -0.116181
 0.295000   0.290894   -0.119029
 0.300000   0.290292   -0.121825
 0.305000   0.289676   -0.124643
 0.310000   0.289046   -0.127649
 0.315000   0.288399   -0.130478
 0.320000   0.287741   -0.132941
 0.325000   0.287070   -0.135309
 0.330000   0.286388   -0.137713
 0.335000   0.285693   -0.140111
 0.340000   0.284987   -0.142274
 0.345000   0.284270   -0.144265
 0.350000   0.283544   -0.146232
 0.355000   0.282808   -0.148351
 0.360000   0.282060   -0.150427
 0.365000   0.281304   -0.152318
 0.370000   0.280537   -0.154218
 0.375000   0.279761   -0.156212
 0.380000   0.278975   -0.158216
 0.385000   0.278179   -0.160083
 0.390000   0.277374   -0.161871
 0.395000   0.276560   -0.163645
 0.400000   0.275738   -0.165374
 0.405000   0.274907   -0.166919
 0.410000   0.274069   -0.168273
 0.415000   0.273224   -0.169518
 0.420000   0.272373   -0.170712
 0.425000   0.271517   -0.171751
 0.430000   0.270656   -0.172573
 0.435000   0.269791   -0.173257
 0.440000   0.268923   -0.173930
 0.445000   0.268052   -0.174538
 0.450000   0.267178   -0.174982
 0.455000   0.266302   -0.175353
 0.460000   0.265424   -0.175718
 0.465000   0.264545   -0.176040
 0.470000   0.263664   -0.176205
 0.475000   0.262783   -0.176191
 0.480000   0.261902   -0.176040
 0.485000   0.261022   -0.175729
 0.490000   0.260145   -0.175151
 0.495000   0.259271   -0.174304
 0.500000   0.258402   -0.173237
 0.505000   0.257539   -0.171966
 0.510000   0.256682   -0.170421
 0.515000   0.255834   -0.168588
 0.520000   0.254996   -0.166533
 0.525000   0.254169   -0.164335
 0.530000   0.253353   -0.161932
 0.535000   0.252550   -0.159287
 0.540000   0.251760   -0.156495
 0.545000   0.250985   -0.153602
 0.550000   0.250224   -0.150590
 0.555000   0.249479   -0.147404
 0.560000   0.248750   -0.144076
 0.565000   0.248038   -0.140632
 0.570000   0.247344   -0.137083
 0.575000   0.246667   -0.133371
 0.580000   0.246010   -0.129479
 0.585000   0.245372   -0.125455
 0.590000   0.244755   -0.121344
 0.595000   0.244159   -0.117137
 0.600000   0.243584   -0.112810
 0.605000   0.243031   -0.108402
 0.610000   0.242500   -0.103935
 0.615000   0.241992   -0.099438
 0.620000   0.241506   -0.094890
 0.625000   0.241043   -0.090278
 0.630000   0.240603   -0.085633
 0.635000   0.240186   -0.080973
 0.640000   0.239793   -0.076310
 0.645000   0.239423   -0.071641
 0.650000   0.239077   -0.066969
 0.655000   0.238754   -0.062323
 0.660000   0.238454   -0.057735
 0.665000   0.238176   -0.053162
 0.670000   0.237922   -0.048435
 0.675000   0.237692   -0.043251
 0.680000   0.237489   -0.036799
 0.685000   0.237324   -0.028628
 0.690000   0.237203   -0.019109
 0.695000   0.237133   -0.008434
 0.700000   0.237119   0.003311
 0.705000   0.237166   0.015898
 0.710000   0.237278   0.029640
 0.715000   0.237462   0.043801
 0.720000   0.237716   0.056824
 0.725000   0.238031   0.068399
 0.730000   0.238400   0.078332
 0.735000   0.238814   0.086114
 0.740000   0.239261   0.091318
 0.745000   0.239727   0.093180
 0.750000   0.240193   0.091390
 0.755000   0.240641   0.086479
 0.760000   0.241057   0.078895
 0.765000   0.241430   0.069075
 0.770000   0.241748   0.057175
 0.775000   0.242002   0.043762
 0.780000   0.242186   0.030529
 0.785000   0.242307   0.018236
 0.790000   0.242368   0.006740
 0.795000   0.242374   -0.003733
 0.800000   0.242331   -0.013123
 0.805000   0.242243   -0.021215
 0.810000   0.242119   -0.027783
 0.815000   0.241965   -0.033350
 0.820000   0.241785   -0.038573
 0.825000   0.241580   -0.043662
 0.830000   0.241349   -0.048699
 0.835000   0.241093   -0.053682
 0.840000   0.240812   -0.058566
 0.845000   0.240507   -0.063324
 0.850000   0.240179   -0.067938
 0.855000   0.239828   -0.072379
 0.860000   0.239455   -0.076602
 0.865000   0.239061   -0.080497
 0.870000   0.238650   -0.083965
 0.875000   0.238222   -0.086981
 0.880000   0.237780   -0.089552
 0.885000   0.237326   -0.091671
 0.890000   0.236863   -0.093257
 0.895000   0.236394   -0.094003
 0.900000   0.235923   -0.093734
 0.905000   0.235456   -0.092215
 0.910000   0.235001   -0.088718
 0.915000   0.234569   -0.082181
 0.920000   0.234179   -0.071048
 0.925000   0.233859   -0.052243
 0.930000   0.233657   -0.024829
 0.935000   0.233610   0.005931
 0.940000   0.233716   0.016932
 0.945000   0.233780   -0.071089
 0.950000   0.233005   -0.474488
 0.955000   0.229035   -1.635070
 0.960000   0.216655   -3.976294
 0.965000   0.189272   -6.622554
 0.970000   0.150429   -7.139739
 0.975000   0.117875   -4.979020
 0.980000   0.100639   -2.403490
 0.985000   0.093840   -0.925285
 0.990000   0.091386   -0.374707
 0.995000   0.090093   -0.259781
 1.000000   0.088788   -0.261998
201 psinorm ti(KeV) dti/dpsiN
 0.000000   5.489308   0.003778
 0.005000   5.488601   -0.286463
 0.010000   5.486443   -0.582251
 0.015000   5.482779   -0.888607
 0.020000   5.477557   -1.204364
 0.025000   5.470735   -1.528061
 0.030000   5.462276   -1.857926
 0.035000   5.452156   -2.191957
 0.040000   5.440357   -2.527076
 0.045000   5.426885   -2.861336
 0.050000   5.411744   -3.193546
 0.055000   5.394949   -3.521487
 0.060000   5.376529   -3.843586
 0.065000   5.356514   -4.158879
 0.070000   5.334940   -4.465850
 0.075000   5.311855   -4.765958
 0.080000   5.287280   -5.060941
 0.085000   5.261246   -5.349661
 0.090000   5.233784   -5.632051
 0.095000   5.204925   -5.908425
 0.100000   5.174699   -6.179075
 0.105000   5.143134   -6.444246
 0.110000   5.110257   -6.703609
 0.115000   5.076098   -6.956953
 0.120000   5.040687   -7.204445
 0.125000   5.004054   -7.445664
 0.130000   4.966231   -7.680155
 0.135000   4.927252   -7.905275
 0.140000   4.887178   -8.117607
 0.145000   4.846076   -8.316375
 0.150000   4.804014   -8.501032
 0.155000   4.761066   -8.670274
 0.160000   4.717312   -8.822259
 0.165000   4.672843   -8.954592
 0.170000   4.627766   -9.067004
 0.175000   4.582173   -9.160178
 0.180000   4.536164   -9.233834
 0.185000   4.489835   -9.288162
 0.190000   4.443282   -9.322404
 0.195000   4.396611   -9.338425
 0.200000   4.349898   -9.344540
 0.205000   4.303166   -9.344857
 0.210000   4.256449   -9.338757
 0.215000   4.209778   -9.327624
 0.220000   4.163173   -9.313181
 0.225000   4.116646   -9.298859
 0.230000   4.070185   -9.284052
 0.235000   4.023806   -9.265885
 0.240000   3.977526   -9.243354
 0.245000   3.931372   -9.214057
 0.250000   3.885385   -9.175763
 0.255000   3.839614   -9.127681
 0.260000   3.794108   -9.064985
 0.265000   3.748965   -8.986154
 0.270000   3.704247   -8.894555
 0.275000   3.660019   -8.790160
 0.280000   3.616345   -8.673064
 0.285000   3.573288   -8.542101
 0.290000   3.530924   -8.396141
 0.295000   3.489327   -8.235784
 0.300000   3.448566   -8.063200
 0.305000   3.408695   -7.882488
 0.310000   3.369741   -7.699045
 0.315000   3.331705   -7.517813
 0.320000   3.294563   -7.345348
 0.325000   3.258251   -7.183105
 0.330000   3.222732   -7.027830
 0.335000   3.187973   -6.879252
 0.340000   3.153940   -6.736958
 0.345000   3.120603   -6.604946
 0.350000   3.087890   -6.479584
 0.355000   3.055807   -6.354070
 0.360000   3.024350   -6.229542
 0.365000   2.993512   -6.105294
 0.370000   2.963297   -5.979542
 0.375000   2.933717   -5.851320
 0.380000   2.904784   -5.711211
 0.385000   2.876604   -5.553434
 0.390000   2.849249   -5.383594
 0.395000   2.822768   -5.204545
 0.400000   2.797204   -5.018205
 0.405000   2.772586   -4.821878
 0.410000   2.748985   -4.618925
 0.415000   2.726397   -4.420636
 0.420000   2.704779   -4.230716
 0.425000   2.684090   -4.049483
 0.430000   2.664284   -3.878284
 0.435000   2.645307   -3.714766
 0.440000   2.627136   -3.561144
 0.445000   2.609696   -3.423691
 0.450000   2.592899   -3.301081
 0.455000   2.576685   -3.190809
 0.460000   2.560991   -3.092898
 0.465000   2.545756   -3.007333
 0.470000   2.530918   -2.935679
 0.475000   2.516399   -2.877630
 0.480000   2.502141   -2.829301
 0.485000   2.488106   -2.787206
 0.490000   2.474269   -2.748595
 0.495000   2.460620   -2.711342
 0.500000   2.447156   -2.673791
 0.505000   2.433882   -2.635996
 0.510000   2.420796   -2.599722
 0.515000   2.407885   -2.565976
 0.520000   2.395136   -2.534887
 0.525000   2.382536   -2.506261
 0.530000   2.370074   -2.479594
 0.535000   2.357740   -2.455468
 0.540000   2.345519   -2.434293
 0.545000   2.333397   -2.415590
 0.550000   2.321363   -2.399284
 0.555000   2.309404   -2.385190
 0.560000   2.297511   -2.372867
 0.565000   2.285676   -2.363087
 0.570000   2.273880   -2.356248
 0.575000   2.262113   -2.351631
 0.580000   2.250364   -2.349149
 0.585000   2.238622   -2.348694
 0.590000   2.226877   -2.350420
 0.595000   2.215118   -2.354907
 0.600000   2.203328   -2.362504
 0.605000   2.191493   -2.373187
 0.610000   2.179596   -2.386882
 0.615000   2.167624   -2.403390
 0.620000   2.155562   -2.424355
 0.625000   2.143380   -2.447938
 0.630000   2.131083   -2.471446
 0.635000   2.118666   -2.495643
 0.640000   2.106126   -2.520100
 0.645000   2.093465   -2.544278
 0.650000   2.080684   -2.569511
 0.655000   2.067770   -2.594353
 0.660000   2.054740   -2.617092
 0.665000   2.041599   -2.639229
 0.670000   2.028348   -2.660709
 0.675000   2.014992   -2.681029
 0.680000   2.001538   -2.700615
 0.685000   1.987985   -2.716145
 0.690000   1.974376   -2.724071
 0.695000   1.960745   -2.725544
 0.700000   1.947121   -2.721413
 0.705000   1.933531   -2.712074
 0.710000   1.920000   -2.696765
 0.715000   1.906563   -2.675513
 0.720000   1.893245   -2.650420
 0.725000   1.880059   -2.622415
 0.730000   1.867021   -2.591617
 0.735000   1.854143   -2.558626
 0.740000   1.841434   -2.522542
 0.745000   1.828917   -2.484528
 0.750000   1.816589   -2.448908
 0.755000   1.804428   -2.417139
 0.760000   1.792418   -2.389339
 0.765000   1.780535   -2.366511
 0.770000   1.768753   -2.349113
 0.775000   1.757044   -2.336244
 0.780000   1.745390   -2.325173
 0.785000   1.733792   -2.313944
 0.790000   1.722251   -2.302373
 0.795000   1.710768   -2.290679
 0.800000   1.699344   -2.279496
 0.805000   1.687973   -2.272008
 0.810000   1.676624   -2.272352
 0.815000   1.665250   -2.281785
 0.820000   1.653806   -2.300135
 0.825000   1.642248   -2.327166
 0.830000   1.630534   -2.363606
 0.835000   1.618612   -2.411741
 0.840000   1.606417   -2.466123
 0.845000   1.593951   -2.525499
 0.850000   1.581162   -2.596645
 0.855000   1.567985   -2.681552
 0.860000   1.554346   -2.782617
 0.865000   1.540158   -2.908943
 0.870000   1.525257   -3.048905
 0.875000   1.509669   -3.192927
 0.880000   1.493328   -3.350909
 0.885000   1.476160   -3.523995
 0.890000   1.458088   -3.714633
 0.895000   1.439014   -3.947036
 0.900000   1.418617   -4.220600
 0.905000   1.396808   -4.527958
 0.910000   1.373338   -4.888844
 0.915000   1.347920   -5.312201
 0.920000   1.320216   -5.808988
 0.925000   1.289830   -6.433197
 0.930000   1.255884   -7.158185
 0.935000   1.218248   -7.930708
 0.940000   1.176577   -8.768234
 0.945000   1.130565   -9.654580
 0.950000   1.080031   -10.558875
 0.955000   1.024977   -11.468774
 0.960000   0.965343   -12.284249
 0.965000   0.902134   -12.893844
 0.970000   0.836405   -13.270420
 0.975000   0.769430   -13.368432
 0.980000   0.702720   -13.152718
 0.985000   0.637903   -12.601506
 0.990000   0.576705   -11.728370
 0.995000   0.520619   -10.611903
 1.000000   0.470586   -9.401194
201 psinorm nb(10^20/m^3) dnb/dpsiN
 0.000000   0.091104   0.141576
 0.005000   0.091614   0.062471
 0.010000   0.091729   -0.008250
 0.015000   0.091532   -0.065544
 0.020000   0.091073   -0.114035
 0.025000   0.090391   -0.156077
 0.030000   0.089513   -0.192093
 0.035000   0.088471   -0.222105
 0.040000   0.087292   -0.247903
 0.045000   0.085992   -0.269565
 0.050000   0.084596   -0.286736
 0.055000   0.083124   -0.301243
 0.060000   0.081584   -0.312549
 0.065000   0.079999   -0.320840
 0.070000   0.078375   -0.327064
 0.075000   0.076728   -0.330644
 0.080000   0.075069   -0.332450
 0.085000   0.073404   -0.332852
 0.090000   0.071740   -0.331818
 0.095000   0.070085   -0.329562
 0.100000   0.068445   -0.326223
 0.105000   0.066823   -0.321910
 0.110000   0.065225   -0.316656
 0.115000   0.063657   -0.310627
 0.120000   0.062119   -0.304015
 0.125000   0.060616   -0.296888
 0.130000   0.059150   -0.289341
 0.135000   0.057723   -0.281435
 0.140000   0.056336   -0.273230
 0.145000   0.054991   -0.264842
 0.150000   0.053688   -0.256373
 0.155000   0.052427   -0.247870
 0.160000   0.051209   -0.239375
 0.165000   0.050033   -0.230932
 0.170000   0.048900   -0.222574
 0.175000   0.047807   -0.214347
 0.180000   0.046756   -0.206281
 0.185000   0.045745   -0.198106
 0.190000   0.044775   -0.189956
 0.195000   0.043845   -0.182300
 0.200000   0.042952   -0.175050
 0.205000   0.042095   -0.168064
 0.210000   0.041271   -0.161342
 0.215000   0.040481   -0.154889
 0.220000   0.039722   -0.148706
 0.225000   0.038994   -0.142459
 0.230000   0.038298   -0.136233
 0.235000   0.037632   -0.130637
 0.240000   0.036992   -0.125583
 0.245000   0.036376   -0.120786
 0.250000   0.035784   -0.116240
 0.255000   0.035214   -0.111685
 0.260000   0.034667   -0.107109
 0.265000   0.034142   -0.103059
 0.270000   0.033636   -0.099529
 0.275000   0.033147   -0.096199
 0.280000   0.032674   -0.093001
 0.285000   0.032217   -0.089626
 0.290000   0.031778   -0.086542
 0.295000   0.031352   -0.084039
 0.300000   0.030938   -0.081686
 0.305000   0.030535   -0.079402
 0.310000   0.030144   -0.077013
 0.315000   0.029765   -0.074883
 0.320000   0.029395   -0.073169
 0.325000   0.029033   -0.071569
 0.330000   0.028679   -0.069953
 0.335000   0.028334   -0.068361
 0.340000   0.027995   -0.067024
 0.345000   0.027663   -0.065882
 0.350000   0.027337   -0.064798
 0.355000   0.027015   -0.063622
 0.360000   0.026700   -0.062555
 0.365000   0.026390   -0.061735
 0.370000   0.026083   -0.060963
 0.375000   0.025780   -0.060141
 0.380000   0.025482   -0.059338
 0.385000   0.025187   -0.058677
 0.390000   0.024895   -0.058077
 0.395000   0.024606   -0.057452
 0.400000   0.024320   -0.056811
 0.405000   0.024038   -0.056265
 0.410000   0.023758   -0.055801
 0.415000   0.023480   -0.055332
 0.420000   0.023204   -0.054791
 0.425000   0.022932   -0.054270
 0.430000   0.022662   -0.053832
 0.435000   0.022394   -0.053395
 0.440000   0.022128   -0.052859
 0.445000   0.021865   -0.052321
 0.450000   0.021605   -0.051884
 0.455000   0.021346   -0.051453
 0.460000   0.021090   -0.050961
 0.465000   0.020837   -0.050442
 0.470000   0.020586   -0.049990
 0.475000   0.020337   -0.049571
 0.480000   0.020090   -0.049109
 0.485000   0.019846   -0.048619
 0.490000   0.019604   -0.048192
 0.495000   0.019364   -0.047815
 0.500000   0.019126   -0.047423
 0.505000   0.018889   -0.046989
 0.510000   0.018656   -0.046591
 0.515000   0.018424   -0.046253
 0.520000   0.018193   -0.045918
 0.525000   0.017964   -0.045519
 0.530000   0.017738   -0.045129
 0.535000   0.017513   -0.044817
 0.540000   0.017290   -0.044510
 0.545000   0.017068   -0.044166
 0.550000   0.016848   -0.043811
 0.555000   0.016630   -0.043508
 0.560000   0.016413   -0.043229
 0.565000   0.016198   -0.042943
 0.570000   0.015984   -0.042627
 0.575000   0.015771   -0.042338
 0.580000   0.015560   -0.042096
 0.585000   0.015350   -0.041861
 0.590000   0.015142   -0.041606
 0.595000   0.014934   -0.041356
 0.600000   0.014728   -0.041150
 0.605000   0.014523   -0.040965
 0.610000   0.014318   -0.040790
 0.615000   0.014115   -0.040610
 0.620000   0.013912   -0.040451
 0.625000   0.013710   -0.040332
 0.630000   0.013509   -0.040225
 0.635000   0.013308   -0.040127
 0.640000   0.013108   -0.040037
 0.645000   0.012908   -0.039969
 0.650000   0.012708   -0.039924
 0.655000   0.012508   -0.039890
 0.660000   0.012309   -0.039867
 0.665000   0.012110   -0.039858
 0.670000   0.011911   -0.039864
 0.675000   0.011711   -0.039882
 0.680000   0.011512   -0.039911
 0.685000   0.011312   -0.039951
 0.690000   0.011112   -0.040012
 0.695000   0.010912   -0.040085
 0.700000   0.010711   -0.040159
 0.705000   0.010510   -0.040240
 0.710000   0.010309   -0.040326
 0.715000   0.010107   -0.040422
 0.720000   0.009905   -0.040526
 0.725000   0.009702   -0.040625
 0.730000   0.009498   -0.040713
 0.735000   0.009295   -0.040799
 0.740000   0.009091   -0.040879
 0.745000   0.008886   -0.040956
 0.750000   0.008681   -0.041028
 0.755000   0.008476   -0.041083
 0.760000   0.008270   -0.041120
 0.765000   0.008064   -0.041143
 0.770000   0.007859   -0.041151
 0.775000   0.007653   -0.041144
 0.780000   0.007447   -0.041121
 0.785000   0.007242   -0.041081
 0.790000   0.007036   -0.041025
 0.795000   0.006831   -0.040954
 0.800000   0.006627   -0.040866
 0.805000   0.006423   -0.040761
 0.810000   0.006219   -0.040637
 0.815000   0.006016   -0.040494
 0.820000   0.005814   -0.040318
 0.825000   0.005613   -0.040119
 0.830000   0.005413   -0.039907
 0.835000   0.005214   -0.039668
 0.840000   0.005016   -0.039402
 0.845000   0.004820   -0.039106
 0.850000   0.004625   -0.038777
 0.855000   0.004432   -0.038411
 0.860000   0.004241   -0.038007
 0.865000   0.004052   -0.037559
 0.870000   0.003866   -0.037079
 0.875000   0.003682   -0.036614
 0.880000   0.003500   -0.036177
 0.885000   0.003320   -0.035747
 0.890000   0.003142   -0.035324
 0.895000   0.002967   -0.034909
 0.900000   0.002793   -0.034509
 0.905000   0.002621   -0.034132
 0.910000   0.002452   -0.033793
 0.915000   0.002284   -0.033525
 0.920000   0.002116   -0.033388
 0.925000   0.001950   -0.033439
 0.930000   0.001782   -0.033692
 0.935000   0.001613   -0.034113
 0.940000   0.001441   -0.034591
 0.945000   0.001267   -0.034895
 0.950000   0.001092   -0.034620
 0.955000   0.000921   -0.033151
 0.960000   0.000760   -0.030161
 0.965000   0.000619   -0.026233
 0.970000   0.000498   -0.022112
 0.975000   0.000398   -0.017864
 0.980000   0.000319   -0.013824
 0.985000   0.000260   -0.011022
 0.990000   0.000209   -0.009924
 0.995000   0.000160   -0.010598
 1.000000   0.000103   -0.012245
201 psinorm pb(KPa) dpb/dpsiN
 0.000000   36.870389   40.535624
 0.005000   37.006143   13.766115
 0.010000   37.008050   -12.309293
 0.015000   36.883050   -35.812949
 0.020000   36.649921   -55.615025
 0.025000   36.326900   -72.370629
 0.030000   35.926214   -86.388160
 0.035000   35.463018   -97.896217
 0.040000   34.947252   -107.790122
 0.045000   34.385117   -116.019969
 0.050000   33.787052   -122.549374
 0.055000   33.159624   -128.010955
 0.060000   32.506943   -132.058588
 0.065000   31.839038   -134.863789
 0.070000   31.158305   -136.844859
 0.075000   30.470589   -137.706902
 0.080000   29.781236   -137.861915
 0.085000   29.091970   -137.584858
 0.090000   28.405387   -136.803120
 0.095000   27.723939   -135.559440
 0.100000   27.049793   -133.904209
 0.105000   26.384897   -131.958674
 0.110000   25.730206   -129.675488
 0.115000   25.088142   -127.029576
 0.120000   24.459910   -124.159121
 0.125000   23.846551   -121.104025
 0.130000   23.248870   -117.902157
 0.135000   22.667529   -114.576489
 0.140000   22.103105   -111.148327
 0.145000   21.556046   -107.660510
 0.150000   21.026500   -104.157553
 0.155000   20.514470   -100.656326
 0.160000   20.019937   -97.169245
 0.165000   19.542778   -93.712491
 0.170000   19.082812   -90.300403
 0.175000   18.639774   -86.946044
 0.180000   18.213352   -83.649212
 0.185000   17.803282   -80.315991
 0.190000   17.410192   -77.017326
 0.195000   17.033108   -73.926735
 0.200000   16.670924   -71.001119
 0.205000   16.323097   -68.183870
 0.210000   15.989086   -65.476354
 0.215000   15.668334   -62.880610
 0.220000   15.360280   -60.395578
 0.225000   15.064378   -57.895215
 0.230000   14.781327   -55.411306
 0.235000   14.510265   -53.171775
 0.240000   14.249610   -51.144238
 0.245000   13.998822   -49.221976
 0.250000   13.757390   -47.399708
 0.255000   13.524825   -45.579649
 0.260000   13.301593   -43.756499
 0.265000   13.087260   -42.136850
 0.270000   12.880225   -40.719433
 0.275000   12.680066   -39.383454
 0.280000   12.486390   -38.100841
 0.285000   12.299058   -36.752622
 0.290000   12.118864   -35.515552
 0.295000   11.943902   -34.499785
 0.300000   11.773866   -33.543453
 0.305000   11.608467   -32.615783
 0.310000   11.447708   -31.650850
 0.315000   11.291959   -30.786691
 0.320000   11.139842   -30.082994
 0.325000   10.991129   -29.424830
 0.330000   10.845593   -28.766307
 0.335000   10.703466   -28.120887
 0.340000   10.564384   -27.571032
 0.345000   10.427756   -27.094812
 0.350000   10.293436   -26.642605
 0.355000   10.161330   -26.159483
 0.360000   10.031841   -25.718829
 0.365000   9.904141   -25.370950
 0.370000   9.778132   -25.041925
 0.375000   9.653722   -24.697187
 0.380000   9.531160   -24.361192
 0.385000   9.410110   -24.074442
 0.390000   9.290416   -23.805839
 0.395000   9.172052   -23.526710
 0.400000   9.055149   -23.248988
 0.405000   8.939562   -23.012350
 0.410000   8.825025   -22.804505
 0.415000   8.711517   -22.595018
 0.420000   8.599075   -22.358892
 0.425000   8.487928   -22.127427
 0.430000   8.377801   -21.922933
 0.435000   8.268699   -21.717367
 0.440000   8.160627   -21.474206
 0.445000   8.053956   -21.229976
 0.450000   7.948327   -21.024817
 0.455000   7.843708   -20.824495
 0.460000   7.740082   -20.606363
 0.465000   7.637645   -20.376562
 0.470000   7.536317   -20.166635
 0.475000   7.435978   -19.971021
 0.480000   7.336606   -19.762790
 0.485000   7.238350   -19.548214
 0.490000   7.141124   -19.359613
 0.495000   7.044754   -19.190905
 0.500000   6.949215   -19.019896
 0.505000   6.854555   -18.839301
 0.510000   6.760822   -18.672692
 0.515000   6.667828   -18.526005
 0.520000   6.575562   -18.381045
 0.525000   6.484018   -18.215349
 0.530000   6.393409   -18.053161
 0.535000   6.303486   -17.916814
 0.540000   6.214241   -17.782268
 0.545000   6.125664   -17.635706
 0.550000   6.037883   -17.488471
 0.555000   5.950779   -17.358177
 0.560000   5.864302   -17.232522
 0.565000   5.778454   -17.102274
 0.570000   5.693279   -16.963257
 0.575000   5.608821   -16.832248
 0.580000   5.524956   -16.714114
 0.585000   5.441680   -16.597059
 0.590000   5.358986   -16.473626
 0.595000   5.276944   -16.353104
 0.600000   5.195455   -16.246246
 0.605000   5.114481   -16.144077
 0.610000   5.034014   -16.042999
 0.615000   4.954051   -15.940937
 0.620000   4.874605   -15.848354
 0.625000   4.795568   -15.767255
 0.630000   4.716932   -15.688010
 0.635000   4.638688   -15.610122
 0.640000   4.560831   -15.534952
 0.645000   4.483338   -15.467088
 0.650000   4.406160   -15.405728
 0.655000   4.329281   -15.347495
 0.660000   4.252685   -15.292427
 0.665000   4.176357   -15.241126
 0.670000   4.100274   -15.193829
 0.675000   4.024418   -15.149860
 0.680000   3.948775   -15.108887
 0.685000   3.873329   -15.071043
 0.690000   3.798065   -15.039843
 0.695000   3.722931   -15.012522
 0.700000   3.647940   -14.985789
 0.705000   3.573073   -14.961664
 0.710000   3.498323   -14.938750
 0.715000   3.423686   -14.918655
 0.720000   3.349136   -14.901429
 0.725000   3.274671   -14.881796
 0.730000   3.200318   -14.859025
 0.735000   3.126081   -14.835074
 0.740000   3.051968   -14.808954
 0.745000   2.977992   -14.781319
 0.750000   2.904155   -14.751239
 0.755000   2.830479   -14.714924
 0.760000   2.757005   -14.672091
 0.765000   2.683758   -14.623456
 0.770000   2.610771   -14.568454
 0.775000   2.538074   -14.508648
 0.780000   2.465684   -14.443352
 0.785000   2.393640   -14.372382
 0.790000   2.321960   -14.297578
 0.795000   2.250664   -14.218640
 0.800000   2.179774   -14.134985
 0.805000   2.109315   -14.045926
 0.810000   2.039315   -13.950936
 0.815000   1.969805   -13.848997
 0.820000   1.900825   -13.734630
 0.825000   1.832459   -13.612744
 0.830000   1.764697   -13.487675
 0.835000   1.697582   -13.354078
 0.840000   1.631157   -13.211792
 0.845000   1.565464   -13.060189
 0.850000   1.500555   -12.898044
 0.855000   1.436484   -12.724553
 0.860000   1.373309   -12.538786
 0.865000   1.311096   -12.337884
 0.870000   1.249930   -12.121115
 0.875000   1.189885   -11.903369
 0.880000   1.130897   -11.690574
 0.885000   1.072979   -11.475005
 0.890000   1.016147   -11.256438
 0.895000   0.960415   -11.036032
 0.900000   0.905786   -10.817223
 0.905000   0.852242   -10.604955
 0.910000   0.799737   -10.406186
 0.915000   0.748181   -10.234356
 0.920000   0.697393   -10.112270
 0.925000   0.647058   -10.065032
 0.930000   0.596743   -10.112181
 0.935000   0.545936   -10.263523
 0.940000   0.494108   -10.506306
 0.945000   0.440873   -10.778771
 0.950000   0.386320   -10.927281
 0.955000   0.331600   -10.682054
 0.960000   0.279499   -9.852173
 0.965000   0.233078   -8.693519
 0.970000   0.192564   -7.747929
 0.975000   0.155599   -7.085702
 0.980000   0.121707   -6.302249
 0.985000   0.092577   -5.290600
 0.990000   0.068801   -4.255389
 0.995000   0.050023   -3.600378
 1.000000   0.032797   -3.289794
201 psinorm ptot(KPa) dptot/dpsiN
 0.000000   96.590254   -42.224298
 0.005000   96.326780   -63.165120
 0.010000   95.958603   -84.168663
 0.015000   95.485094   -103.821033
 0.020000   94.920392   -120.585820
 0.025000   94.279236   -134.909181
 0.030000   93.571301   -147.057399
 0.035000   92.808662   -157.250063
 0.040000   91.998800   -166.212973
 0.045000   91.146532   -173.880958
 0.050000   90.259990   -180.243001
 0.055000   89.344102   -185.762011
 0.060000   88.402370   -190.129569
 0.065000   87.442806   -193.495400
 0.070000   86.467416   -196.186597
 0.075000   85.480940   -197.963056
 0.080000   84.487786   -199.168526
 0.085000   83.489255   -200.038787
 0.090000   82.487398   -200.501534
 0.095000   81.484240   -200.580738
 0.100000   80.481590   -200.314249
 0.105000   79.481097   -199.813223
 0.110000   78.483458   -199.023869
 0.115000   77.490858   -197.904152
 0.120000   76.504417   -196.575457
 0.125000   75.525104   -195.068369
 0.130000   74.553733   -193.408952
 0.135000   73.591014   -191.600505
 0.140000   72.637728   -189.640832
 0.145000   71.694606   -187.558526
 0.150000   70.762143   -185.386202
 0.155000   69.840744   -183.129845
 0.160000   68.930844   -180.788605
 0.165000   68.032858   -178.362916
 0.170000   67.147215   -175.862496
 0.175000   66.274233   -173.300537
 0.180000   65.414210   -170.673340
 0.185000   64.567500   -167.907614
 0.190000   63.735134   -165.061019
 0.195000   62.916889   -162.283454
 0.200000   62.112299   -159.580769
 0.205000   61.321082   -156.927785
 0.210000   60.543021   -154.323278
 0.215000   59.777849   -151.776059
 0.220000   59.025261   -149.293774
 0.225000   58.284911   -146.789330
 0.230000   57.557367   -144.286669
 0.235000   56.842044   -141.961586
 0.240000   56.137751   -139.784211
 0.245000   55.444202   -137.655618
 0.250000   54.761195   -135.561076
 0.255000   54.088592   -133.415404
 0.260000   53.427041   -131.192110
 0.265000   52.776671   -129.058919
 0.270000   52.136452   -127.032792
 0.275000   51.506343   -125.013414
 0.280000   50.886318   -122.978078
 0.285000   50.276562   -120.820466
 0.290000   49.678113   -118.685967
 0.295000   49.089702   -116.672283
 0.300000   48.511390   -114.653512
 0.305000   47.943167   -112.623933
 0.310000   47.385151   -110.553542
 0.315000   46.837632   -108.585295
 0.320000   46.299298   -106.801566
 0.325000   45.769616   -105.109690
 0.330000   45.248201   -103.454592
 0.335000   44.735070   -101.846152
 0.340000   44.229740   -100.353239
 0.345000   43.731538   -98.976485
 0.350000   43.239975   -97.656219
 0.355000   42.754975   -96.313011
 0.360000   42.276845   -95.016201
 0.365000   41.804813   -93.806049
 0.370000   41.338784   -92.609877
 0.375000   40.878715   -91.392805
 0.380000   40.424856   -90.131117
 0.385000   39.977403   -88.832057
 0.390000   39.536536   -87.495016
 0.395000   39.102453   -86.108692
 0.400000   38.675449   -84.693429
 0.405000   38.255519   -83.270979
 0.410000   37.842739   -81.845364
 0.415000   37.437065   -80.442888
 0.420000   37.038310   -79.058280
 0.425000   36.646483   -77.719661
 0.430000   36.261113   -76.452607
 0.435000   35.881957   -75.221498
 0.440000   35.508898   -74.004769
 0.445000   35.141909   -72.864536
 0.450000   34.780253   -71.830010
 0.455000   34.423609   -70.858755
 0.460000   34.071666   -69.930392
 0.465000   33.724305   -69.048863
 0.470000   33.381177   -68.247574
 0.475000   33.041829   -67.518508
 0.480000   32.705992   -66.818735
 0.485000   32.373642   -66.137728
 0.490000   32.044615   -65.491208
 0.495000   31.718730   -64.863802
 0.500000   31.395977   -64.228130
 0.505000   31.076448   -63.577995
 0.510000   30.760197   -62.942098
 0.515000   30.447027   -62.330231
 0.520000   30.136894   -61.727334
 0.525000   29.829754   -61.113007
 0.530000   29.525764   -60.506875
 0.535000   29.224685   -59.932174
 0.540000   28.926442   -59.370063
 0.545000   28.630985   -58.806297
 0.550000   28.338380   -58.251152
 0.555000   28.048473   -57.719311
 0.560000   27.761186   -57.197683
 0.565000   27.476496   -56.681373
 0.570000   27.194373   -56.168270
 0.575000   26.914814   -55.669997
 0.580000   26.637673   -55.190379
 0.585000   26.362910   -54.718927
 0.590000   26.090483   -54.250282
 0.595000   25.820407   -53.795738
 0.600000   25.552526   -53.366550
 0.605000   25.286741   -52.954854
 0.610000   25.022978   -52.557471
 0.615000   24.761167   -52.172363
 0.620000   24.501254   -51.816020
 0.625000   24.243007   -51.482260
 0.630000   23.986431   -51.151460
 0.635000   23.731492   -50.826849
 0.640000   23.478163   -50.508399
 0.645000   23.226408   -50.198393
 0.650000   22.976179   -49.901592
 0.655000   22.727392   -49.609666
 0.660000   22.480082   -49.316573
 0.665000   22.234226   -49.027892
 0.670000   21.989803   -48.739120
 0.675000   21.746835   -48.439631
 0.680000   21.505407   -48.109658
 0.685000   21.265739   -47.724837
 0.690000   21.028159   -47.285351
 0.695000   20.792885   -46.799273
 0.700000   20.560166   -46.269967
 0.705000   20.330185   -45.707680
 0.710000   20.103089   -45.100618
 0.715000   19.879179   -44.469703
 0.720000   19.658392   -43.863032
 0.725000   19.440549   -43.285984
 0.730000   19.225532   -42.741938
 0.735000   19.013129   -42.246527
 0.740000   18.803067   -41.803965
 0.745000   18.595090   -41.436326
 0.750000   18.388704   -41.165594
 0.755000   18.183434   -40.978899
 0.760000   17.978915   -40.863855
 0.765000   17.774795   -40.813327
 0.770000   17.570781   -40.823660
 0.775000   17.366559   -40.878356
 0.780000   17.161998   -40.925393
 0.785000   16.957305   -40.939130
 0.790000   16.752607   -40.924571
 0.795000   16.548059   -40.877692
 0.800000   16.343830   -40.799811
 0.805000   16.140061   -40.699087
 0.810000   15.936839   -40.587525
 0.815000   15.734186   -40.481553
 0.820000   15.532023   -40.389909
 0.825000   15.330287   -40.320976
 0.830000   15.128813   -40.283462
 0.835000   14.927452   -40.280889
 0.840000   14.726005   -40.289442
 0.845000   14.524558   -40.302207
 0.850000   14.322983   -40.344346
 0.855000   14.121114   -40.421525
 0.860000   13.918767   -40.540371
 0.865000   13.715710   -40.731043
 0.870000   13.511457   -40.942699
 0.875000   13.306283   -41.150188
 0.880000   13.099955   -41.399282
 0.885000   12.892291   -41.688189
 0.890000   12.683073   -42.029303
 0.895000   12.471998   -42.524330
 0.900000   12.257830   -43.191202
 0.905000   12.040086   -44.039639
 0.910000   11.817433   -45.211571
 0.915000   11.587970   -46.860190
 0.920000   11.348831   -49.237867
 0.925000   11.095591   -52.893615
 0.930000   10.819895   -58.338371
 0.935000   10.512207   -66.469531
 0.940000   10.155200   -79.339286
 0.945000   9.718815   -100.551531
 0.950000   9.149685   -136.387177
 0.955000   8.354943   -194.837012
 0.960000   7.201315   -272.427548
 0.965000   5.630667   -325.913581
 0.970000   3.942179   -297.065548
 0.975000   2.660012   -204.054168
 0.980000   1.901637   -119.196540
 0.985000   1.468046   -70.712972
 0.990000   1.194507   -46.656576
 0.995000   1.001481   -34.262568
 1.000000   0.851882   -25.577041
201 psinorm omeg(kRad/s) domeg/dpsiN
 0.000000   69.238513   0.017596
 0.005000   69.238103   -0.181536
 0.010000   69.236698   -0.409066
 0.015000   69.234012   -0.696931
 0.020000   69.229728   -1.050906
 0.025000   69.223503   -1.474441
 0.030000   69.214984   -1.968660
 0.035000   69.203817   -2.531966
 0.040000   69.189664   -3.155176
 0.045000   69.172265   -3.830005
 0.050000   69.151364   -4.549833
 0.055000   69.126767   -5.302596
 0.060000   69.098338   -6.076926
 0.065000   69.065997   -6.863352
 0.070000   69.029705   -7.640681
 0.075000   68.989591   -8.413558
 0.080000   68.945569   -9.197658
 0.085000   68.897614   -9.984098
 0.090000   68.845728   -10.771494
 0.095000   68.789899   -11.563389
 0.100000   68.730094   -12.351334
 0.105000   68.666386   -13.145203
 0.110000   68.598642   -13.966120
 0.115000   68.526725   -14.816383
 0.120000   68.450478   -15.703130
 0.125000   68.369693   -16.635675
 0.130000   68.284122   -17.617735
 0.135000   68.193516   -18.652195
 0.140000   68.097600   -19.741423
 0.145000   67.996102   -20.886719
 0.150000   67.888732   -22.089662
 0.155000   67.775205   -23.347508
 0.160000   67.655257   -24.658287
 0.165000   67.528622   -26.007613
 0.170000   67.395181   -27.370769
 0.175000   67.254915   -28.741730
 0.180000   67.107764   -30.120459
 0.185000   66.953710   -31.498450
 0.190000   66.792779   -32.860748
 0.195000   66.625102   -34.169493
 0.200000   66.451085   -35.395829
 0.205000   66.271144   -36.530084
 0.210000   66.085784   -37.557939
 0.215000   65.895565   -38.469252
 0.220000   65.701091   -39.236167
 0.225000   65.503203   -39.814168
 0.230000   65.302950   -40.282378
 0.235000   65.100379   -40.697797
 0.240000   64.895972   -41.017677
 0.245000   64.690203   -41.242361
 0.250000   64.483548   -41.354820
 0.255000   64.276654   -41.316976
 0.260000   64.070378   -41.277983
 0.265000   63.863874   -41.344319
 0.270000   63.656935   -41.466849
 0.275000   63.449206   -41.674150
 0.280000   63.240193   -41.994453
 0.285000   63.029261   -42.487072
 0.290000   62.815323   -43.162249
 0.295000   62.597639   -43.933680
 0.300000   62.375986   -44.727205
 0.305000   62.150367   -45.502949
 0.310000   61.920956   -46.233712
 0.315000   61.688030   -46.911637
 0.320000   61.451840   -47.497357
 0.325000   61.213056   -47.971207
 0.330000   60.972128   -48.352900
 0.335000   60.729527   -48.638297
 0.340000   60.485745   -48.824353
 0.345000   60.241284   -48.871066
 0.350000   59.997034   -48.798423
 0.355000   59.753299   -48.658665
 0.360000   59.510448   -48.444931
 0.365000   59.268850   -48.160572
 0.370000   59.028842   -47.811796
 0.375000   58.790732   -47.345400
 0.380000   58.555388   -46.787331
 0.385000   58.322859   -46.212356
 0.390000   58.093264   -45.606282
 0.395000   57.866796   -44.969944
 0.400000   57.643565   -44.319871
 0.405000   57.423597   -43.640119
 0.410000   57.207164   -43.054253
 0.415000   56.993055   -42.807696
 0.420000   56.779087   -43.040678
 0.425000   56.562648   -43.824149
 0.430000   56.340845   -45.187829
 0.435000   56.110770   -47.307542
 0.440000   55.867770   -50.143135
 0.445000   55.609338   -53.238130
 0.450000   55.335389   -56.437337
 0.455000   55.044965   -59.782454
 0.460000   54.737564   -63.180001
 0.465000   54.413165   -66.721704
 0.470000   54.070347   -70.274377
 0.475000   53.710421   -73.259060
 0.480000   53.337756   -75.564778
 0.485000   52.954774   -77.352217
 0.490000   52.564234   -78.561306
 0.495000   52.169160   -79.172624
 0.500000   51.772508   -79.101149
 0.505000   51.378149   -78.338290
 0.510000   50.989125   -77.123061
 0.515000   50.606918   -75.645705
 0.520000   50.232668   -73.966248
 0.525000   49.867256   -72.107945
 0.530000   49.511589   -70.051959
 0.535000   49.166736   -67.925653
 0.540000   48.832332   -65.844346
 0.545000   48.508293   -63.798936
 0.550000   48.194343   -61.826066
 0.555000   47.890032   -59.944634
 0.560000   47.594896   -58.135969
 0.565000   47.308672   -56.540504
 0.570000   47.029491   -55.241589
 0.575000   46.756257   -54.169702
 0.580000   46.487794   -53.338752
 0.585000   46.222869   -52.760265
 0.590000   45.960192   -52.445691
 0.595000   45.698412   -52.354579
 0.600000   45.436646   -52.410693
 0.605000   45.174305   -52.582610
 0.610000   44.910820   -52.868657
 0.615000   44.645619   -53.270519
 0.620000   44.378115   -53.780262
 0.625000   44.107816   -54.405487
 0.630000   43.834060   -55.159942
 0.635000   43.556217   -56.039327
 0.640000   43.273667   -57.041720
 0.645000   42.985799   -58.164913
 0.650000   42.692017   -59.406008
 0.655000   42.391739   -60.800190
 0.660000   42.084015   -62.383677
 0.665000   41.767903   -64.156275
 0.670000   41.442453   -66.118372
 0.675000   41.106719   -68.264503
 0.680000   40.759808   -70.595999
 0.685000   40.400759   -72.909492
 0.690000   40.030713   -74.957989
 0.695000   39.651179   -76.732330
 0.700000   39.263389   -78.275019
 0.705000   38.868429   -79.619089
 0.710000   38.467199   -80.739274
 0.715000   38.061036   -81.656485
 0.720000   37.650634   -82.453976
 0.725000   37.236496   -83.128307
 0.730000   36.819351   -83.661321
 0.735000   36.399883   -84.062209
 0.740000   35.978729   -84.320487
 0.745000   35.556678   -84.491623
 0.750000   35.133812   -84.715839
 0.755000   34.709520   -85.119268
 0.760000   34.282620   -85.811894
 0.765000   33.851401   -86.866346
 0.770000   33.413956   -88.405248
 0.775000   32.967348   -90.303787
 0.780000   32.510918   -91.898025
 0.785000   32.048368   -92.851185
 0.790000   31.582406   -93.224325
 0.795000   31.116125   -92.965209
 0.800000   30.652754   -92.128175
 0.805000   30.194843   -90.898866
 0.810000   29.743766   -89.338684
 0.815000   29.301456   -87.508835
 0.820000   28.868677   -85.522150
 0.825000   28.446235   -83.377114
 0.830000   28.034906   -81.148727
 0.835000   27.634748   -78.996754
 0.840000   27.244939   -76.837212
 0.845000   26.866375   -74.886551
 0.850000   26.496073   -73.699841
 0.855000   26.129377   -73.620237
 0.860000   25.759871   -75.086617
 0.865000   25.378511   -78.958051
 0.870000   24.970290   -85.397349
 0.875000   24.524537   -94.678798
 0.880000   24.023502   -107.862448
 0.885000   23.445913   -125.555284
 0.890000   22.767949   -148.090196
 0.895000   21.965011   -175.898905
 0.900000   21.008960   -207.408930
 0.905000   19.890922   -240.306913
 0.910000   18.605891   -272.885260
 0.915000   17.162069   -302.338149
 0.920000   15.582510   -325.726584
 0.925000   13.904803   -340.128380
 0.930000   12.181226   -343.204251
 0.935000   10.472761   -334.200563
 0.940000   8.839220   -313.830270
 0.945000   7.334458   -283.900828
 0.950000   6.000212   -247.223021
 0.955000   4.862228   -206.346280
 0.960000   3.936749   -165.354672
 0.965000   3.208681   -128.014173
 0.970000   2.656608   -95.368417
 0.975000   2.254997   -68.012163
 0.980000   1.976486   -46.024713
 0.985000   1.794750   -28.951381
 0.990000   1.686972   -16.308425
 0.995000   1.631665   -7.463941
 1.000000   1.612333   -0.269138
201 psinorm omegp(kRad/s) domegp/dpsiN
 0.000000   -0.010137   200.306752
 0.005000   0.779205   115.430225
 0.010000   1.144165   67.946729
 0.015000   1.458673   60.877729
 0.020000   1.752943   57.597372
 0.025000   2.034646   54.974877
 0.030000   2.302691   52.261270
 0.035000   2.557259   49.889813
 0.040000   2.801589   47.750589
 0.045000   3.034765   45.517035
 0.050000   3.256760   43.427715
 0.055000   3.469042   41.597461
 0.060000   3.672734   39.834056
 0.065000   3.867383   38.138568
 0.070000   4.054120   36.449208
 0.075000   4.231875   34.646251
 0.080000   4.400583   32.749771
 0.085000   4.559373   30.572836
 0.090000   4.706311   28.326550
 0.095000   4.842638   26.297170
 0.100000   4.969283   24.615257
 0.105000   5.088791   23.388367
 0.110000   5.203166   22.626898
 0.115000   5.315060   22.415606
 0.120000   5.427322   22.592619
 0.125000   5.540986   22.951979
 0.130000   5.656842   23.305946
 0.135000   5.774045   23.499284
 0.140000   5.891835   23.516045
 0.145000   6.009206   23.240703
 0.150000   6.124242   22.478965
 0.155000   6.233995   21.159634
 0.160000   6.335838   19.578000
 0.165000   6.429775   17.672624
 0.170000   6.512565   15.543208
 0.175000   6.585207   13.189792
 0.180000   6.644463   10.683582
 0.185000   6.692043   8.368605
 0.190000   6.728149   6.063514
 0.195000   6.752678   4.057085
 0.200000   6.768719   2.203193
 0.205000   6.774710   0.494740
 0.210000   6.773667   -0.815592
 0.215000   6.766554   -2.100909
 0.220000   6.752658   -3.273428
 0.225000   6.733820   -4.559882
 0.230000   6.707059   -6.125691
 0.235000   6.672563   -7.699295
 0.240000   6.630066   -9.542558
 0.245000   6.577138   -11.573892
 0.250000   6.514327   -13.653948
 0.255000   6.440598   -15.932526
 0.260000   6.355002   -18.157852
 0.265000   6.259020   -20.378628
 0.270000   6.151216   -22.776979
 0.275000   6.031250   -25.097282
 0.280000   5.900243   -27.511907
 0.285000   5.756131   -30.130882
 0.290000   5.598934   -32.666559
 0.295000   5.429465   -35.305962
 0.300000   5.245874   -38.091807
 0.305000   5.048547   -40.774195
 0.310000   4.838132   -43.510214
 0.315000   4.613445   -46.317033
 0.320000   4.374962   -48.958306
 0.325000   4.123862   -51.373562
 0.330000   3.861226   -53.342520
 0.335000   3.590437   -54.617536
 0.340000   3.315051   -55.326024
 0.345000   3.037176   -55.525050
 0.350000   2.759801   -55.044139
 0.355000   2.486735   -54.410068
 0.360000   2.215700   -54.146151
 0.365000   1.945274   -54.123816
 0.370000   1.674462   -54.480408
 0.375000   1.400470   -55.361416
 0.380000   1.120848   -56.901513
 0.385000   0.831454   -58.877235
 0.390000   0.532075   -60.745709
 0.395000   0.223997   -62.373418
 0.400000   -0.091659   -63.858661
 0.405000   -0.414589   -65.499168
 0.410000   -0.746651   -68.352088
 0.415000   -1.098110   -72.722744
 0.420000   -1.473878   -78.045545
 0.425000   -1.878566   -84.182519
 0.430000   -2.315703   -90.903271
 0.435000   -2.787598   -97.950438
 0.440000   -3.295208   -105.151218
 0.445000   -3.839111   -111.045460
 0.450000   -4.405662   -114.585172
 0.455000   -4.984962   -115.990989
 0.460000   -5.565572   -115.044372
 0.465000   -6.135406   -111.512904
 0.470000   -6.680701   -104.794978
 0.475000   -7.183356   -95.427479
 0.480000   -7.634976   -84.864008
 0.485000   -8.031996   -73.700169
 0.490000   -8.371978   -62.422543
 0.495000   -8.656221   -51.458847
 0.500000   -8.886566   -41.465937
 0.505000   -9.070881   -33.422869
 0.510000   -9.220795   -27.338509
 0.515000   -9.344266   -22.842556
 0.520000   -9.449220   -19.614436
 0.525000   -9.540410   -17.242636
 0.530000   -9.621647   -15.520710
 0.535000   -9.695617   -14.031815
 0.540000   -9.761965   -12.467259
 0.545000   -9.820290   -10.879375
 0.550000   -9.870759   -9.363134
 0.555000   -9.913921   -7.801866
 0.560000   -9.948777   -6.084087
 0.565000   -9.974762   -4.331755
 0.570000   -9.992095   -2.575388
 0.575000   -10.000516   -0.730350
 0.580000   -9.999398   1.155171
 0.585000   -9.988964   2.918978
 0.590000   -9.970209   4.635854
 0.595000   -9.942606   6.340410
 0.600000   -9.906805   7.871584
 0.605000   -9.863890   9.232197
 0.610000   -9.814483   10.489154
 0.615000   -9.758998   11.613636
 0.620000   -9.698346   12.548710
 0.625000   -9.633511   13.390673
 0.630000   -9.564439   14.192474
 0.635000   -9.491586   14.916292
 0.640000   -9.415277   15.569716
 0.645000   -9.335889   16.186770
 0.650000   -9.253409   16.789405
 0.655000   -9.167995   17.317084
 0.660000   -9.080238   17.764552
 0.665000   -8.990350   18.172044
 0.670000   -8.898518   18.553076
 0.675000   -8.804819   19.017871
 0.680000   -8.708339   19.700572
 0.685000   -8.607813   20.624308
 0.690000   -8.502096   21.753950
 0.695000   -8.390274   23.022520
 0.700000   -8.271871   24.441445
 0.705000   -8.145859   25.884876
 0.710000   -8.013022   26.976449
 0.715000   -7.876095   27.567742
 0.720000   -7.737344   27.647487
 0.725000   -7.599620   27.150021
 0.730000   -7.465844   26.012715
 0.735000   -7.339493   24.204510
 0.740000   -7.223799   21.866702
 0.745000   -7.120826   19.210985
 0.750000   -7.031689   16.420555
 0.755000   -6.956620   13.654117
 0.760000   -6.895148   11.026765
 0.765000   -6.846353   8.721699
 0.770000   -6.807931   6.791773
 0.775000   -6.778435   5.057558
 0.780000   -6.757355   3.315888
 0.785000   -6.745276   1.341377
 0.790000   -6.743942   -1.143057
 0.795000   -6.756706   -4.296353
 0.800000   -6.786905   -8.083548
 0.805000   -6.837542   -12.415950
 0.810000   -6.911065   -17.067881
 0.815000   -7.008221   -21.745021
 0.820000   -7.128515   -26.228574
 0.825000   -7.270507   -30.055006
 0.830000   -7.429065   -32.807385
 0.835000   -7.598580   -34.377139
 0.840000   -7.772836   -34.716968
 0.845000   -7.945750   -33.773067
 0.850000   -8.110567   -31.499375
 0.855000   -8.260744   -28.353149
 0.860000   -8.394099   -24.900652
 0.865000   -8.509750   -21.262847
 0.870000   -8.606727   -17.568645
 0.875000   -8.685437   -13.989657
 0.880000   -8.746624   -10.725938
 0.885000   -8.792696   -7.617800
 0.890000   -8.822802   -4.425819
 0.895000   -8.836954   -1.262886
 0.900000   -8.835430   1.806441
 0.905000   -8.818890   5.088619
 0.910000   -8.784544   8.985964
 0.915000   -8.729030   13.767892
 0.920000   -8.646865   19.873720
 0.925000   -8.530293   27.700382
 0.930000   -8.369862   37.711649
 0.935000   -8.153177   52.807843
 0.940000   -7.841783   73.927161
 0.945000   -7.413905   95.687618
 0.950000   -6.884907   112.033643
 0.955000   -6.293569   114.076626
 0.960000   -5.744141   84.485629
 0.965000   -5.448712   5.876410
 0.970000   -5.685377   -113.338652
 0.975000   -6.582099   -203.364548
 0.980000   -7.719022   -127.849026
 0.985000   -7.860589   235.587282
 0.990000   -5.363149   837.936538
 0.995000   0.518776   1364.969646
 1.000000   8.286547   1742.138713
201 psinorm omgvb(kRad/s) domgvb/dpsiN
 0.000000   69.228376   200.324347
 0.005000   70.017309   115.248689
 0.010000   70.380863   67.537664
 0.015000   70.692685   60.180798
 0.020000   70.982671   56.546466
 0.025000   71.258150   53.500437
 0.030000   71.517675   50.292610
 0.035000   71.761076   47.357847
 0.040000   71.991254   44.595414
 0.045000   72.207030   41.687030
 0.050000   72.408124   38.877882
 0.055000   72.595809   36.294865
 0.060000   72.771073   33.757130
 0.065000   72.933380   31.275215
 0.070000   73.083825   28.808527
 0.075000   73.221465   26.232694
 0.080000   73.346152   23.552113
 0.085000   73.456987   20.588738
 0.090000   73.552039   17.555056
 0.095000   73.632537   14.733781
 0.100000   73.699377   12.263922
 0.105000   73.755176   10.243164
 0.110000   73.801809   8.660778
 0.115000   73.841784   7.599224
 0.120000   73.877801   6.889489
 0.125000   73.910679   6.316304
 0.130000   73.940964   5.688211
 0.135000   73.967561   4.847089
 0.140000   73.989435   3.774622
 0.145000   74.005307   2.353984
 0.150000   74.012975   0.389303
 0.155000   74.009200   -2.187874
 0.160000   73.991096   -5.080287
 0.165000   73.958398   -8.334989
 0.170000   73.907746   -11.827561
 0.175000   73.840122   -15.551938
 0.180000   73.752227   -19.436877
 0.185000   73.645753   -23.129845
 0.190000   73.520928   -26.797234
 0.195000   73.377781   -30.112408
 0.200000   73.219804   -33.192636
 0.205000   73.045854   -36.035344
 0.210000   72.859451   -38.373530
 0.215000   72.662119   -40.570161
 0.220000   72.453749   -42.509596
 0.225000   72.237023   -44.374050
 0.230000   72.010008   -46.408069
 0.235000   71.772943   -48.397093
 0.240000   71.526038   -50.560235
 0.245000   71.267340   -52.816253
 0.250000   70.997875   -55.008768
 0.255000   70.717252   -57.249502
 0.260000   70.425380   -59.435835
 0.265000   70.122894   -61.722947
 0.270000   69.808150   -64.243829
 0.275000   69.480456   -66.771432
 0.280000   69.140436   -69.506360
 0.285000   68.785392   -72.617954
 0.290000   68.414257   -75.828808
 0.295000   68.027104   -79.239641
 0.300000   67.621860   -82.819012
 0.305000   67.198914   -86.277143
 0.310000   66.759089   -89.743926
 0.315000   66.301475   -93.228670
 0.320000   65.826802   -96.455663
 0.325000   65.336918   -99.344769
 0.330000   64.833354   -101.695420
 0.335000   64.319964   -103.255833
 0.340000   63.800796   -104.150377
 0.345000   63.278460   -104.396116
 0.350000   62.756835   -103.842562
 0.355000   62.240035   -103.068733
 0.360000   61.726148   -102.591082
 0.365000   61.214124   -102.284388
 0.370000   60.703304   -102.292203
 0.375000   60.191202   -102.706816
 0.380000   59.676236   -103.688844
 0.385000   59.154313   -105.089591
 0.390000   58.625340   -106.351991
 0.395000   58.090793   -107.343362
 0.400000   57.551906   -108.178531
 0.405000   57.009008   -109.139287
 0.410000   56.460513   -111.406341
 0.415000   55.894945   -115.530440
 0.420000   55.305209   -121.086223
 0.425000   54.684082   -128.006668
 0.430000   54.025142   -136.091100
 0.435000   53.323171   -145.257979
 0.440000   52.572562   -155.294353
 0.445000   51.770228   -164.283590
 0.450000   50.929726   -171.022508
 0.455000   50.060003   -175.773443
 0.460000   49.171992   -178.224373
 0.465000   48.277759   -178.234608
 0.470000   47.389646   -175.069356
 0.475000   46.527066   -168.686539
 0.480000   45.702780   -160.428786
 0.485000   44.922778   -151.052386
 0.490000   44.192257   -140.983849
 0.495000   43.512939   -130.631471
 0.500000   42.885942   -120.567086
 0.505000   42.307268   -111.761159
 0.510000   41.768330   -104.461570
 0.515000   41.262653   -98.488261
 0.520000   40.783448   -93.580684
 0.525000   40.326846   -89.350581
 0.530000   39.889942   -85.572669
 0.535000   39.471119   -81.957468
 0.540000   39.070367   -78.311605
 0.545000   38.688003   -74.678311
 0.550000   38.323584   -71.189200
 0.555000   37.976111   -67.746500
 0.560000   37.646119   -64.220056
 0.565000   37.333910   -60.872260
 0.570000   37.037397   -57.816977
 0.575000   36.755741   -54.900052
 0.580000   36.488396   -52.183581
 0.585000   36.233905   -49.841287
 0.590000   35.989983   -47.809837
 0.595000   35.755807   -46.014170
 0.600000   35.529841   -44.539110
 0.605000   35.310415   -43.350414
 0.610000   35.096337   -42.379503
 0.615000   34.886620   -41.656883
 0.620000   34.679768   -41.231551
 0.625000   34.474305   -41.014815
 0.630000   34.269620   -40.967468
 0.635000   34.064630   -41.123035
 0.640000   33.858390   -41.472004
 0.645000   33.649910   -41.978143
 0.650000   33.438609   -42.616603
 0.655000   33.223744   -43.483106
 0.660000   33.003777   -44.619126
 0.665000   32.777553   -45.984231
 0.670000   32.543935   -47.565297
 0.675000   32.301900   -49.246632
 0.680000   32.051469   -50.895427
 0.685000   31.792946   -52.285185
 0.690000   31.528617   -53.204039
 0.695000   31.260905   -53.709810
 0.700000   30.991519   -53.833574
 0.705000   30.722570   -53.734213
 0.710000   30.454177   -53.762825
 0.715000   30.184941   -54.088743
 0.720000   29.913289   -54.806489
 0.725000   29.636876   -55.978286
 0.730000   29.353506   -57.648606
 0.735000   29.060390   -59.857699
 0.740000   28.754929   -62.453785
 0.745000   28.435852   -65.280638
 0.750000   28.102123   -68.295284
 0.755000   27.752900   -71.465151
 0.760000   27.387472   -74.785129
 0.765000   27.005048   -78.144647
 0.770000   26.606025   -81.613475
 0.775000   26.188914   -85.246229
 0.780000   25.753563   -88.582138
 0.785000   25.303092   -91.509808
 0.790000   24.838465   -94.367383
 0.795000   24.359418   -97.261561
 0.800000   23.865849   -100.211723
 0.805000   23.357301   -103.314816
 0.810000   22.832701   -106.406565
 0.815000   22.293235   -109.253856
 0.820000   21.740162   -111.750725
 0.825000   21.175728   -113.432120
 0.830000   20.605841   -113.956112
 0.835000   20.036167   -113.373893
 0.840000   19.472102   -111.554180
 0.845000   18.920625   -108.659619
 0.850000   18.385506   -105.199216
 0.855000   17.868633   -101.973386
 0.860000   17.365772   -99.987269
 0.865000   16.868760   -100.220898
 0.870000   16.363563   -102.965993
 0.875000   15.839101   -108.668455
 0.880000   15.276879   -118.588385
 0.885000   14.653217   -133.173084
 0.890000   13.945148   -152.516016
 0.895000   13.128057   -177.161791
 0.900000   12.173530   -205.602489
 0.905000   11.072032   -235.218294
 0.910000   9.821347   -263.899296
 0.915000   8.433039   -288.570257
 0.920000   6.935644   -305.852864
 0.925000   5.374510   -312.427998
 0.930000   3.811364   -305.492602
 0.935000   2.319584   -281.392719
 0.940000   0.997437   -239.903109
 0.945000   -0.079447   -188.213211
 0.950000   -0.884695   -135.189379
 0.955000   -1.431341   -92.269654
 0.960000   -1.807391   -80.869043
 0.965000   -2.240031   -122.137763
 0.970000   -3.028769   -208.707069
 0.975000   -4.327102   -271.376711
 0.980000   -5.742536   -173.873739
 0.985000   -6.065839   206.635901
 0.990000   -3.676177   821.628112
 0.995000   2.150442   1357.505705
 1.000000   9.898880   1741.869575
201 psinorm omgpp(kRad/s) domgpp/dpsiN
 0.000000   -0.049489   -24.586037
 0.005000   -0.200458   -35.801845
 0.010000   -0.407507   -42.066625
 0.015000   -0.621125   -43.302776
 0.020000   -0.840535   -44.355134
 0.025000   -1.064676   -45.163404
 0.030000   -1.292169   -45.733478
 0.035000   -1.522011   -46.058757
 0.040000   -1.752756   -46.097385
 0.045000   -1.982985   -45.859953
 0.050000   -2.211356   -45.288140
 0.055000   -2.435866   -44.391488
 0.060000   -2.655271   -43.556029
 0.065000   -2.871426   -42.772026
 0.070000   -3.082991   -41.840503
 0.075000   -3.289831   -40.888043
 0.080000   -3.491871   -39.891983
 0.085000   -3.688751   -38.918312
 0.090000   -3.881055   -38.167157
 0.095000   -4.070423   -37.437552
 0.100000   -4.255430   -36.544916
 0.105000   -4.435872   -35.612782
 0.110000   -4.611558   -34.673817
 0.115000   -4.782610   -33.932356
 0.120000   -4.950882   -33.081656
 0.125000   -5.113427   -31.877623
 0.130000   -5.269658   -30.516138
 0.135000   -5.418588   -28.967608
 0.140000   -5.559334   -27.256355
 0.145000   -5.691151   -25.411208
 0.150000   -5.813446   -23.216093
 0.155000   -5.923312   -20.791811
 0.160000   -6.021364   -18.368289
 0.165000   -6.106995   -15.836973
 0.170000   -6.179734   -13.226387
 0.175000   -6.239259   -10.176001
 0.180000   -6.281494   -7.323262
 0.185000   -6.312492   -4.988058
 0.190000   -6.331374   -2.702097
 0.195000   -6.339513   -0.733162
 0.200000   -6.338706   0.859330
 0.205000   -6.330919   2.165057
 0.210000   -6.317055   2.800380
 0.215000   -6.302916   3.053154
 0.220000   -6.286524   3.502990
 0.225000   -6.267886   3.931460
 0.230000   -6.247209   4.345800
 0.235000   -6.224428   4.320848
 0.240000   -6.204001   4.819583
 0.245000   -6.176232   6.539799
 0.250000   -6.138603   8.413021
 0.255000   -6.092102   10.212741
 0.260000   -6.036475   12.035985
 0.265000   -5.971742   13.729144
 0.270000   -5.899184   15.686823
 0.275000   -5.814874   17.917760
 0.280000   -5.720006   19.886488
 0.285000   -5.616009   21.716011
 0.290000   -5.502846   23.557408
 0.295000   -5.380435   25.696393
 0.300000   -5.245882   27.662980
 0.305000   -5.103805   28.255474
 0.310000   -4.963328   27.893596
 0.315000   -4.824869   27.357233
 0.320000   -4.689755   26.613957
 0.325000   -4.558729   25.642120
 0.330000   -4.433334   24.350398
 0.335000   -4.315225   23.300074
 0.340000   -4.200333   22.666817
 0.345000   -4.088557   22.112402
 0.350000   -3.979209   21.697498
 0.355000   -3.871582   21.194486
 0.360000   -3.767264   20.580660
 0.365000   -3.665776   20.969278
 0.370000   -3.557572   22.056452
 0.375000   -3.445211   23.021397
 0.380000   -3.327358   24.172753
 0.385000   -3.203484   25.391286
 0.390000   -3.073445   26.859781
 0.395000   -2.934886   27.946063
 0.400000   -2.793984   28.245867
 0.405000   -2.652427   28.194627
 0.410000   -2.512038   27.769385
 0.415000   -2.374733   27.039202
 0.420000   -2.241646   26.436942
 0.425000   -2.110364   24.656815
 0.430000   -1.995078   22.197424
 0.435000   -1.888390   20.495649
 0.440000   -1.790121   18.827941
 0.445000   -1.700110   17.189537
 0.450000   -1.618226   15.842149
 0.455000   -1.541689   13.967007
 0.460000   -1.478556   11.762269
 0.465000   -1.424066   10.016499
 0.470000   -1.378391   8.255770
 0.475000   -1.341508   6.519651
 0.480000   -1.313194   4.772334
 0.485000   -1.293785   3.572840
 0.490000   -1.277466   2.958329
 0.495000   -1.264202   2.321209
 0.500000   -1.254254   1.630705
 0.505000   -1.247895   0.872935
 0.510000   -1.245524   0.056411
 0.515000   -1.247330   -0.791961
 0.520000   -1.253444   -1.627954
 0.525000   -1.263610   -2.404761
 0.530000   -1.277492   -3.119290
 0.535000   -1.294803   -3.775963
 0.540000   -1.315251   -4.320910
 0.545000   -1.338012   -4.848670
 0.550000   -1.363738   -5.435187
 0.555000   -1.392364   -5.987700
 0.560000   -1.423615   -6.510661
 0.565000   -1.457470   -7.035867
 0.570000   -1.493974   -7.545664
 0.575000   -1.532927   -8.094912
 0.580000   -1.574923   -8.663840
 0.585000   -1.619566   -9.154233
 0.590000   -1.666465   -9.599468
 0.595000   -1.715560   -10.039181
 0.600000   -1.766857   -10.544510
 0.605000   -1.821005   -11.109576
 0.610000   -1.877953   -11.533471
 0.615000   -1.936340   -11.830304
 0.620000   -1.996256   -12.103689
 0.625000   -2.057377   -12.310992
 0.630000   -2.119366   -12.557066
 0.635000   -2.182948   -12.786618
 0.640000   -2.247232   -12.628246
 0.645000   -2.309230   -12.304557
 0.650000   -2.370277   -12.104039
 0.655000   -2.430270   -11.890675
 0.660000   -2.489184   -11.757333
 0.665000   -2.547844   -12.001728
 0.670000   -2.609201   -12.775455
 0.675000   -2.675598   -14.400539
 0.680000   -2.753207   -16.818834
 0.685000   -2.843787   -19.479160
 0.690000   -2.947998   -22.524451
 0.695000   -3.069031   -26.809632
 0.700000   -3.216095   -28.642379
 0.705000   -3.355455   -28.200620
 0.710000   -3.498101   -28.504482
 0.715000   -3.640500   -28.000841
 0.720000   -3.778109   -26.641207
 0.725000   -3.906912   -24.826381
 0.730000   -4.026373   -19.412943
 0.735000   -4.101041   -11.740931
 0.740000   -4.143782   -5.008642
 0.745000   -4.151128   2.258553
 0.750000   -4.121197   9.690335
 0.755000   -4.054224   18.702837
 0.760000   -3.934169   25.702582
 0.765000   -3.797198   29.191565
 0.770000   -3.642253   32.097868
 0.775000   -3.476220   33.641405
 0.780000   -3.305839   33.900797
 0.785000   -3.137212   34.420297
 0.790000   -2.961636   32.076577
 0.795000   -2.816446   27.241483
 0.800000   -2.689221   23.678782
 0.805000   -2.579658   20.137741
 0.810000   -2.487844   16.719732
 0.815000   -2.412461   13.526256
 0.820000   -2.352581   11.327701
 0.825000   -2.299184   10.266646
 0.830000   -2.249915   9.378317
 0.835000   -2.205401   8.379889
 0.840000   -2.166116   7.229520
 0.845000   -2.133106   5.040895
 0.850000   -2.115707   2.411395
 0.855000   -2.108992   0.410809
 0.860000   -2.111599   -1.798323
 0.865000   -2.126975   -4.399780
 0.870000   -2.155596   -7.091799
 0.875000   -2.197893   -10.881747
 0.880000   -2.264414   -14.575961
 0.885000   -2.343652   -16.841115
 0.890000   -2.432825   -20.247429
 0.895000   -2.546127   -25.824997
 0.900000   -2.691075   -33.047567
 0.905000   -2.876602   -44.024463
 0.910000   -3.131320   -59.200230
 0.915000   -3.468605   -75.711703
 0.920000   -3.888437   -97.350217
 0.925000   -4.442107   -128.757298
 0.930000   -5.176010   -170.833447
 0.935000   -6.150441   -231.340639
 0.940000   -7.489416   -313.481475
 0.945000   -9.285256   -394.832021
 0.950000   -11.437736   -470.260078
 0.955000   -13.987857   -537.279600
 0.960000   -16.810532   -566.022740
 0.965000   -19.648084   -535.887940
 0.970000   -22.169412   -424.369184
 0.975000   -23.891776   -206.239474
 0.980000   -24.231806   59.154720
 0.985000   -23.300229   292.403285
 0.990000   -21.307774   465.567038
 0.995000   -18.644559   554.244611
 1.000000   -15.765327   597.447793
201 psinorm omgeb(kRad/s) domgeb/dpsiN
 0.000000   69.178887   175.738310
 0.005000   69.816850   79.446844
 0.010000   69.973356   25.471039
 0.015000   70.071561   16.878022
 0.020000   70.142136   12.191331
 0.025000   70.193474   8.337032
 0.030000   70.225506   4.559132
 0.035000   70.239065   1.299090
 0.040000   70.238497   -1.501971
 0.045000   70.224046   -4.172923
 0.050000   70.196768   -6.410258
 0.055000   70.159943   -8.096623
 0.060000   70.115802   -9.798898
 0.065000   70.061954   -11.496811
 0.070000   70.000834   -13.031976
 0.075000   69.931634   -14.655349
 0.080000   69.854280   -16.339870
 0.085000   69.768236   -18.329574
 0.090000   69.670984   -20.612101
 0.095000   69.562115   -22.703771
 0.100000   69.443947   -24.280994
 0.105000   69.319305   -25.369619
 0.110000   69.190251   -26.013039
 0.115000   69.059174   -26.333132
 0.120000   68.926919   -26.192167
 0.125000   68.797253   -25.561320
 0.130000   68.671306   -24.827926
 0.135000   68.548973   -24.120519
 0.140000   68.430101   -23.481733
 0.145000   68.314156   -23.057224
 0.150000   68.199529   -22.826789
 0.155000   68.085888   -22.979685
 0.160000   67.969732   -23.448576
 0.165000   67.851402   -24.171962
 0.170000   67.728012   -25.053948
 0.175000   67.600863   -25.727940
 0.180000   67.470733   -26.760139
 0.185000   67.333261   -28.117902
 0.190000   67.189554   -29.499330
 0.195000   67.038268   -30.845570
 0.200000   66.881098   -32.333306
 0.205000   66.714935   -33.870287
 0.210000   66.542395   -35.573150
 0.215000   66.359204   -37.517007
 0.220000   66.167225   -39.006605
 0.225000   65.969138   -40.442591
 0.230000   65.762799   -42.062269
 0.235000   65.548515   -44.076244
 0.240000   65.322037   -45.740652
 0.245000   65.091108   -46.276454
 0.250000   64.859272   -46.595748
 0.255000   64.625151   -47.036761
 0.260000   64.388905   -47.399850
 0.265000   64.151152   -47.993803
 0.270000   63.908967   -48.557006
 0.275000   63.665582   -48.853672
 0.280000   63.420430   -49.619872
 0.285000   63.169384   -50.901943
 0.290000   62.911410   -52.271399
 0.295000   62.646670   -53.543248
 0.300000   62.375978   -55.156032
 0.305000   62.095109   -58.021669
 0.310000   61.795761   -61.850329
 0.315000   61.476606   -65.871437
 0.320000   61.137047   -69.841707
 0.325000   60.778189   -73.702649
 0.330000   60.400020   -77.345022
 0.335000   60.004739   -79.955758
 0.340000   59.600463   -81.483560
 0.345000   59.189903   -82.283714
 0.350000   58.777626   -82.145064
 0.355000   58.368452   -81.874247
 0.360000   57.958883   -82.010422
 0.365000   57.548348   -81.315110
 0.370000   57.145732   -80.235752
 0.375000   56.745991   -79.685419
 0.380000   56.348878   -79.516091
 0.385000   55.950830   -79.698304
 0.390000   55.551895   -79.492211
 0.395000   55.155908   -79.397298
 0.400000   54.757922   -79.932664
 0.405000   54.356581   -80.944660
 0.410000   53.948475   -83.636957
 0.415000   53.520211   -88.491238
 0.420000   53.063563   -94.649281
 0.425000   52.573719   -103.349854
 0.430000   52.030064   -113.893676
 0.435000   51.434782   -124.762330
 0.440000   50.782441   -136.466413
 0.445000   50.070118   -147.094053
 0.450000   49.311501   -155.180360
 0.455000   48.518314   -161.806436
 0.460000   47.693436   -166.462104
 0.465000   46.853693   -168.218109
 0.470000   46.011255   -166.813585
 0.475000   45.185557   -162.166888
 0.480000   44.389586   -155.656452
 0.485000   43.628993   -147.479546
 0.490000   42.914791   -138.025520
 0.495000   42.248738   -128.310262
 0.500000   41.631688   -118.936381
 0.505000   41.059374   -110.888225
 0.510000   40.522806   -104.405159
 0.515000   40.015322   -99.280222
 0.520000   39.530004   -95.208638
 0.525000   39.063236   -91.755343
 0.530000   38.612450   -88.691959
 0.535000   38.176316   -85.733431
 0.540000   37.755116   -82.632515
 0.545000   37.349991   -79.526981
 0.550000   36.959846   -76.624387
 0.555000   36.583747   -73.734200
 0.560000   36.222504   -70.730716
 0.565000   35.876440   -67.908126
 0.570000   35.543423   -65.362641
 0.575000   35.222814   -62.994964
 0.580000   34.913473   -60.847422
 0.585000   34.614339   -58.995520
 0.590000   34.323518   -57.409305
 0.595000   34.040246   -56.053351
 0.600000   33.762985   -55.083620
 0.605000   33.489410   -54.459990
 0.610000   33.218385   -53.912973
 0.615000   32.950280   -53.487187
 0.620000   32.683513   -53.335240
 0.625000   32.416928   -53.325807
 0.630000   32.150255   -53.524533
 0.635000   31.881683   -53.909653
 0.640000   31.611158   -54.100250
 0.645000   31.340680   -54.282699
 0.650000   31.068331   -54.720642
 0.655000   30.793474   -55.373782
 0.660000   30.514593   -56.376459
 0.665000   30.229709   -57.985959
 0.670000   29.934734   -60.340751
 0.675000   29.626302   -63.647171
 0.680000   29.298262   -67.714261
 0.685000   28.949159   -71.764344
 0.690000   28.580619   -75.728491
 0.695000   28.191874   -80.519443
 0.700000   27.775424   -82.475952
 0.705000   27.367115   -81.934833
 0.710000   26.956076   -82.267307
 0.715000   26.544442   -82.089584
 0.720000   26.135180   -81.447696
 0.725000   25.729965   -80.804667
 0.730000   25.327133   -77.061548
 0.735000   24.959349   -71.598630
 0.740000   24.611147   -67.462427
 0.745000   24.284725   -63.022085
 0.750000   23.980926   -58.604948
 0.755000   23.698675   -52.762315
 0.760000   23.453303   -49.082546
 0.765000   23.207850   -48.953082
 0.770000   22.963772   -49.515608
 0.775000   22.712694   -51.604824
 0.780000   22.447724   -54.681341
 0.785000   22.165880   -57.089511
 0.790000   21.876829   -62.290806
 0.795000   21.542972   -70.020078
 0.800000   21.176628   -76.532941
 0.805000   20.777643   -83.177075
 0.810000   20.344857   -89.686833
 0.815000   19.880775   -95.727600
 0.820000   19.387581   -100.423024
 0.825000   18.876544   -103.165474
 0.830000   18.355927   -104.577795
 0.835000   17.830766   -104.994003
 0.840000   17.305987   -104.324660
 0.845000   16.787520   -103.618723
 0.850000   16.269799   -102.787821
 0.855000   15.759642   -101.562577
 0.860000   15.254174   -101.785592
 0.865000   14.741786   -104.620677
 0.870000   14.207967   -110.057792
 0.875000   13.641208   -119.550202
 0.880000   13.012465   -133.164346
 0.885000   12.309564   -150.014199
 0.890000   11.512323   -172.763445
 0.895000   10.581930   -202.986788
 0.900000   9.482455   -238.650055
 0.905000   8.195429   -279.242757
 0.910000   6.690027   -323.099526
 0.915000   4.964434   -364.281960
 0.920000   3.047208   -403.203082
 0.925000   0.932403   -441.185296
 0.930000   -1.364645   -476.326049
 0.935000   -3.830857   -512.733359
 0.940000   -6.491979   -553.384584
 0.945000   -9.364703   -583.045232
 0.950000   -12.322431   -605.449457
 0.955000   -15.419198   -629.549254
 0.960000   -18.617924   -646.891782
 0.965000   -21.888116   -658.025703
 0.970000   -25.198181   -633.076252
 0.975000   -28.218878   -477.616184
 0.980000   -29.974343   -114.719018
 0.985000   -29.366068   499.039186
 0.990000   -24.983951   1287.195150
 0.995000   -16.494117   1911.750316
 1.000000   -5.866448   2339.317368
201 psinorm er(kV/m) der/dpsiN
 0.000000   0.819856   1247.891908
 0.005000   5.821912   752.930340
 0.010000   8.349159   446.492381
 0.015000   10.286836   359.265679
 0.020000   11.941816   311.968962
 0.025000   13.406525   277.956703
 0.030000   14.721383   252.692793
 0.035000   15.933453   234.008688
 0.040000   17.061470   217.697483
 0.045000   18.110428   203.940010
 0.050000   19.100870   192.186767
 0.055000   20.032296   182.957447
 0.060000   20.930445   175.460347
 0.065000   21.786899   166.186194
 0.070000   22.592307   157.817747
 0.075000   23.365076   152.981108
 0.080000   24.122118   145.556140
 0.085000   24.820638   139.356413
 0.090000   25.515682   135.047472
 0.095000   26.171113   127.061851
 0.100000   26.786300   124.331207
 0.105000   27.414425   117.641531
 0.110000   27.962716   114.487263
 0.115000   28.559297   110.403658
 0.120000   29.066752   107.010386
 0.125000   29.629401   103.579802
 0.130000   30.102550   101.088942
 0.135000   30.640291   97.544947
 0.140000   31.078000   94.959914
 0.145000   31.589890   92.973374
 0.150000   32.007734   89.026090
 0.155000   32.480151   88.508988
 0.160000   32.892823   83.263691
 0.165000   33.312788   83.190803
 0.170000   33.724731   77.420257
 0.175000   34.086990   77.616770
 0.180000   34.500899   71.887435
 0.185000   34.805864   68.669653
 0.190000   35.187596   69.992824
 0.195000   35.505793   62.693443
 0.200000   35.814530   64.093011
 0.205000   36.146723   57.097773
 0.210000   36.385508   54.363207
 0.215000   36.690355   55.596996
 0.220000   36.941478   47.922186
 0.225000   37.169577   49.202628
 0.230000   37.433504   43.673866
 0.235000   37.606315   39.060962
 0.240000   37.824114   42.438411
 0.245000   38.030700   34.624549
 0.250000   38.170359   33.555210
 0.255000   38.366252   35.496873
 0.260000   38.525328   28.662943
 0.265000   38.652881   29.278866
 0.270000   38.818117   28.132763
 0.275000   38.934209   22.911555
 0.280000   39.047232   24.779099
 0.285000   39.182000   21.044466
 0.290000   39.257677   16.293320
 0.295000   39.344933   18.532226
 0.300000   39.442999   13.511824
 0.305000   39.480051   8.452786
 0.310000   39.527527   9.073692
 0.315000   39.570788   2.358668
 0.320000   39.551114   -3.187110
 0.325000   39.538917   -3.079277
 0.330000   39.520321   -9.074714
 0.335000   39.448170   -13.762647
 0.340000   39.382694   -12.839175
 0.345000   39.319778   -16.019721
 0.350000   39.222497   -19.016661
 0.355000   39.129611   -17.692324
 0.360000   39.045574   -19.188349
 0.365000   38.937728   -21.982687
 0.370000   38.825747   -20.964110
 0.375000   38.728087   -20.777726
 0.380000   38.617970   -23.978986
 0.385000   38.488297   -24.571384
 0.390000   38.372256   -23.697575
 0.395000   38.251321   -26.839890
 0.400000   38.103857   -28.293857
 0.405000   37.968383   -27.821084
 0.410000   37.825646   -32.383925
 0.415000   37.644543   -37.380374
 0.420000   37.451842   -40.992521
 0.425000   37.234618   -48.584433
 0.430000   36.965998   -58.046995
 0.435000   36.654148   -66.174182
 0.440000   36.304256   -74.940276
 0.445000   35.904745   -84.662732
 0.450000   35.457629   -91.567229
 0.455000   34.989073   -96.336315
 0.460000   34.494266   -101.592518
 0.465000   33.973148   -104.309172
 0.470000   33.451174   -103.433835
 0.475000   32.938810   -101.085060
 0.480000   32.440324   -97.932620
 0.485000   31.959483   -92.649569
 0.490000   31.513828   -85.920657
 0.495000   31.100277   -80.229720
 0.500000   30.711531   -74.204070
 0.505000   30.358236   -68.186787
 0.510000   30.029663   -64.271950
 0.515000   29.715517   -61.498855
 0.520000   29.414674   -58.700206
 0.525000   29.128515   -56.298646
 0.530000   28.851688   -55.096705
 0.535000   28.577548   -53.422866
 0.540000   28.317459   -50.914307
 0.545000   28.068405   -49.326621
 0.550000   27.824193   -47.907472
 0.555000   27.589330   -45.742747
 0.560000   27.366765   -43.567361
 0.565000   27.153656   -42.355751
 0.570000   26.943208   -40.772359
 0.575000   26.745933   -38.660514
 0.580000   26.556603   -37.641986
 0.585000   26.369513   -36.866808
 0.590000   26.187935   -35.544358
 0.595000   26.014069   -34.427339
 0.600000   25.843661   -34.589300
 0.605000   25.668176   -34.362702
 0.610000   25.500034   -33.446835
 0.615000   25.333708   -33.609694
 0.620000   25.163937   -34.149250
 0.625000   24.992215   -33.998769
 0.630000   24.823950   -33.839231
 0.635000   24.653823   -35.060676
 0.640000   24.473343   -35.507796
 0.645000   24.298745   -35.027426
 0.650000   24.123069   -35.644460
 0.655000   23.942300   -36.980455
 0.660000   23.753264   -37.682222
 0.665000   23.565478   -38.387031
 0.670000   23.369394   -40.986037
 0.675000   23.155618   -44.087588
 0.680000   22.928518   -46.780211
 0.685000   22.687816   -49.729111
 0.690000   22.431227   -54.095754
 0.695000   22.146858   -58.035616
 0.700000   21.850871   -58.603351
 0.705000   21.560825   -58.718833
 0.710000   21.263682   -60.029074
 0.715000   20.960534   -59.647588
 0.720000   20.667206   -58.395611
 0.725000   20.376578   -58.970425
 0.730000   20.077502   -56.686153
 0.735000   19.809716   -51.547590
 0.740000   19.562026   -47.870086
 0.745000   19.331015   -45.934662
 0.750000   19.102680   -42.628406
 0.755000   18.904731   -36.645900
 0.760000   18.736221   -34.111783
 0.765000   18.563614   -35.211151
 0.770000   18.384109   -35.468613
 0.775000   18.208927   -36.223700
 0.780000   18.021872   -39.416461
 0.785000   17.814763   -42.099776
 0.790000   17.600874   -45.899148
 0.795000   17.355771   -51.726674
 0.800000   17.083608   -57.857879
 0.805000   16.777193   -63.684880
 0.810000   16.446759   -68.478465
 0.815000   16.092408   -73.325740
 0.820000   15.713501   -78.148978
 0.825000   15.310918   -80.682665
 0.830000   14.906675   -81.293441
 0.835000   14.497984   -81.935882
 0.840000   14.087316   -82.245680
 0.845000   13.675527   -81.847898
 0.850000   13.268837   -80.805162
 0.855000   12.867475   -80.209161
 0.860000   12.466745   -81.088138
 0.865000   12.056594   -83.482188
 0.870000   11.631923   -87.705466
 0.875000   11.179539   -95.982137
 0.880000   10.672102   -107.751553
 0.885000   10.102024   -121.580844
 0.890000   9.456294   -140.173822
 0.895000   8.700286   -165.681554
 0.900000   7.799478   -195.587110
 0.905000   6.744414   -228.946340
 0.910000   5.510015   -265.124973
 0.915000   4.093165   -299.763967
 0.920000   2.512375   -332.144721
 0.925000   0.771717   -363.295272
 0.930000   -1.120578   -392.674965
 0.935000   -3.155032   -424.651834
 0.940000   -5.367096   -458.786435
 0.945000   -7.742897   -482.380850
 0.950000   -10.190905   -507.323548
 0.955000   -12.816132   -561.606456
 0.960000   -15.806969   -579.125104
 0.965000   -18.607383   -564.486204
 0.970000   -21.451831   -555.097649
 0.975000   -24.158360   -459.005731
 0.980000   -26.041888   -138.103869
 0.985000   -25.539398   427.654128
 0.990000   -21.765347   1114.439345
 0.995000   -14.395005   1663.305268
 1.000000   -5.132294   2041.778863
201 psinorm ommvb() dommvb/dpsiN
 0.000000   -22.859738   13868.416674
 0.005000   42.617393   12322.435641
 0.010000   100.364619   11401.391480
 0.015000   156.631308   10383.283380
 0.020000   204.197453   9032.481696
 0.025000   246.956125   7807.561574
 0.030000   282.273068   6623.913275
 0.035000   313.195258   5887.930526
 0.040000   341.152374   5322.826611
 0.045000   366.423524   4662.162154
 0.050000   387.773995   4181.421035
 0.055000   408.237734   3706.124200
 0.060000   424.835237   3165.228927
 0.065000   439.890024   2762.252242
 0.070000   452.457760   2375.175817
 0.075000   463.641782   1976.824861
 0.080000   472.226008   1696.435797
 0.085000   480.606140   1550.650200
 0.090000   487.732510   1259.335757
 0.095000   493.199497   1007.749149
 0.100000   497.810002   864.955179
 0.105000   501.849049   721.949073
 0.110000   505.029492   476.838454
 0.115000   506.617434   213.434515
 0.120000   507.163838   19.427177
 0.125000   506.811705   -154.112600
 0.130000   505.622712   -319.297369
 0.135000   503.618732   -485.989737
 0.140000   500.762814   -643.578682
 0.145000   497.182945   -765.834108
 0.150000   493.104473   -873.118781
 0.155000   488.451757   -979.407147
 0.160000   483.310402   -1075.027262
 0.165000   477.701484   -1162.125482
 0.170000   471.689147   -1236.502241
 0.175000   465.336462   -1308.592642
 0.180000   458.603220   -1368.703193
 0.185000   451.649430   -1405.584503
 0.190000   444.547375   -1434.302992
 0.195000   437.306400   -1459.218101
 0.200000   429.955194   -1476.640062
 0.205000   422.539999   -1640.159083
 0.210000   413.553604   -1723.162277
 0.215000   405.308377   -1563.975089
 0.220000   397.913853   -1469.034739
 0.225000   390.618029   -1450.068725
 0.230000   383.413165   -1429.585728
 0.235000   376.322172   -1403.877153
 0.240000   369.374394   -1597.821521
 0.245000   360.343957   -1577.035292
 0.250000   353.604041   -1290.572803
 0.255000   347.438229   -1212.849073
 0.260000   341.475550   -1172.251608
 0.265000   335.715713   -1185.621038
 0.270000   329.619340   -1313.521083
 0.275000   322.580502   -1183.533608
 0.280000   317.784004   -937.022309
 0.285000   313.210279   -895.650328
 0.290000   308.827501   -883.229140
 0.295000   304.377987   -1011.075112
 0.300000   298.716749   -911.450233
 0.305000   295.263485   -671.100521
 0.310000   292.005744   -633.552910
 0.315000   288.927956   -654.998839
 0.320000   285.455756   -704.017245
 0.325000   281.887784   -567.671638
 0.330000   279.779039   -407.765212
 0.335000   277.810131   -381.479341
 0.340000   275.964246   -452.645847
 0.345000   273.283673   -427.569918
 0.350000   271.688547   -276.237392
 0.355000   270.521299   -220.964295
 0.360000   269.478904   -230.212888
 0.365000   268.219170   -252.190424
 0.370000   266.957000   -175.560775
 0.375000   266.463562   -89.702062
 0.380000   266.059979   -74.824589
 0.385000   265.715317   -147.388407
 0.390000   264.586095   -135.277814
 0.395000   264.362538   -28.432979
 0.400000   264.301765   2.103096
 0.405000   264.383569   -27.869992
 0.410000   264.023065   -32.917703
 0.415000   264.054392   16.973937
 0.420000   264.192805   22.853106
 0.425000   264.282923   -28.088281
 0.430000   263.911922   -75.750836
 0.435000   263.525415   -55.879528
 0.440000   263.353127   -41.623932
 0.445000   263.109176   -77.116232
 0.450000   262.581964   -125.163819
 0.455000   261.857537   -93.696580
 0.460000   261.644998   -49.759456
 0.465000   261.359943   -80.124580
 0.470000   260.843753   -142.704529
 0.475000   259.932898   -112.375087
 0.480000   259.720002   -34.772166
 0.485000   259.585176   -17.630488
 0.490000   259.543697   -52.079983
 0.495000   259.064376   -26.753458
 0.500000   259.276162   55.705474
 0.505000   259.621431   76.596277
 0.510000   260.042125   56.468712
 0.515000   260.186118   55.940574
 0.520000   260.601531   100.358558
 0.525000   261.189704   120.658116
 0.530000   261.808112   114.504600
 0.535000   262.334750   100.908421
 0.540000   262.817196   128.648814
 0.545000   263.621238   167.488494
 0.550000   264.492081   182.975814
 0.555000   265.450996   151.351493
 0.560000   266.005596   156.057631
 0.565000   267.011572   207.792074
 0.570000   268.083517   219.991060
 0.575000   269.211483   211.747997
 0.580000   270.200997   205.578922
 0.585000   271.267272   240.606342
 0.590000   272.607060   276.301473
 0.595000   274.030287   294.014086
 0.600000   275.547201   282.926687
 0.605000   276.859554   298.445954
 0.610000   278.531661   350.026311
 0.615000   280.359817   378.670296
 0.620000   282.318364   402.013266
 0.625000   284.379949   412.842479
 0.630000   286.446788   439.894180
 0.635000   288.778891   480.256523
 0.640000   291.249354   508.805762
 0.645000   293.866949   537.071883
 0.650000   296.620072   566.845757
 0.655000   299.535406   603.632106
 0.660000   302.656393   639.483104
 0.665000   305.930237   670.663772
 0.670000   309.363031   704.238872
 0.675000   312.972626   745.615582
 0.680000   316.819187   786.204428
 0.685000   320.834670   824.422152
 0.690000   325.063408   867.310982
 0.695000   329.507780   909.730083
 0.700000   334.160709   972.935552
 0.705000   339.237136   1030.494867
 0.710000   344.465658   1069.390373
 0.715000   349.931039   1119.992865
 0.720000   355.665587   1173.947779
 0.725000   361.670517   1227.553415
 0.730000   367.941121   1301.161169
 0.735000   374.682129   1359.391604
 0.740000   381.535037   1402.582729
 0.745000   388.707956   1466.431683
 0.750000   396.199354   1529.152898
 0.755000   403.999485   1591.326926
 0.760000   412.112623   1649.391859
 0.765000   420.493404   1692.666281
 0.770000   429.039286   1747.173224
 0.775000   437.965136   1823.401565
 0.780000   447.273301   1901.062773
 0.785000   456.975764   1982.380846
 0.790000   467.097110   2064.709050
 0.795000   477.622854   2135.928357
 0.800000   488.456393   2210.752521
 0.805000   499.730379   2312.527812
 0.810000   511.581672   2421.097997
 0.815000   523.941359   2527.094155
 0.820000   536.852613   2641.219884
 0.825000   550.353558   2762.530009
 0.830000   564.477913   2888.810806
 0.835000   579.241666   3013.268174
 0.840000   594.610595   3086.100391
 0.845000   610.102670   3220.358883
 0.850000   626.814184   3415.532324
 0.855000   644.257994   3558.438973
 0.860000   662.398573   3698.556055
 0.865000   681.243554   3871.601643
 0.870000   701.114590   4114.011895
 0.875000   722.383673   4416.862951
 0.880000   745.283219   4763.777946
 0.885000   770.021452   5156.048288
 0.890000   796.843702   5605.889763
 0.895000   826.080350   6155.332668
 0.900000   858.397029   6871.632628
 0.905000   894.796676   7813.720715
 0.910000   936.534236   9066.088630
 0.915000   985.457563   11132.056220
 0.920000   1047.854798   14420.901404
 0.925000   1129.666577   19129.120736
 0.930000   1239.146006   25827.822840
 0.935000   1387.944805   35073.025004
 0.940000   1589.876256   47111.359499
 0.945000   1859.058400   60818.542235
 0.950000   2198.061678   70101.148209
 0.955000   2560.069882   63912.606585
 0.960000   2837.187744   46462.574931
 0.965000   3024.695632   50652.328216
 0.970000   3343.711026   86812.460071
 0.975000   3892.820232   96980.103253
 0.980000   4313.512059   53656.445371
 0.985000   4429.384686   12037.459991
 0.990000   4433.886659   14524.967102
 0.995000   4574.634357   349087.343898
 1.000000   7924.760097   990962.952317
201 psinorm ommpp() dommpp/dpsiN
 0.000000   92.038625   -13692.678364
 0.005000   27.199457   -12242.988797
 0.010000   -30.391263   -11375.920441
 0.015000   -86.559747   -10366.405359
 0.020000   -134.055317   -9020.290364
 0.025000   -176.762651   -7799.224542
 0.030000   -212.047562   -6619.354143
 0.035000   -242.956192   -5886.631436
 0.040000   -270.913876   -5324.328582
 0.045000   -296.199478   -4666.335077
 0.050000   -317.577227   -4187.831293
 0.055000   -338.077791   -3714.220823
 0.060000   -354.719435   -3175.027825
 0.065000   -369.828070   -2773.749052
 0.070000   -382.456926   -2388.207793
 0.075000   -393.710147   -1991.480210
 0.080000   -402.371728   -1712.775667
 0.085000   -410.837904   -1568.979774
 0.090000   -418.061526   -1279.947858
 0.095000   -423.637383   -1030.452920
 0.100000   -428.366055   -889.236173
 0.105000   -432.529744   -747.318692
 0.110000   -435.839242   -502.851493
 0.115000   -437.558259   -239.767647
 0.120000   -438.236918   -45.619344
 0.125000   -438.014453   128.551280
 0.130000   -436.951406   294.469443
 0.135000   -435.069758   461.869217
 0.140000   -432.332713   620.096950
 0.145000   -428.868789   742.776884
 0.150000   -424.904945   850.291991
 0.155000   -420.365869   956.427462
 0.160000   -415.340670   1051.578686
 0.165000   -409.850082   1137.953521
 0.170000   -403.961135   1211.448294
 0.175000   -397.735599   1282.864703
 0.180000   -391.132488   1341.943054
 0.185000   -384.316169   1377.466600
 0.190000   -377.357822   1404.803661
 0.195000   -370.268132   1428.372531
 0.200000   -363.074096   1444.306757
 0.205000   -355.825064   1606.288796
 0.210000   -347.011208   1687.589127
 0.215000   -338.949173   1526.458082
 0.220000   -331.746628   1430.028134
 0.225000   -324.648892   1409.626135
 0.230000   -317.650366   1387.523459
 0.235000   -310.773657   1359.800909
 0.240000   -304.052357   1552.080869
 0.245000   -295.252849   1530.758838
 0.250000   -288.744769   1243.977055
 0.255000   -282.813078   1165.812312
 0.260000   -277.086646   1124.851758
 0.265000   -271.564560   1137.627235
 0.270000   -265.710373   1264.964077
 0.275000   -258.914920   1134.679935
 0.280000   -254.363574   887.402437
 0.285000   -250.040895   844.748384
 0.290000   -245.916090   830.957740
 0.295000   -241.731318   957.531864
 0.300000   -236.340771   856.294201
 0.305000   -233.168376   613.078852
 0.310000   -230.209983   571.702581
 0.315000   -227.451350   589.127402
 0.320000   -224.318709   634.175539
 0.325000   -221.109595   493.968989
 0.330000   -219.379019   330.420190
 0.335000   -217.805393   301.523583
 0.340000   -216.363783   371.162287
 0.345000   -214.093770   345.286204
 0.350000   -212.910921   194.092328
 0.355000   -212.152847   139.090048
 0.360000   -211.520021   148.202467
 0.365000   -210.670822   170.875314
 0.370000   -209.811268   95.325023
 0.375000   -209.717572   10.016643
 0.380000   -209.711101   -4.691502
 0.385000   -209.764487   67.690103
 0.390000   -209.034200   55.785603
 0.395000   -209.206631   -50.964319
 0.400000   -209.543843   -82.035760
 0.405000   -210.026988   -53.074668
 0.410000   -210.074590   -50.719254
 0.415000   -210.534181   -105.465175
 0.420000   -211.129242   -117.502387
 0.425000   -211.709205   -75.261573
 0.430000   -211.881857   -38.142840
 0.435000   -212.090633   -68.882802
 0.440000   -212.570685   -94.842481
 0.445000   -213.039058   -69.977821
 0.450000   -213.270464   -30.016541
 0.455000   -213.339223   -68.109855
 0.460000   -213.951562   -116.702648
 0.465000   -214.506250   -88.093529
 0.470000   -214.832498   -24.109056
 0.475000   -214.747340   -49.791801
 0.480000   -215.330416   -120.884286
 0.485000   -215.956183   -129.849058
 0.490000   -216.628906   -85.945537
 0.495000   -216.815639   -101.556804
 0.500000   -217.644474   -174.641855
 0.505000   -218.562057   -187.484502
 0.510000   -219.519319   -160.873871
 0.515000   -220.170796   -155.220795
 0.520000   -221.071527   -195.567196
 0.525000   -222.126468   -212.413458
 0.530000   -223.195662   -203.196559
 0.535000   -224.158433   -186.641851
 0.540000   -225.062080   -211.281329
 0.545000   -226.271247   -247.015475
 0.550000   -227.532235   -259.600201
 0.555000   -228.867249   -225.085694
 0.560000   -229.783092   -226.788347
 0.565000   -231.135132   -275.700200
 0.570000   -232.540094   -285.353701
 0.575000   -233.988669   -274.742961
 0.580000   -235.287524   -266.426344
 0.585000   -236.652933   -299.601862
 0.590000   -238.283542   -333.710778
 0.595000   -239.990040   -350.067437
 0.600000   -241.784217   -338.010307
 0.605000   -243.370143   -352.905944
 0.610000   -245.313276   -403.939285
 0.615000   -247.409536   -432.157483
 0.620000   -249.634851   -455.348506
 0.625000   -251.963021   -466.168286
 0.630000   -254.296534   -493.418713
 0.635000   -256.897209   -534.166175
 0.640000   -259.638195   -562.906012
 0.645000   -262.526269   -591.354582
 0.650000   -265.551741   -621.566398
 0.655000   -268.741933   -659.005887
 0.660000   -272.141800   -695.859563
 0.665000   -275.700528   -728.649731
 0.670000   -279.428297   -764.579624
 0.675000   -283.346324   -809.262753
 0.680000   -287.520925   -853.918689
 0.685000   -291.885511   -896.186496
 0.690000   -296.482790   -943.039473
 0.695000   -301.315906   -990.249526
 0.700000   -306.385285   -1055.411505
 0.705000   -311.870021   -1112.429700
 0.710000   -317.509582   -1151.657680
 0.715000   -323.386598   -1202.082449
 0.720000   -329.530407   -1255.395475
 0.725000   -335.940553   -1308.358083
 0.730000   -342.613987   -1378.222717
 0.735000   -349.722780   -1430.990234
 0.740000   -356.923890   -1470.045156
 0.745000   -364.423231   -1529.453768
 0.750000   -372.218427   -1587.757847
 0.755000   -380.300810   -1644.089240
 0.760000   -388.659320   -1698.474406
 0.765000   -397.285554   -1741.619363
 0.770000   -406.075513   -1796.688832
 0.775000   -415.252442   -1875.006390
 0.780000   -424.825577   -1955.744113
 0.785000   -434.809883   -2039.470357
 0.790000   -445.220281   -2126.999856
 0.795000   -456.079882   -2205.948435
 0.800000   -467.279765   -2287.285461
 0.805000   -478.952737   -2395.704887
 0.810000   -491.236814   -2510.784830
 0.815000   -504.060585   -2622.821755
 0.820000   -517.465032   -2741.642908
 0.825000   -531.477014   -2865.695483
 0.830000   -546.121987   -2993.388601
 0.835000   -561.410900   -3118.262178
 0.840000   -577.304608   -3190.425051
 0.845000   -593.315150   -3323.977606
 0.850000   -610.544384   -3518.320145
 0.855000   -628.498352   -3660.001550
 0.860000   -647.144400   -3800.341647
 0.865000   -666.501768   -3976.222320
 0.870000   -686.906623   -4224.069688
 0.875000   -708.742465   -4536.413153
 0.880000   -732.270755   -4896.942293
 0.885000   -757.711888   -5306.062487
 0.890000   -785.331380   -5778.653208
 0.895000   -815.498420   -6358.319456
 0.900000   -848.914574   -7110.282684
 0.905000   -886.601247   -8092.963472
 0.910000   -929.844209   -9389.188156
 0.915000   -980.493129   -11496.338180
 0.920000   -1044.807591   -14824.104486
 0.925000   -1128.734174   -19570.306031
 0.930000   -1240.510651   -26304.148889
 0.935000   -1391.775662   -35585.758362
 0.940000   -1596.368235   -47664.744083
 0.945000   -1868.423103   -61401.587467
 0.950000   -2210.384109   -70706.597665
 0.955000   -2575.489080   -64542.155839
 0.960000   -2855.805668   -47109.466713
 0.965000   -3046.583747   -51310.353918
 0.970000   -3368.909207   -87445.536324
 0.975000   -3921.039110   -97457.719437
 0.980000   -4343.486401   -53771.164389
 0.985000   -4458.750754   -11538.420805
 0.990000   -4458.870609   -13237.771952
 0.995000   -4591.128474   -347175.593582
 1.000000   -7930.626545   -988623.634949
201 psinorm omevb() domevb/dpsiN
 0.000000   49.490298   177.382874
 0.005000   50.136462   81.082609
 0.010000   50.301124   27.189654
 0.015000   50.408358   18.770801
 0.020000   50.488832   14.257589
 0.025000   50.550934   10.576067
 0.030000   50.594593   6.970223
 0.035000   50.620637   3.881503
 0.040000   50.633408   1.251010
 0.045000   50.633147   -1.250142
 0.050000   50.620907   -3.318464
 0.055000   50.599962   -4.836617
 0.060000   50.572540   -6.371498
 0.065000   50.536247   -7.902851
 0.070000   50.493512   -9.272305
 0.075000   50.443524   -10.730831
 0.080000   50.386204   -12.251386
 0.085000   50.321010   -14.078018
 0.090000   50.245423   -16.198385
 0.095000   50.159026   -18.128818
 0.100000   50.064135   -19.545743
 0.105000   49.963569   -20.475025
 0.110000   49.859385   -20.960069
 0.115000   49.753968   -21.122768
 0.120000   49.648157   -20.825404
 0.125000   49.545714   -20.039167
 0.130000   49.447766   -19.151406
 0.135000   49.354200   -18.290667
 0.140000   49.264859   -17.499596
 0.145000   49.179204   -16.923865
 0.150000   49.095620   -16.543281
 0.155000   49.013771   -16.547113
 0.160000   48.930149   -16.868039
 0.165000   48.845091   -17.444569
 0.170000   48.755703   -18.180821
 0.175000   48.663283   -18.710213
 0.180000   48.568601   -19.598956
 0.185000   48.467293   -20.814418
 0.190000   48.360457   -22.054711
 0.195000   48.246746   -23.260992
 0.200000   48.127847   -24.609957
 0.205000   48.000646   -26.009364
 0.210000   47.867754   -27.575861
 0.215000   47.724888   -29.384569
 0.220000   47.573908   -30.740244
 0.225000   47.417485   -32.043542
 0.230000   47.253472   -33.531778
 0.235000   47.082168   -35.415565
 0.240000   46.899317   -36.951047
 0.245000   46.712657   -37.359193
 0.250000   46.525725   -37.552110
 0.255000   46.337136   -37.868034
 0.260000   46.147045   -38.107327
 0.265000   45.956063   -38.578788
 0.270000   45.761257   -39.020807
 0.275000   45.565855   -39.197606
 0.280000   45.369281   -39.845262
 0.285000   45.167402   -41.010119
 0.290000   44.959179   -42.263698
 0.295000   44.744765   -43.421012
 0.300000   44.524969   -44.920609
 0.305000   44.295559   -47.674414
 0.310000   44.048225   -51.392601
 0.315000   43.781633   -55.304600
 0.320000   43.495179   -59.167132
 0.325000   43.189962   -62.921711
 0.330000   42.865962   -66.459100
 0.335000   42.525371   -68.966236
 0.340000   42.176300   -70.391826
 0.345000   41.821452   -71.091159
 0.350000   41.465388   -70.853084
 0.355000   41.112922   -70.484241
 0.360000   40.760546   -70.523793
 0.365000   40.407684   -69.733263
 0.370000   40.063213   -68.560095
 0.375000   39.722083   -67.917363
 0.380000   39.384039   -67.657049
 0.385000   39.045512   -67.749692
 0.390000   38.706542   -67.455446
 0.395000   38.370958   -67.273800
 0.400000   38.033804   -67.723853
 0.405000   37.693719   -68.651959
 0.410000   37.347285   -71.261788
 0.415000   36.981101   -76.035026
 0.420000   36.586935   -82.113451
 0.425000   36.159967   -90.735831
 0.430000   35.679576   -101.202887
 0.435000   35.147938   -111.996200
 0.440000   34.559614   -123.626367
 0.445000   33.911674   -134.181517
 0.450000   33.217799   -142.196758
 0.455000   32.489707   -148.753193
 0.460000   31.730267   -153.340644
 0.465000   30.956300   -155.029853
 0.470000   30.179969   -153.559956
 0.475000   29.420701   -148.849303
 0.480000   28.691476   -142.276330
 0.485000   27.997937   -134.038302
 0.490000   27.351093   -124.524569
 0.495000   26.752692   -114.751014
 0.500000   26.203582   -105.320246
 0.505000   25.699489   -97.216609
 0.510000   25.231416   -90.679466
 0.515000   24.792695   -85.501853
 0.520000   24.376398   -81.378991
 0.525000   23.978905   -77.875811
 0.530000   23.597640   -74.763933
 0.535000   23.231265   -71.758298
 0.540000   22.880057   -68.611659
 0.545000   22.545149   -65.461780
 0.550000   22.225439   -62.516217
 0.555000   21.919987   -59.584430
 0.560000   21.629595   -56.540713
 0.565000   21.354579   -53.679251
 0.570000   21.092802   -51.096250
 0.575000   20.843617   -48.692409
 0.580000   20.605878   -46.510049
 0.585000   20.378516   -44.624670
 0.590000   20.159631   -43.006313
 0.595000   19.948453   -41.619547
 0.600000   19.743436   -40.620328
 0.605000   19.542250   -39.968529
 0.610000   19.343751   -39.394654
 0.615000   19.148303   -38.943316
 0.620000   18.954317   -38.767116
 0.625000   18.760632   -38.734724
 0.630000   18.566970   -38.911777
 0.635000   18.371515   -39.276502
 0.640000   18.174205   -39.447979
 0.645000   17.977035   -39.612572
 0.650000   17.778079   -40.033917
 0.655000   17.576696   -40.671711
 0.660000   17.371362   -41.660286
 0.665000   17.160093   -43.256919
 0.670000   16.938793   -45.600073
 0.675000   16.704092   -48.896074
 0.680000   16.449832   -52.953958
 0.685000   16.174552   -56.996038
 0.690000   15.879872   -60.953376
 0.695000   15.565019   -65.738706
 0.700000   15.222485   -67.690770
 0.705000   14.888111   -67.146371
 0.710000   14.551021   -67.476721
 0.715000   14.213344   -67.298016
 0.720000   13.878041   -66.656274
 0.725000   13.546781   -66.014506
 0.730000   13.217896   -62.273740
 0.735000   12.924044   -56.814244
 0.740000   12.649754   -52.682504
 0.745000   12.397219   -48.247623
 0.750000   12.167277   -43.836897
 0.755000   11.958850   -38.001551
 0.760000   11.787262   -34.329855
 0.765000   11.615551   -34.209115
 0.770000   11.445171   -34.780840
 0.775000   11.267743   -36.879481
 0.780000   11.076376   -39.965302
 0.785000   10.868090   -42.382178
 0.790000   10.652554   -47.590917
 0.795000   10.392180   -55.325450
 0.800000   10.099300   -61.840125
 0.805000   9.773779   -68.480881
 0.810000   9.414491   -74.979689
 0.815000   9.023982   -80.998701
 0.820000   8.604504   -85.657213
 0.825000   8.167410   -88.341791
 0.830000   7.721086   -89.667651
 0.835000   7.270734   -89.958944
 0.840000   6.821496   -89.113775
 0.845000   6.379596   -88.165886
 0.850000   5.939838   -87.009231
 0.855000   5.509504   -85.355585
 0.860000   5.086282   -85.030711
 0.865000   4.659197   -87.190246
 0.870000   4.214379   -91.837491
 0.875000   3.740822   -100.484171
 0.880000   3.209538   -113.342315
 0.885000   2.607398   -129.831721
 0.890000   1.911220   -153.207238
 0.895000   1.075326   -186.131421
 0.900000   0.049906   -228.507904
 0.905000   -1.209753   -283.198976
 0.910000   -2.782084   -354.306977
 0.915000   -4.752823   -445.616002
 0.920000   -7.238244   -573.723347
 0.925000   -10.490056   -766.580170
 0.930000   -14.904045   -1065.627571
 0.935000   -21.146332   -1544.885819
 0.940000   -30.352904   -2319.072189
 0.945000   -44.337054   -3545.036100
 0.950000   -65.803265   -5433.933521
 0.955000   -98.676389   -7892.226798
 0.960000   -144.725533   -9254.994768
 0.965000   -191.226337   -5871.719262
 0.970000   -203.442725   2209.454760
 0.975000   -169.131789   8029.268832
 0.980000   -123.150037   8135.019672
 0.985000   -87.781592   6176.590593
 0.990000   -61.384131   4835.791091
 0.995000   -39.423681   4068.073023
 1.000000   -20.703401   3420.039299
201 psinorm omepp() domepp/dpsiN
 0.000000   19.688589   -1.644563
 0.005000   19.680388   -1.635764
 0.010000   19.672232   -1.718616
 0.015000   19.663202   -1.892779
 0.020000   19.653304   -2.066258
 0.025000   19.642540   -2.239034
 0.030000   19.630913   -2.411092
 0.035000   19.618429   -2.582413
 0.040000   19.605089   -2.752981
 0.045000   19.590899   -2.922781
 0.050000   19.575862   -3.091794
 0.055000   19.559981   -3.260006
 0.060000   19.543261   -3.427400
 0.065000   19.525707   -3.593960
 0.070000   19.507322   -3.759671
 0.075000   19.488110   -3.924518
 0.080000   19.468077   -4.088484
 0.085000   19.447225   -4.251555
 0.090000   19.425561   -4.413717
 0.095000   19.403088   -4.574953
 0.100000   19.379812   -4.735250
 0.105000   19.355736   -4.894594
 0.110000   19.330866   -5.052970
 0.115000   19.305206   -5.210364
 0.120000   19.278762   -5.366763
 0.125000   19.251538   -5.522153
 0.130000   19.223541   -5.676520
 0.135000   19.194773   -5.829853
 0.140000   19.165242   -5.982136
 0.145000   19.134952   -6.133359
 0.150000   19.103908   -6.283508
 0.155000   19.072117   -6.432572
 0.160000   19.039583   -6.580537
 0.165000   19.006311   -6.727392
 0.170000   18.972309   -6.873126
 0.175000   18.937580   -7.017727
 0.180000   18.902131   -7.161183
 0.185000   18.865968   -7.303484
 0.190000   18.829097   -7.444619
 0.195000   18.791522   -7.584578
 0.200000   18.753251   -7.723349
 0.205000   18.714289   -7.860922
 0.210000   18.674642   -7.997289
 0.215000   18.634316   -8.132438
 0.220000   18.593317   -8.266361
 0.225000   18.551652   -8.399048
 0.230000   18.509327   -8.530491
 0.235000   18.466347   -8.660679
 0.240000   18.422720   -8.789606
 0.245000   18.378451   -8.917261
 0.250000   18.333547   -9.043638
 0.255000   18.288015   -9.168727
 0.260000   18.241860   -9.292522
 0.265000   18.195090   -9.415015
 0.270000   18.147710   -9.536199
 0.275000   18.099728   -9.656066
 0.280000   18.051149   -9.774610
 0.285000   18.001982   -9.891824
 0.290000   17.952231   -10.007701
 0.295000   17.901905   -10.122236
 0.300000   17.851009   -10.235423
 0.305000   17.799550   -10.347256
 0.310000   17.747536   -10.457728
 0.315000   17.694973   -10.566837
 0.320000   17.641868   -10.674575
 0.325000   17.588227   -10.780938
 0.330000   17.534058   -10.885922
 0.335000   17.479368   -10.989522
 0.340000   17.424163   -11.091734
 0.345000   17.368451   -11.192555
 0.350000   17.312238   -11.291980
 0.355000   17.255531   -11.390006
 0.360000   17.198338   -11.486629
 0.365000   17.140665   -11.581847
 0.370000   17.082519   -11.675657
 0.375000   17.023908   -11.768056
 0.380000   16.964839   -11.859042
 0.385000   16.905318   -11.948612
 0.390000   16.845352   -12.036765
 0.395000   16.784950   -12.123498
 0.400000   16.724117   -12.208811
 0.405000   16.662862   -12.292701
 0.410000   16.601190   -12.375169
 0.415000   16.539110   -12.456212
 0.420000   16.476628   -12.535830
 0.425000   16.413752   -12.614023
 0.430000   16.350488   -12.690790
 0.435000   16.286844   -12.766131
 0.440000   16.222827   -12.840046
 0.445000   16.158444   -12.912536
 0.450000   16.093701   -12.983601
 0.455000   16.028608   -13.053242
 0.460000   15.963169   -13.121460
 0.465000   15.897393   -13.188255
 0.470000   15.831286   -13.253630
 0.475000   15.764857   -13.317585
 0.480000   15.698111   -13.380122
 0.485000   15.631055   -13.441244
 0.490000   15.563698   -13.500951
 0.495000   15.496046   -13.559248
 0.500000   15.428106   -13.616135
 0.505000   15.359885   -13.671615
 0.510000   15.291390   -13.725692
 0.515000   15.222628   -13.778369
 0.520000   15.153606   -13.829647
 0.525000   15.084331   -13.879532
 0.530000   15.014810   -13.928026
 0.535000   14.945051   -13.975132
 0.540000   14.875059   -14.020856
 0.545000   14.804842   -14.065201
 0.550000   14.734407   -14.108171
 0.555000   14.663761   -14.149770
 0.560000   14.592909   -14.190003
 0.565000   14.521861   -14.228875
 0.570000   14.450621   -14.266391
 0.575000   14.379197   -14.302555
 0.580000   14.307595   -14.337373
 0.585000   14.235823   -14.370850
 0.590000   14.163887   -14.402992
 0.595000   14.091793   -14.433804
 0.600000   14.019549   -14.463292
 0.605000   13.947160   -14.491461
 0.610000   13.874634   -14.518319
 0.615000   13.801977   -14.543871
 0.620000   13.729195   -14.568124
 0.625000   13.656296   -14.591083
 0.630000   13.583284   -14.612757
 0.635000   13.510168   -14.633150
 0.640000   13.436953   -14.652272
 0.645000   13.363645   -14.670127
 0.650000   13.290252   -14.686725
 0.655000   13.216778   -14.702071
 0.660000   13.143231   -14.716173
 0.665000   13.069616   -14.729040
 0.670000   12.995941   -14.740679
 0.675000   12.922210   -14.751097
 0.680000   12.848430   -14.760304
 0.685000   12.774607   -14.768306
 0.690000   12.700747   -14.775114
 0.695000   12.626855   -14.780736
 0.700000   12.552939   -14.785182
 0.705000   12.479004   -14.788462
 0.710000   12.405055   -14.790586
 0.715000   12.331098   -14.791568
 0.720000   12.257139   -14.791421
 0.725000   12.183184   -14.790161
 0.730000   12.109237   -14.787808
 0.735000   12.035305   -14.784385
 0.740000   11.961393   -14.779924
 0.745000   11.887506   -14.774462
 0.750000   11.813649   -14.768052
 0.755000   11.739826   -14.760763
 0.760000   11.666041   -14.752692
 0.765000   11.592299   -14.743966
 0.770000   11.518601   -14.734767
 0.775000   11.444951   -14.725343
 0.780000   11.371348   -14.716039
 0.785000   11.297791   -14.707333
 0.790000   11.224275   -14.699890
 0.795000   11.150792   -14.694628
 0.800000   11.077328   -14.692815
 0.805000   11.003864   -14.696194
 0.810000   10.930367   -14.707144
 0.815000   10.856792   -14.728899
 0.820000   10.783078   -14.765811
 0.825000   10.709134   -14.823683
 0.830000   10.634841   -14.910144
 0.835000   10.560033   -15.035059
 0.840000   10.484490   -15.210885
 0.845000   10.407924   -15.452837
 0.850000   10.329962   -15.778590
 0.855000   10.250138   -16.206992
 0.860000   10.167892   -16.754882
 0.865000   10.082589   -17.430431
 0.870000   9.993588   -18.220301
 0.875000   9.900386   -19.066031
 0.880000   9.802927   -19.822031
 0.885000   9.702166   -20.182478
 0.890000   9.601102   -19.556207
 0.895000   9.506604   -16.855367
 0.900000   9.432549   -10.142152
 0.905000   9.405182   3.956219
 0.910000   9.472111   31.207451
 0.915000   9.717257   81.334042
 0.920000   10.285451   170.520265
 0.925000   11.422459   325.394874
 0.930000   13.539400   589.301522
 0.935000   17.315475   1032.152460
 0.940000   23.860925   1765.687605
 0.945000   34.972351   2961.990868
 0.950000   53.480833   4828.484064
 0.955000   83.257191   7262.677544
 0.960000   126.107609   8608.102986
 0.965000   169.338221   5213.693560
 0.970000   178.244544   -2842.531012
 0.975000   140.912911   -8506.885017
 0.980000   93.175694   -8249.738690
 0.985000   58.415524   -5677.551406
 0.990000   36.400180   -3548.595940
 0.995000   22.929565   -2156.322707
 1.000000   14.836953   -1080.721931
201 psinorm kpol(km/s/T) dkpol/dpsiN
 0.000000   -0.009944   202.088448
 0.005000   0.793800   119.408969
 0.010000   1.184146   73.400886
 0.015000   1.527809   67.015096
 0.020000   1.854297   64.305652
 0.025000   2.170865   62.168888
 0.030000   2.475986   59.849642
 0.035000   2.769362   57.788906
 0.040000   3.053875   55.901672
 0.045000   3.328378   53.871254
 0.050000   3.592587   51.942800
 0.055000   3.847806   50.241941
 0.060000   4.095007   48.580247
 0.065000   4.333609   46.966282
 0.070000   4.564670   45.317806
 0.075000   4.786787   43.509759
 0.080000   4.999767   41.569951
 0.085000   5.202486   39.281978
 0.090000   5.392587   36.873193
 0.095000   5.571218   34.683996
 0.100000   5.739427   32.877259
 0.105000   5.899991   31.571167
 0.110000   6.055139   30.790704
 0.115000   6.207898   30.647056
 0.120000   6.361609   30.963048
 0.125000   6.517528   31.485898
 0.130000   6.676468   32.005828
 0.135000   6.837587   32.351728
 0.140000   6.999986   32.483195
 0.145000   7.162419   32.261278
 0.150000   7.322598   31.457137
 0.155000   7.476990   29.980955
 0.160000   7.622408   28.167636
 0.165000   7.758666   25.944955
 0.170000   7.881857   23.434635
 0.175000   7.993013   20.628044
 0.180000   8.088138   17.612648
 0.185000   8.169139   14.804366
 0.190000   8.236182   11.992252
 0.195000   8.289062   9.519096
 0.200000   8.331372   7.213742
 0.205000   8.361199   5.077804
 0.210000   8.382151   3.416865
 0.215000   8.395368   1.776535
 0.220000   8.399916   0.262806
 0.225000   8.397996   -1.400423
 0.230000   8.385912   -3.420796
 0.235000   8.363788   -5.469976
 0.240000   8.331212   -7.867371
 0.245000   8.285114   -10.515786
 0.250000   8.226054   -13.248217
 0.255000   8.152632   -16.245662
 0.260000   8.063597   -19.195237
 0.265000   7.960680   -22.158821
 0.270000   7.842009   -25.362664
 0.275000   7.707053   -28.489866
 0.280000   7.557111   -31.755462
 0.285000   7.389498   -35.300230
 0.290000   7.204108   -38.763710
 0.295000   7.001861   -42.379687
 0.300000   6.780311   -46.202737
 0.305000   6.539834   -49.917499
 0.310000   6.281136   -53.721434
 0.315000   6.002620   -57.635669
 0.320000   5.704780   -61.360410
 0.325000   5.389016   -64.809063
 0.330000   5.056689   -67.687008
 0.335000   4.712145   -69.670107
 0.340000   4.359988   -70.916252
 0.345000   4.002983   -71.492617
 0.350000   3.645062   -71.171151
 0.355000   3.291271   -70.641158
 0.360000   2.938650   -70.593943
 0.365000   2.585332   -70.866191
 0.370000   2.229988   -71.641893
 0.375000   1.868913   -73.117984
 0.380000   1.498808   -75.483291
 0.385000   1.114080   -78.443498
 0.390000   0.714373   -81.273376
 0.395000   0.301346   -83.792961
 0.400000   -0.123556   -86.132193
 0.405000   -0.559976   -88.692221
 0.410000   -1.010478   -92.907661
 0.415000   -1.489052   -99.203599
 0.420000   -2.002514   -106.828227
 0.425000   -2.557334   -115.603847
 0.430000   -3.158553   -125.222187
 0.435000   -3.809556   -135.338833
 0.440000   -4.511941   -145.722237
 0.445000   -5.266779   -154.362908
 0.450000   -6.055570   -159.808852
 0.455000   -6.864867   -162.341913
 0.460000   -7.678989   -161.635427
 0.465000   -8.481221   -157.340564
 0.470000   -9.252395   -148.600385
 0.475000   -9.967225   -136.131927
 0.480000   -10.613714   -121.920520
 0.485000   -11.186431   -106.788388
 0.490000   -11.681598   -91.416771
 0.495000   -12.100598   -76.394212
 0.500000   -12.445540   -62.643610
 0.505000   -12.727034   -51.557620
 0.510000   -12.961116   -43.168999
 0.515000   -13.158724   -36.964755
 0.520000   -13.330764   -32.515495
 0.525000   -13.483879   -29.260944
 0.530000   -13.623373   -26.903841
 0.535000   -13.752918   -24.860128
 0.540000   -13.871975   -22.703535
 0.545000   -13.979953   -20.503485
 0.550000   -14.077010   -18.386553
 0.555000   -14.163819   -16.195051
 0.560000   -14.238960   -13.773875
 0.565000   -14.301557   -11.285641
 0.570000   -14.351816   -8.775731
 0.575000   -14.389315   -6.128501
 0.580000   -14.413102   -3.411996
 0.585000   -14.423435   -0.850954
 0.590000   -14.421611   1.656508
 0.595000   -14.406869   4.150981
 0.600000   -14.380101   6.409968
 0.605000   -14.342770   8.436895
 0.610000   -14.295732   10.318291
 0.615000   -14.239587   12.012020
 0.620000   -14.175612   13.444217
 0.625000   -14.105145   14.747348
 0.630000   -14.028139   15.991369
 0.635000   -13.945231   17.128128
 0.640000   -13.856857   18.171192
 0.645000   -13.763519   19.163875
 0.650000   -13.665219   20.134207
 0.655000   -13.562177   21.003290
 0.660000   -13.455186   21.759807
 0.665000   -13.344579   22.454576
 0.670000   -13.230640   23.112000
 0.675000   -13.113459   23.903130
 0.680000   -12.991609   25.022679
 0.685000   -12.863232   26.501948
 0.690000   -12.726589   28.298590
 0.695000   -12.580246   30.316553
 0.700000   -12.423424   32.567191
 0.705000   -12.254574   34.860898
 0.710000   -12.074815   36.639756
 0.715000   -11.888177   37.672247
 0.720000   -11.698092   37.930444
 0.725000   -11.508872   37.313298
 0.730000   -11.324959   35.726055
 0.735000   -11.151612   33.110090
 0.740000   -10.993858   29.668289
 0.745000   -10.854929   25.726204
 0.750000   -10.736596   21.562140
 0.755000   -10.639308   17.411555
 0.760000   -10.562481   13.450417
 0.765000   -10.504803   9.967858
 0.770000   -10.462802   7.047094
 0.775000   -10.434332   4.409810
 0.780000   -10.418704   1.745698
 0.785000   -10.416875   -1.286141
 0.790000   -10.431565   -5.122175
 0.795000   -10.468097   -10.018614
 0.800000   -10.531752   -15.922557
 0.805000   -10.627323   -22.698335
 0.810000   -10.758735   -30.004661
 0.815000   -10.927369   -37.389647
 0.820000   -11.132631   -44.504234
 0.825000   -11.372412   -50.619807
 0.830000   -11.638829   -55.082146
 0.835000   -11.923233   -57.710949
 0.840000   -12.215939   -58.413573
 0.845000   -12.507369   -57.093714
 0.850000   -12.786876   -53.672803
 0.855000   -13.044097   -48.858814
 0.860000   -13.275464   -43.531922
 0.865000   -13.479416   -37.884837
 0.870000   -13.654313   -32.126253
 0.875000   -13.800679   -26.524957
 0.880000   -13.919562   -21.392904
 0.885000   -14.014608   -16.484936
 0.890000   -14.084412   -11.426547
 0.895000   -14.128873   -6.390232
 0.900000   -14.148314   -1.475539
 0.905000   -14.143629   3.803195
 0.910000   -14.110282   10.090043
 0.915000   -14.042728   17.832901
 0.920000   -13.931953   27.750117
 0.925000   -13.765227   40.488269
 0.930000   -13.527070   56.812175
 0.935000   -13.197105   81.452333
 0.940000   -12.712547   115.979710
 0.945000   -12.037308   151.705416
 0.950000   -11.195493   178.786430
 0.955000   -10.249444   182.675862
 0.960000   -9.368734   134.934119
 0.965000   -8.900103   6.835065
 0.970000   -9.300383   -188.295011
 0.975000   -10.783053   -336.362209
 0.980000   -12.664006   -213.185447
 0.985000   -12.914907   383.966864
 0.990000   -8.824337   1376.971359
 0.995000   0.854806   2249.801954
 1.000000   13.673683   2877.748563
201 psinorm omghb() domghb/dpsiN
 0.000000   -0.000124   -0.006178
 0.005000   -0.000288   -0.059662
 0.010000   -0.000720   -0.046586
 0.015000   -0.000754   0.002506
 0.020000   -0.000695   0.016731
 0.025000   -0.000587   0.026183
 0.030000   -0.000433   0.043375
 0.035000   -0.000153   0.059603
 0.040000   0.000163   0.074468
 0.045000   0.000592   0.084893
 0.050000   0.001012   0.084675
 0.055000   0.001438   0.085656
 0.060000   0.001868   0.083970
 0.065000   0.002278   0.086229
 0.070000   0.002730   0.118972
 0.075000   0.003468   0.146061
 0.080000   0.004191   0.150274
 0.085000   0.004971   0.164216
 0.090000   0.005833   0.181554
 0.095000   0.006786   0.185049
 0.100000   0.007684   0.177423
 0.105000   0.008560   0.141587
 0.110000   0.009100   0.105876
 0.115000   0.009619   0.081446
 0.120000   0.009914   0.065576
 0.125000   0.010275   0.050448
 0.130000   0.010419   0.010724
 0.135000   0.010382   -0.010222
 0.140000   0.010316   0.023128
 0.145000   0.010613   0.056236
 0.150000   0.010879   0.078187
 0.155000   0.011395   0.102731
 0.160000   0.011906   0.116928
 0.165000   0.012564   0.157661
 0.170000   0.013483   0.182668
 0.175000   0.014391   0.205340
 0.180000   0.015536   0.204063
 0.185000   0.016432   0.192033
 0.190000   0.017456   0.223781
 0.195000   0.018670   0.309044
 0.200000   0.020547   0.349105
 0.205000   0.022161   0.291566
 0.210000   0.023462   0.291144
 0.215000   0.025072   0.322073
 0.220000   0.026683   0.368992
 0.225000   0.028762   0.380714
 0.230000   0.030490   0.325827
 0.235000   0.032020   0.307884
 0.240000   0.033569   0.296524
 0.245000   0.034986   0.254950
 0.250000   0.036119   0.261661
 0.255000   0.037602   0.167576
 0.260000   0.037794   0.108600
 0.265000   0.038688   0.199936
 0.270000   0.039794   0.223910
 0.275000   0.040927   0.257935
 0.280000   0.042373   0.297354
 0.285000   0.043901   0.304644
 0.290000   0.045420   0.349708
 0.295000   0.047398   0.459739
 0.300000   0.050017   0.560707
 0.305000   0.053005   0.684879
 0.310000   0.056866   0.810553
 0.315000   0.061110   0.955464
 0.320000   0.066420   0.982101
 0.325000   0.070931   0.865850
 0.330000   0.075079   0.741338
 0.335000   0.078345   0.537957
 0.340000   0.080458   0.496624
 0.345000   0.083311   0.320233
 0.350000   0.083661   0.068181
 0.355000   0.083993   0.066325
 0.360000   0.084324   0.038599
 0.365000   0.084379   0.046125
 0.370000   0.084785   0.161800
 0.375000   0.085997   0.057490
 0.380000   0.085360   -0.010720
 0.385000   0.085890   0.167319
 0.390000   0.087033   0.227861
 0.395000   0.088168   0.235831
 0.400000   0.089392   0.194025
 0.405000   0.090109   0.447066
 0.410000   0.093862   1.017977
 0.415000   0.100288   1.461706
 0.420000   0.108479   2.020326
 0.425000   0.120492   2.557143
 0.430000   0.134051   2.632263
 0.435000   0.146814   2.672476
 0.440000   0.160776   2.766312
 0.445000   0.174477   2.548242
 0.450000   0.186258   2.293239
 0.455000   0.197410   1.719543
 0.460000   0.203453   0.863690
 0.465000   0.206047   0.222443
 0.470000   0.205678   -0.418991
 0.475000   0.201857   -1.061261
 0.480000   0.195065   -1.730688
 0.485000   0.184550   -2.160371
 0.490000   0.173462   -2.215512
 0.495000   0.162395   -2.138005
 0.500000   0.152081   -1.975113
 0.505000   0.142644   -1.747182
 0.510000   0.134610   -1.457259
 0.515000   0.128071   -1.080553
 0.520000   0.123804   -0.800677
 0.525000   0.120064   -0.723568
 0.530000   0.116568   -0.658799
 0.535000   0.113476   -0.663315
 0.540000   0.109935   -0.727302
 0.545000   0.106203   -0.724755
 0.550000   0.102688   -0.706826
 0.555000   0.099135   -0.723588
 0.560000   0.095452   -0.682749
 0.565000   0.092307   -0.607989
 0.570000   0.089372   -0.601954
 0.575000   0.086288   -0.578669
 0.580000   0.083585   -0.489492
 0.585000   0.081393   -0.400949
 0.590000   0.079576   -0.328872
 0.595000   0.078104   -0.261746
 0.600000   0.076958   -0.179662
 0.605000   0.076308   -0.117934
 0.610000   0.075779   -0.083316
 0.615000   0.075474   0.041698
 0.620000   0.076196   0.062336
 0.625000   0.076098   0.026419
 0.630000   0.076460   0.088496
 0.635000   0.076983   0.120550
 0.640000   0.077666   0.147721
 0.645000   0.078460   0.237480
 0.650000   0.080040   0.229303
 0.655000   0.080753   0.220806
 0.660000   0.082249   0.373968
 0.665000   0.084493   0.567504
 0.670000   0.087924   0.830583
 0.675000   0.092799   1.445651
 0.680000   0.102380   1.618492
 0.685000   0.108983   1.092487
 0.690000   0.113305   0.873668
 0.695000   0.117720   0.780981
 0.700000   0.121115   0.587167
 0.705000   0.123592   0.817444
 0.710000   0.129289   0.353300
 0.715000   0.127125   -0.627527
 0.720000   0.123014   -0.655241
 0.725000   0.120572   -0.617049
 0.730000   0.116843   -0.849403
 0.735000   0.112078   -1.099982
 0.740000   0.105844   -1.599680
 0.745000   0.096082   -1.668628
 0.750000   0.089157   -1.264801
 0.755000   0.083434   -0.960379
 0.760000   0.079554   -0.568416
 0.765000   0.077749   -0.444686
 0.770000   0.075107   -0.076233
 0.775000   0.076987   1.125677
 0.780000   0.086363   1.645228
 0.785000   0.093439   1.590446
 0.790000   0.102268   1.784716
 0.795000   0.111286   1.813526
 0.800000   0.120403   2.195726
 0.805000   0.133244   2.615828
 0.810000   0.146561   2.203695
 0.815000   0.155281   1.627889
 0.820000   0.162840   1.294503
 0.825000   0.168226   0.903201
 0.830000   0.171872   0.580611
 0.835000   0.174032   -0.040368
 0.840000   0.171469   -0.430590
 0.845000   0.169726   -0.302891
 0.850000   0.168440   -0.165704
 0.855000   0.168069   0.143953
 0.860000   0.169879   0.973958
 0.865000   0.177808   1.296411
 0.870000   0.182843   1.943059
 0.875000   0.197239   3.725606
 0.880000   0.220099   5.390564
 0.885000   0.251145   7.052818
 0.890000   0.290628   9.787263
 0.895000   0.349017   11.401967
 0.900000   0.404647   12.317685
 0.905000   0.472194   13.969514
 0.910000   0.544342   14.434454
 0.915000   0.616539   14.128758
 0.920000   0.685630   15.993934
 0.925000   0.776478   13.919611
 0.930000   0.824826   10.690531
 0.935000   0.883383   11.071857
 0.940000   0.935545   11.514453
 0.945000   0.998528   12.376180
 0.950000   1.059306   17.845625
 0.955000   1.176984   12.310206
 0.960000   1.182409   1.141815
 0.965000   1.188402   -3.972610
 0.970000   1.142682   -26.321627
 0.975000   0.925186   -81.839531
 0.980000   0.324287   -179.249139
 0.985000   -0.867305   -283.900415
 0.990000   -2.514717   -295.744704
 0.995000   -3.824752   -142.465529
 1.000000   -3.939372   96.617579
201 psinorm nz1(10^20/m^3) dnz1/dpsiN
 0.000000   0.018185   0.000000
 0.005000   0.018185   -0.000191
 0.010000   0.018183   -0.000384
 0.015000   0.018181   -0.000579
 0.020000   0.018177   -0.000775
 0.025000   0.018173   -0.000972
 0.030000   0.018168   -0.001170
 0.035000   0.018161   -0.001369
 0.040000   0.018154   -0.001567
 0.045000   0.018146   -0.001764
 0.050000   0.018136   -0.001960
 0.055000   0.018126   -0.002154
 0.060000   0.018115   -0.002347
 0.065000   0.018103   -0.002538
 0.070000   0.018089   -0.002726
 0.075000   0.018075   -0.002912
 0.080000   0.018060   -0.003096
 0.085000   0.018044   -0.003277
 0.090000   0.018028   -0.003456
 0.095000   0.018010   -0.003632
 0.100000   0.017991   -0.003806
 0.105000   0.017972   -0.003977
 0.110000   0.017951   -0.004144
 0.115000   0.017930   -0.004308
 0.120000   0.017908   -0.004467
 0.125000   0.017886   -0.004622
 0.130000   0.017862   -0.004771
 0.135000   0.017838   -0.004915
 0.140000   0.017813   -0.005051
 0.145000   0.017787   -0.005180
 0.150000   0.017761   -0.005301
 0.155000   0.017734   -0.005414
 0.160000   0.017707   -0.005517
 0.165000   0.017679   -0.005611
 0.170000   0.017651   -0.005695
 0.175000   0.017622   -0.005769
 0.180000   0.017593   -0.005833
 0.185000   0.017564   -0.005885
 0.190000   0.017534   -0.005926
 0.195000   0.017505   -0.005955
 0.200000   0.017475   -0.005973
 0.205000   0.017445   -0.005983
 0.210000   0.017415   -0.005984
 0.215000   0.017385   -0.005978
 0.220000   0.017355   -0.005968
 0.225000   0.017325   -0.005957
 0.230000   0.017296   -0.005943
 0.235000   0.017266   -0.005922
 0.240000   0.017237   -0.005892
 0.245000   0.017207   -0.005853
 0.250000   0.017178   -0.005805
 0.255000   0.017149   -0.005746
 0.260000   0.017121   -0.005671
 0.265000   0.017092   -0.005577
 0.270000   0.017065   -0.005466
 0.275000   0.017038   -0.005338
 0.280000   0.017011   -0.005192
 0.285000   0.016986   -0.005027
 0.290000   0.016961   -0.004844
 0.295000   0.016937   -0.004643
 0.300000   0.016915   -0.004427
 0.305000   0.016893   -0.004195
 0.310000   0.016873   -0.003951
 0.315000   0.016854   -0.003693
 0.320000   0.016836   -0.003428
 0.325000   0.016819   -0.003160
 0.330000   0.016804   -0.002889
 0.335000   0.016790   -0.002616
 0.340000   0.016778   -0.002340
 0.345000   0.016767   -0.002062
 0.350000   0.016757   -0.001777
 0.355000   0.016749   -0.001484
 0.360000   0.016743   -0.001180
 0.365000   0.016737   -0.000866
 0.370000   0.016734   -0.000543
 0.375000   0.016732   -0.000213
 0.380000   0.016732   0.000120
 0.385000   0.016733   0.000454
 0.390000   0.016736   0.000785
 0.395000   0.016741   0.001109
 0.400000   0.016747   0.001421
 0.405000   0.016755   0.001719
 0.410000   0.016765   0.001997
 0.415000   0.016775   0.002257
 0.420000   0.016787   0.002495
 0.425000   0.016800   0.002710
 0.430000   0.016814   0.002902
 0.435000   0.016829   0.003071
 0.440000   0.016845   0.003221
 0.445000   0.016861   0.003359
 0.450000   0.016879   0.003487
 0.455000   0.016896   0.003602
 0.460000   0.016915   0.003706
 0.465000   0.016933   0.003798
 0.470000   0.016953   0.003874
 0.475000   0.016972   0.003925
 0.480000   0.016992   0.003946
 0.485000   0.017012   0.003935
 0.490000   0.017031   0.003890
 0.495000   0.017050   0.003808
 0.500000   0.017069   0.003685
 0.505000   0.017087   0.003522
 0.510000   0.017104   0.003318
 0.515000   0.017120   0.003076
 0.520000   0.017135   0.002797
 0.525000   0.017148   0.002482
 0.530000   0.017160   0.002135
 0.535000   0.017170   0.001760
 0.540000   0.017178   0.001360
 0.545000   0.017183   0.000938
 0.550000   0.017187   0.000493
 0.555000   0.017188   0.000027
 0.560000   0.017187   -0.000459
 0.565000   0.017184   -0.000966
 0.570000   0.017178   -0.001496
 0.575000   0.017169   -0.002049
 0.580000   0.017157   -0.002624
 0.585000   0.017143   -0.003221
 0.590000   0.017125   -0.003836
 0.595000   0.017104   -0.004467
 0.600000   0.017080   -0.005111
 0.605000   0.017053   -0.005766
 0.610000   0.017023   -0.006428
 0.615000   0.016989   -0.007098
 0.620000   0.016952   -0.007772
 0.625000   0.016911   -0.008452
 0.630000   0.016867   -0.009135
 0.635000   0.016820   -0.009819
 0.640000   0.016769   -0.010503
 0.645000   0.016715   -0.011185
 0.650000   0.016657   -0.011865
 0.655000   0.016596   -0.012538
 0.660000   0.016532   -0.013200
 0.665000   0.016464   -0.013858
 0.670000   0.016393   -0.014539
 0.675000   0.016319   -0.015295
 0.680000   0.016240   -0.016261
 0.685000   0.016156   -0.017512
 0.690000   0.016065   -0.018985
 0.695000   0.015966   -0.020648
 0.700000   0.015859   -0.022491
 0.705000   0.015741   -0.024472
 0.710000   0.015614   -0.026646
 0.715000   0.015475   -0.028889
 0.720000   0.015325   -0.030941
 0.725000   0.015165   -0.032752
 0.730000   0.014997   -0.034293
 0.735000   0.014822   -0.035475
 0.740000   0.014643   -0.036230
 0.745000   0.014460   -0.036428
 0.750000   0.014278   -0.036019
 0.755000   0.014100   -0.035093
 0.760000   0.013927   -0.033724
 0.765000   0.013763   -0.031986
 0.770000   0.013608   -0.029904
 0.775000   0.013464   -0.027573
 0.780000   0.013332   -0.025275
 0.785000   0.013211   -0.023136
 0.790000   0.013101   -0.021134
 0.795000   0.013000   -0.019305
 0.800000   0.012907   -0.017660
 0.805000   0.012823   -0.016234
 0.810000   0.012745   -0.015065
 0.815000   0.012672   -0.014068
 0.820000   0.012604   -0.013133
 0.825000   0.012541   -0.012225
 0.830000   0.012482   -0.011328
 0.835000   0.012428   -0.010445
 0.840000   0.012378   -0.009583
 0.845000   0.012332   -0.008748
 0.850000   0.012290   -0.007942
 0.855000   0.012253   -0.007172
 0.860000   0.012219   -0.006445
 0.865000   0.012188   -0.005780
 0.870000   0.012161   -0.005192
 0.875000   0.012136   -0.004678
 0.880000   0.012114   -0.004233
 0.885000   0.012094   -0.003863
 0.890000   0.012075   -0.003581
 0.895000   0.012058   -0.003438
 0.900000   0.012041   -0.003465
 0.905000   0.012023   -0.003701
 0.910000   0.012004   -0.004276
 0.915000   0.011981   -0.005390
 0.920000   0.011950   -0.007376
 0.925000   0.011907   -0.010971
 0.930000   0.011840   -0.017008
 0.935000   0.011737   -0.026532
 0.940000   0.011575   -0.041087
 0.945000   0.011326   -0.062126
 0.950000   0.010954   -0.090427
 0.955000   0.010422   -0.126463
 0.960000   0.009689   -0.166103
 0.965000   0.008761   -0.201043
 0.970000   0.007679   -0.223702
 0.975000   0.006524   -0.228369
 0.980000   0.005395   -0.214265
 0.985000   0.004381   -0.186244
 0.990000   0.003533   -0.151594
 0.995000   0.002865   -0.117445
 1.000000   0.002358   -0.085308
201 psinorm vtor1(km/s) dvtor1/dpsiN
 0.000000   121.466339   597.402140
 0.005000   123.783857   329.605031
 0.010000   124.762389   172.215313
 0.015000   125.506010   135.865147
 0.020000   126.121041   114.665488
 0.025000   126.652665   100.816055
 0.030000   127.129201   90.937625
 0.035000   127.562041   82.464778
 0.040000   127.953849   75.221244
 0.045000   128.314254   69.352325
 0.050000   128.647373   64.053182
 0.055000   128.954786   59.033765
 0.060000   129.237710   54.517131
 0.065000   129.499957   50.465081
 0.070000   129.742361   46.562534
 0.075000   129.965582   42.895526
 0.080000   130.171316   39.506542
 0.085000   130.360648   36.281218
 0.090000   130.534128   33.108812
 0.095000   130.691736   30.072649
 0.100000   130.834855   27.223701
 0.105000   130.963973   24.409058
 0.110000   131.078945   21.595267
 0.115000   131.179925   18.832047
 0.120000   131.267266   16.120280
 0.125000   131.341128   13.272911
 0.130000   131.399995   10.373161
 0.135000   131.444860   7.534234
 0.140000   131.475337   4.570480
 0.145000   131.490565   1.481504
 0.150000   131.490152   -1.642577
 0.155000   131.474139   -4.804941
 0.160000   131.442103   -8.093746
 0.165000   131.393201   -11.451320
 0.170000   131.327590   -14.786828
 0.175000   131.245333   -18.122594
 0.180000   131.146364   -21.477940
 0.185000   131.030554   -24.806510
 0.190000   130.898299   -28.065758
 0.195000   130.749896   -31.235450
 0.200000   130.585944   -34.242626
 0.205000   130.407470   -37.034361
 0.210000   130.215601   -39.602767
 0.215000   130.011442   -41.956842
 0.220000   129.796032   -44.011058
 0.225000   129.571332   -45.656930
 0.230000   129.339463   -47.089904
 0.235000   129.100433   -48.417584
 0.240000   128.855287   -49.530337
 0.245000   128.605129   -50.433320
 0.250000   128.350954   -51.124590
 0.255000   128.093883   -51.509940
 0.260000   127.835855   -51.863044
 0.265000   127.575253   -52.419419
 0.270000   127.311660   -53.085886
 0.275000   127.044394   -53.905045
 0.280000   126.772610   -54.932958
 0.285000   126.495064   -56.314454
 0.290000   126.209465   -58.063963
 0.295000   125.914425   -59.996833
 0.300000   125.609497   -61.970238
 0.305000   125.294722   -63.908437
 0.310000   124.970413   -65.748921
 0.315000   124.637233   -67.470874
 0.320000   124.295704   -69.023131
 0.325000   123.947002   -70.351839
 0.330000   123.592186   -71.471508
 0.335000   123.232287   -72.388158
 0.340000   122.868304   -73.110898
 0.345000   122.501178   -73.552784
 0.350000   122.132776   -73.736210
 0.355000   121.763816   -73.774015
 0.360000   121.395036   -73.659300
 0.365000   121.027223   -73.396260
 0.370000   120.661073   -72.993086
 0.375000   120.297292   -72.343272
 0.380000   119.937641   -71.496903
 0.385000   119.582323   -70.607799
 0.390000   119.231563   -69.651534
 0.395000   118.885808   -68.622070
 0.400000   118.545342   -67.554745
 0.405000   118.210260   -66.421672
 0.410000   117.881125   -65.477795
 0.415000   117.555482   -65.221888
 0.420000   117.228906   -65.952479
 0.425000   116.895957   -67.824138
 0.430000   116.550665   -70.895508
 0.435000   116.187002   -75.537125
 0.440000   115.795294   -81.675002
 0.445000   115.370252   -88.365904
 0.450000   114.911635   -95.286687
 0.455000   114.417385   -102.529024
 0.460000   113.886344   -109.896981
 0.465000   113.318416   -117.581732
 0.470000   112.710527   -125.310454
 0.475000   112.065311   -131.869699
 0.480000   111.391830   -137.022895
 0.485000   110.695082   -141.107253
 0.490000   109.980758   -143.989478
 0.495000   109.255187   -145.617443
 0.500000   108.524583   -145.820396
 0.505000   107.796983   -144.572485
 0.510000   107.078858   -142.359263
 0.515000   106.373391   -139.589482
 0.520000   105.682963   -136.388299
 0.525000   105.009508   -132.792632
 0.530000   104.355037   -128.768740
 0.535000   103.721820   -124.587518
 0.540000   103.109162   -120.483603
 0.545000   102.516984   -116.442287
 0.550000   101.944739   -112.543030
 0.555000   101.391554   -108.823579
 0.560000   100.856503   -105.247989
 0.565000   100.339074   -102.112047
 0.570000   99.835383   -99.594259
 0.575000   99.343132   -97.555128
 0.580000   98.859832   -96.019067
 0.585000   98.382941   -95.011818
 0.590000   97.909713   -94.568175
 0.595000   97.437259   -94.596069
 0.600000   96.963753   -94.935175
 0.605000   96.487907   -95.524297
 0.610000   96.008510   -96.355802
 0.615000   95.524349   -97.436287
 0.620000   95.034147   -98.749154
 0.625000   94.536858   -100.311364
 0.630000   94.031033   -102.156351
 0.635000   93.515294   -104.270506
 0.640000   92.988328   -106.652696
 0.645000   92.448767   -109.302869
 0.650000   91.895299   -112.209616
 0.655000   91.326671   -115.452804
 0.660000   90.740771   -119.113229
 0.665000   90.135539   -123.188350
 0.670000   89.508888   -127.682670
 0.675000   88.858712   -132.584245
 0.680000   88.183045   -137.899042
 0.685000   87.479722   -143.187663
 0.690000   86.751169   -147.910575
 0.695000   86.000616   -152.052143
 0.700000   85.230647   -155.699754
 0.705000   84.443618   -158.921091
 0.710000   83.641437   -161.663671
 0.715000   82.826982   -163.969372
 0.720000   82.001743   -166.019181
 0.725000   81.166790   -167.803165
 0.730000   80.323711   -169.281457
 0.735000   79.473975   -170.475448
 0.740000   78.618957   -171.357164
 0.745000   77.760404   -172.049171
 0.750000   76.898465   -172.859184
 0.755000   76.031812   -174.061323
 0.760000   75.157852   -175.899778
 0.765000   74.272814   -178.534594
 0.770000   73.372506   -182.240143
 0.775000   72.450413   -186.743472
 0.780000   71.505071   -190.584597
 0.785000   70.544567   -193.024076
 0.790000   69.574830   -194.188737
 0.795000   68.602679   -193.959772
 0.800000   67.635233   -192.453163
 0.805000   66.678148   -190.075346
 0.810000   65.734479   -186.959221
 0.815000   64.808555   -183.235924
 0.820000   63.902120   -179.156510
 0.825000   63.016990   -174.714911
 0.830000   62.154971   -170.075615
 0.835000   61.316234   -165.594067
 0.840000   60.499030   -161.083574
 0.845000   59.705399   -157.026532
 0.850000   58.928765   -154.657170
 0.855000   58.158827   -154.747115
 0.860000   57.381294   -158.281638
 0.865000   56.576010   -167.186431
 0.870000   55.709429   -181.842089
 0.875000   54.757590   -202.879595
 0.880000   53.680633   -232.688597
 0.885000   52.430704   -272.652274
 0.890000   50.954111   -323.547952
 0.895000   49.195224   -386.376742
 0.900000   47.090343   -457.646378
 0.905000   44.618760   -532.193666
 0.910000   41.768407   -606.192334
 0.915000   38.556837   -673.334096
 0.920000   35.035066   -726.985184
 0.925000   31.286985   -760.524784
 0.930000   27.429818   -768.622175
 0.935000   23.600763   -749.502304
 0.940000   19.934795   -704.693760
 0.945000   16.553826   -638.201634
 0.950000   13.552778   -556.311286
 0.955000   10.990713   -464.735315
 0.960000   8.905425   -372.687244
 0.965000   7.263840   -288.693764
 0.970000   6.018488   -215.145621
 0.975000   5.112384   -153.426546
 0.980000   4.484222   -103.753854
 0.985000   4.074846   -65.131616
 0.990000   3.832906   -36.493189
 0.995000   3.709914   -16.431261
 1.000000   3.668593   -0.096908
201 psinorm vpol1(km/s) dvpol1/dpsiN
 0.000000   -0.000074   7.007813
 0.005000   0.037090   7.857813
 0.010000   0.078504   8.702734
 0.015000   0.124117   9.516016
 0.020000   0.173664   10.263672
 0.025000   0.226754   10.911328
 0.030000   0.282777   11.432812
 0.035000   0.341082   11.845703
 0.040000   0.401234   12.180078
 0.045000   0.462883   12.442578
 0.050000   0.525660   12.647266
 0.055000   0.589355   12.811328
 0.060000   0.653773   12.934375
 0.065000   0.718699   13.024219
 0.070000   0.784016   13.057422
 0.075000   0.849273   13.022266
 0.080000   0.914238   12.923437
 0.085000   0.978508   12.729687
 0.090000   1.041535   12.451953
 0.095000   1.103027   12.179297
 0.100000   1.163328   11.964453
 0.105000   1.222672   11.812891
 0.110000   1.281457   11.755859
 0.115000   1.340230   11.822656
 0.120000   1.399684   11.996094
 0.125000   1.460191   12.202734
 0.130000   1.521711   12.410156
 0.135000   1.584293   12.594922
 0.140000   1.647660   12.717578
 0.145000   1.711469   12.753906
 0.150000   1.775199   12.637109
 0.155000   1.837840   12.361328
 0.160000   1.898813   11.961328
 0.165000   1.957453   11.446484
 0.170000   2.013277   10.833984
 0.175000   2.065793   10.110156
 0.180000   2.114379   9.328906
 0.185000   2.159082   8.549609
 0.190000   2.199875   7.782031
 0.195000   2.236902   7.045703
 0.200000   2.270332   6.340625
 0.205000   2.300309   5.696094
 0.210000   2.327293   5.135156
 0.215000   2.351660   4.612109
 0.220000   2.373414   4.069141
 0.225000   2.392352   3.477344
 0.230000   2.408187   2.823047
 0.235000   2.420582   2.096484
 0.240000   2.429152   1.288281
 0.245000   2.433465   0.392578
 0.250000   2.433078   -0.570703
 0.255000   2.427758   -1.574219
 0.260000   2.417336   -2.619141
 0.265000   2.401566   -3.689453
 0.270000   2.380441   -4.783594
 0.275000   2.353730   -5.926953
 0.280000   2.321172   -7.118359
 0.285000   2.282547   -8.358203
 0.290000   2.237590   -9.640625
 0.295000   2.186141   -10.968359
 0.300000   2.127906   -12.337891
 0.305000   2.062762   -13.730469
 0.310000   1.990602   -15.145703
 0.315000   1.911305   -16.579687
 0.320000   1.824805   -18.002734
 0.325000   1.731277   -19.331250
 0.330000   1.631492   -20.457812
 0.335000   1.526699   -21.331250
 0.340000   1.418180   -21.955078
 0.345000   1.307148   -22.334375
 0.350000   1.194836   -22.441797
 0.355000   1.082730   -22.467188
 0.360000   0.970164   -22.620703
 0.365000   0.856523   -22.896875
 0.370000   0.741195   -23.333984
 0.375000   0.623184   -23.982422
 0.380000   0.501371   -24.940234
 0.385000   0.373781   -26.099609
 0.390000   0.240375   -27.208984
 0.395000   0.101691   -28.218359
 0.400000   -0.041809   -29.167187
 0.405000   -0.189980   -30.190625
 0.410000   -0.343715   -31.779297
 0.415000   -0.507773   -34.076172
 0.420000   -0.684477   -36.839453
 0.425000   -0.876168   -40.017969
 0.430000   -1.084656   -43.480469
 0.435000   -1.310973   -47.128516
 0.440000   -1.555941   -50.906641
 0.445000   -1.820039   -54.071875
 0.450000   -2.096660   -56.127734
 0.455000   -2.381316   -57.202344
 0.460000   -2.668684   -57.142188
 0.465000   -2.952738   -55.789062
 0.470000   -3.226574   -52.886719
 0.475000   -3.481605   -48.696094
 0.480000   -3.713535   -43.806641
 0.485000   -3.919672   -38.562891
 0.490000   -4.099164   -33.271094
 0.495000   -4.252383   -28.039453
 0.500000   -4.379559   -23.200391
 0.505000   -4.484387   -19.317187
 0.510000   -4.572730   -16.392188
 0.515000   -4.648309   -14.167969
 0.520000   -4.714410   -12.562891
 0.525000   -4.773937   -11.433984
 0.530000   -4.828750   -10.578516
 0.535000   -4.879723   -9.808203
 0.540000   -4.926832   -9.035547
 0.545000   -4.970078   -8.258594
 0.550000   -5.009418   -7.460156
 0.555000   -5.044680   -6.641016
 0.560000   -5.075828   -5.785937
 0.565000   -5.102539   -4.873437
 0.570000   -5.124562   -3.932422
 0.575000   -5.141863   -2.971094
 0.580000   -5.154273   -1.997656
 0.585000   -5.161840   -1.040234
 0.590000   -5.164676   -0.103516
 0.595000   -5.162875   0.792578
 0.600000   -5.156750   1.623047
 0.605000   -5.146645   2.387109
 0.610000   -5.132879   3.082812
 0.615000   -5.115816   3.696875
 0.620000   -5.095910   4.241016
 0.625000   -5.073406   4.740625
 0.630000   -5.048504   5.196484
 0.635000   -5.021441   5.619141
 0.640000   -4.992312   6.019922
 0.645000   -4.961242   6.396875
 0.650000   -4.928344   6.754687
 0.655000   -4.893695   7.085156
 0.660000   -4.857492   7.378516
 0.665000   -4.819910   7.641016
 0.670000   -4.781082   7.887891
 0.675000   -4.741031   8.190234
 0.680000   -4.699180   8.610937
 0.685000   -4.654922   9.155469
 0.690000   -4.607625   9.817578
 0.695000   -4.556746   10.563281
 0.700000   -4.501992   11.392188
 0.705000   -4.442824   12.235156
 0.710000   -4.379641   12.894531
 0.715000   -4.313879   13.284375
 0.720000   -4.246797   13.391406
 0.725000   -4.179965   13.180078
 0.730000   -4.114996   12.617578
 0.735000   -4.053789   11.680078
 0.740000   -3.998195   10.439062
 0.745000   -3.949398   9.015234
 0.750000   -3.908043   7.510156
 0.755000   -3.874297   6.007031
 0.760000   -3.847973   4.569531
 0.765000   -3.828602   3.307422
 0.770000   -3.814898   2.250000
 0.775000   -3.806102   1.291797
 0.780000   -3.801980   0.321094
 0.785000   -3.802891   -0.777734
 0.790000   -3.809758   -2.171094
 0.795000   -3.824602   -3.960938
 0.800000   -3.849367   -6.119531
 0.805000   -3.885797   -8.587891
 0.810000   -3.935246   -11.255078
 0.815000   -3.998348   -13.965234
 0.820000   -4.074898   -16.570312
 0.825000   -4.164051   -18.797852
 0.830000   -4.262877   -20.429883
 0.835000   -4.368350   -21.404883
 0.840000   -4.476926   -21.653125
 0.845000   -4.584881   -21.144727
 0.850000   -4.688373   -19.885547
 0.855000   -4.783736   -18.128320
 0.860000   -4.869656   -16.139844
 0.865000   -4.945135   -14.021094
 0.870000   -5.009867   -11.900977
 0.875000   -5.064145   -9.848047
 0.880000   -5.108348   -7.896875
 0.885000   -5.143113   -6.025586
 0.890000   -5.168604   -4.167969
 0.895000   -5.184793   -2.305664
 0.900000   -5.191660   -0.412109
 0.905000   -5.188914   1.600391
 0.910000   -5.175656   3.905469
 0.915000   -5.149859   6.725586
 0.920000   -5.108400   10.304297
 0.925000   -5.046816   14.934375
 0.930000   -4.959057   20.915820
 0.935000   -4.837658   29.187500
 0.940000   -4.667182   40.355273
 0.945000   -4.434105   52.941992
 0.950000   -4.137762   63.349414
 0.955000   -3.800611   64.740039
 0.960000   -3.490361   46.646289
 0.965000   -3.334148   -1.280078
 0.970000   -3.503162   -74.942383
 0.975000   -4.083572   -130.714746
 0.980000   -4.810310   -83.017871
 0.985000   -4.913751   144.735449
 0.990000   -3.362955   524.005469
 0.995000   0.326304   858.015967
 1.000000   5.217205   1098.344385
3 N Z A of ION SPECIES
 6.000000   6.000000   12.010700
 1.000000   1.000000   2.000000
 1.000000   1.000000   2.000000
