201 psinorm ne(10^20/m^3) dne/dpsiN
 0.000000   0.768519   -0.253077
 0.005000   0.767254   -0.253196
 0.010000   0.765987   -0.253313
 0.015000   0.764721   -0.253429
 0.020000   0.763453   -0.253543
 0.025000   0.762185   -0.253655
 0.030000   0.760917   -0.253765
 0.035000   0.759648   -0.253873
 0.040000   0.758378   -0.253979
 0.045000   0.757108   -0.254083
 0.050000   0.755837   -0.254185
 0.055000   0.754566   -0.254285
 0.060000   0.753294   -0.254383
 0.065000   0.752022   -0.254479
 0.070000   0.750749   -0.254573
 0.075000   0.749476   -0.254666
 0.080000   0.748203   -0.254756
 0.085000   0.746929   -0.254845
 0.090000   0.745654   -0.254931
 0.095000   0.744379   -0.255016
 0.100000   0.743104   -0.255099
 0.105000   0.741828   -0.255179
 0.110000   0.740552   -0.255258
 0.115000   0.739276   -0.255335
 0.120000   0.737999   -0.255410
 0.125000   0.736722   -0.255483
 0.130000   0.735444   -0.255554
 0.135000   0.734166   -0.255624
 0.140000   0.732888   -0.255691
 0.145000   0.731609   -0.255757
 0.150000   0.730330   -0.255820
 0.155000   0.729051   -0.255882
 0.160000   0.727772   -0.255942
 0.165000   0.726492   -0.255999
 0.170000   0.725212   -0.256055
 0.175000   0.723931   -0.256110
 0.180000   0.722650   -0.256162
 0.185000   0.721370   -0.256212
 0.190000   0.720088   -0.256261
 0.195000   0.718807   -0.256307
 0.200000   0.717525   -0.256352
 0.205000   0.716243   -0.256395
 0.210000   0.714961   -0.256436
 0.215000   0.713679   -0.256475
 0.220000   0.712397   -0.256512
 0.225000   0.711114   -0.256547
 0.230000   0.709831   -0.256581
 0.235000   0.708548   -0.256613
 0.240000   0.707265   -0.256642
 0.245000   0.705982   -0.256670
 0.250000   0.704698   -0.256697
 0.255000   0.703415   -0.256721
 0.260000   0.702131   -0.256743
 0.265000   0.700847   -0.256764
 0.270000   0.699563   -0.256783
 0.275000   0.698279   -0.256800
 0.280000   0.696995   -0.256815
 0.285000   0.695711   -0.256828
 0.290000   0.694427   -0.256840
 0.295000   0.693143   -0.256849
 0.300000   0.691859   -0.256857
 0.305000   0.690574   -0.256863
 0.310000   0.689290   -0.256867
 0.315000   0.688006   -0.256870
 0.320000   0.686721   -0.256871
 0.325000   0.685437   -0.256869
 0.330000   0.684153   -0.256867
 0.335000   0.682868   -0.256862
 0.340000   0.681584   -0.256855
 0.345000   0.680300   -0.256847
 0.350000   0.679016   -0.256837
 0.355000   0.677731   -0.256825
 0.360000   0.676447   -0.256811
 0.365000   0.675163   -0.256796
 0.370000   0.673879   -0.256779
 0.375000   0.672596   -0.256760
 0.380000   0.671312   -0.256739
 0.385000   0.670028   -0.256717
 0.390000   0.668745   -0.256693
 0.395000   0.667461   -0.256667
 0.400000   0.666178   -0.256639
 0.405000   0.664895   -0.256610
 0.410000   0.663612   -0.256579
 0.415000   0.662329   -0.256546
 0.420000   0.661046   -0.256511
 0.425000   0.659764   -0.256475
 0.430000   0.658482   -0.256437
 0.435000   0.657200   -0.256397
 0.440000   0.655918   -0.256356
 0.445000   0.654636   -0.256312
 0.450000   0.653355   -0.256267
 0.455000   0.652073   -0.256221
 0.460000   0.650792   -0.256173
 0.465000   0.649512   -0.256123
 0.470000   0.648231   -0.256071
 0.475000   0.646951   -0.256018
 0.480000   0.645671   -0.255963
 0.485000   0.644391   -0.255906
 0.490000   0.643112   -0.255847
 0.495000   0.641833   -0.255787
 0.500000   0.640554   -0.255726
 0.505000   0.639276   -0.255662
 0.510000   0.637997   -0.255597
 0.515000   0.636720   -0.255530
 0.520000   0.635442   -0.255462
 0.525000   0.634165   -0.255392
 0.530000   0.632888   -0.255320
 0.535000   0.631612   -0.255247
 0.540000   0.630336   -0.255172
 0.545000   0.629060   -0.255096
 0.550000   0.627785   -0.255017
 0.555000   0.626510   -0.254938
 0.560000   0.625235   -0.254856
 0.565000   0.623961   -0.254773
 0.570000   0.622688   -0.254688
 0.575000   0.621414   -0.254602
 0.580000   0.620142   -0.254514
 0.585000   0.618869   -0.254425
 0.590000   0.617597   -0.254334
 0.595000   0.616326   -0.254241
 0.600000   0.615055   -0.254147
 0.605000   0.613784   -0.254051
 0.610000   0.612514   -0.253953
 0.615000   0.611245   -0.253854
 0.620000   0.609976   -0.253754
 0.625000   0.608707   -0.253651
 0.630000   0.607439   -0.253548
 0.635000   0.606172   -0.253442
 0.640000   0.604905   -0.253335
 0.645000   0.603639   -0.253226
 0.650000   0.602373   -0.253116
 0.655000   0.601107   -0.253003
 0.660000   0.599843   -0.252889
 0.665000   0.598578   -0.252773
 0.670000   0.597315   -0.252655
 0.675000   0.596052   -0.252535
 0.680000   0.594790   -0.252413
 0.685000   0.593528   -0.252287
 0.690000   0.592267   -0.252159
 0.695000   0.591006   -0.252028
 0.700000   0.589746   -0.251893
 0.705000   0.588487   -0.251753
 0.710000   0.587229   -0.251608
 0.715000   0.585971   -0.251456
 0.720000   0.584714   -0.251295
 0.725000   0.583458   -0.251124
 0.730000   0.582203   -0.250940
 0.735000   0.580949   -0.250739
 0.740000   0.579696   -0.250516
 0.745000   0.578444   -0.250267
 0.750000   0.577193   -0.249983
 0.755000   0.575944   -0.249654
 0.760000   0.574696   -0.249268
 0.765000   0.573451   -0.248808
 0.770000   0.572208   -0.248254
 0.775000   0.570969   -0.247577
 0.780000   0.569733   -0.246745
 0.785000   0.568501   -0.245711
 0.790000   0.567276   -0.244421
 0.795000   0.566057   -0.242802
 0.800000   0.564847   -0.240763
 0.805000   0.563649   -0.238189
 0.810000   0.562466   -0.234935
 0.815000   0.561300   -0.230819
 0.820000   0.560157   -0.225615
 0.825000   0.559044   -0.219040
 0.830000   0.557967   -0.210749
 0.835000   0.556936   -0.200316
 0.840000   0.555964   -0.187229
 0.845000   0.555064   -0.170876
 0.850000   0.554255   -0.150536
 0.855000   0.553559   -0.125383
 0.860000   0.553001   -0.094496
 0.865000   0.552614   -0.056896
 0.870000   0.552432   -0.011625
 0.875000   0.552498   0.042118
 0.880000   0.552853   0.104733
 0.885000   0.553545   0.175828
 0.890000   0.554612   0.253578
 0.895000   0.556081   0.333757
 0.900000   0.557949   0.408270
 0.905000   0.560163   0.463075
 0.910000   0.562580   0.475417
 0.915000   0.564917   0.410584
 0.920000   0.566686   0.219037
 0.925000   0.567108   -0.164000
 0.930000   0.565046   -0.812600
 0.935000   0.558982   -1.792454
 0.940000   0.547121   -3.127650
 0.945000   0.527705   -4.756970
 0.950000   0.499552   -6.501719
 0.955000   0.462688   -8.080484
 0.960000   0.418747   -9.191512
 0.965000   0.370773   -9.632807
 0.970000   0.322419   -9.384837
 0.975000   0.276925   -8.599340
 0.980000   0.236425   -7.511126
 0.985000   0.201813   -6.340572
 0.990000   0.173020   -5.238939
 0.995000   0.149424   -4.282144
 1.000000   0.130198   -3.408187
201 psinorm te(KeV) dte/dpsiN
 0.000000   3.405098   -1.017369
 0.005000   3.399927   -1.050925
 0.010000   3.394589   -1.084400
 0.015000   3.389083   -1.117709
 0.020000   3.383411   -1.150847
 0.025000   3.377575   -1.183811
 0.030000   3.371573   -1.216594
 0.035000   3.365409   -1.249192
 0.040000   3.359081   -1.281601
 0.045000   3.352593   -1.313815
 0.050000   3.345943   -1.345831
 0.055000   3.339134   -1.377643
 0.060000   3.332167   -1.409247
 0.065000   3.325042   -1.440639
 0.070000   3.317760   -1.471814
 0.075000   3.310324   -1.502768
 0.080000   3.302733   -1.533496
 0.085000   3.294989   -1.563995
 0.090000   3.287093   -1.594259
 0.095000   3.279046   -1.624286
 0.100000   3.270850   -1.654070
 0.105000   3.262506   -1.683608
 0.110000   3.254014   -1.712897
 0.115000   3.245377   -1.741931
 0.120000   3.236595   -1.770707
 0.125000   3.227669   -1.799222
 0.130000   3.218602   -1.827471
 0.135000   3.209395   -1.855452
 0.140000   3.200048   -1.883160
 0.145000   3.190563   -1.910592
 0.150000   3.180942   -1.937745
 0.155000   3.171186   -1.964615
 0.160000   3.161296   -1.991199
 0.165000   3.151274   -2.017493
 0.170000   3.141121   -2.043495
 0.175000   3.130839   -2.069202
 0.180000   3.120429   -2.094610
 0.185000   3.109893   -2.119716
 0.190000   3.099232   -2.144519
 0.195000   3.088447   -2.169014
 0.200000   3.077542   -2.193199
 0.205000   3.066515   -2.217071
 0.210000   3.055371   -2.240629
 0.215000   3.044109   -2.263868
 0.220000   3.032732   -2.286788
 0.225000   3.021241   -2.309385
 0.230000   3.009638   -2.331658
 0.235000   2.997925   -2.353603
 0.240000   2.986102   -2.375220
 0.245000   2.974173   -2.396506
 0.250000   2.962137   -2.417458
 0.255000   2.949998   -2.438076
 0.260000   2.937756   -2.458356
 0.265000   2.925414   -2.478299
 0.270000   2.912973   -2.497901
 0.275000   2.900435   -2.517161
 0.280000   2.887802   -2.536078
 0.285000   2.875075   -2.554650
 0.290000   2.862255   -2.572876
 0.295000   2.849346   -2.590755
 0.300000   2.836348   -2.608286
 0.305000   2.823263   -2.625466
 0.310000   2.810093   -2.642296
 0.315000   2.796840   -2.658774
 0.320000   2.783505   -2.674900
 0.325000   2.770091   -2.690672
 0.330000   2.756599   -2.706090
 0.335000   2.743030   -2.721153
 0.340000   2.729387   -2.735861
 0.345000   2.715672   -2.750213
 0.350000   2.701885   -2.764209
 0.355000   2.688029   -2.777847
 0.360000   2.674107   -2.791129
 0.365000   2.660118   -2.804054
 0.370000   2.646066   -2.816621
 0.375000   2.631952   -2.828831
 0.380000   2.617778   -2.840684
 0.385000   2.603545   -2.852180
 0.390000   2.589256   -2.863318
 0.395000   2.574912   -2.874099
 0.400000   2.560515   -2.884524
 0.405000   2.546067   -2.894593
 0.410000   2.531569   -2.904306
 0.415000   2.517024   -2.913663
 0.420000   2.502432   -2.922667
 0.425000   2.487797   -2.931316
 0.430000   2.473119   -2.939612
 0.435000   2.458401   -2.947555
 0.440000   2.443644   -2.955147
 0.445000   2.428849   -2.962389
 0.450000   2.414020   -2.969280
 0.455000   2.399157   -2.975823
 0.460000   2.384262   -2.982019
 0.465000   2.369336   -2.987869
 0.470000   2.354383   -2.993373
 0.475000   2.339403   -2.998534
 0.480000   2.324397   -3.003353
 0.485000   2.309369   -3.007831
 0.490000   2.294319   -3.011970
 0.495000   2.279249   -3.015771
 0.500000   2.264161   -3.019236
 0.505000   2.249057   -3.022366
 0.510000   2.233938   -3.025164
 0.515000   2.218805   -3.027631
 0.520000   2.203661   -3.029769
 0.525000   2.188508   -3.031580
 0.530000   2.173346   -3.033066
 0.535000   2.158177   -3.034228
 0.540000   2.143003   -3.035070
 0.545000   2.127826   -3.035593
 0.550000   2.112647   -3.035799
 0.555000   2.097468   -3.035691
 0.560000   2.082291   -3.035271
 0.565000   2.067116   -3.034540
 0.570000   2.051945   -3.033503
 0.575000   2.036781   -3.032160
 0.580000   2.021624   -3.030514
 0.585000   2.006475   -3.028569
 0.590000   1.991338   -3.026325
 0.595000   1.976212   -3.023787
 0.600000   1.961100   -3.020957
 0.605000   1.946003   -3.017837
 0.610000   1.930922   -3.014430
 0.615000   1.915858   -3.010738
 0.620000   1.900814   -3.006766
 0.625000   1.885791   -3.002514
 0.630000   1.870789   -2.997988
 0.635000   1.855811   -2.993188
 0.640000   1.840857   -2.988118
 0.645000   1.825930   -2.982782
 0.650000   1.811029   -2.977182
 0.655000   1.796158   -2.971321
 0.660000   1.781316   -2.965202
 0.665000   1.766506   -2.958828
 0.670000   1.751728   -2.952204
 0.675000   1.736984   -2.945331
 0.680000   1.722275   -2.938213
 0.685000   1.707602   -2.930853
 0.690000   1.692966   -2.923255
 0.695000   1.678369   -2.915423
 0.700000   1.663812   -2.907359
 0.705000   1.649296   -2.899067
 0.710000   1.634821   -2.890552
 0.715000   1.620390   -2.881817
 0.720000   1.606003   -2.872866
 0.725000   1.591661   -2.863703
 0.730000   1.577366   -2.854334
 0.735000   1.563118   -2.844763
 0.740000   1.548918   -2.834997
 0.745000   1.534768   -2.825041
 0.750000   1.520668   -2.814902
 0.755000   1.506619   -2.804589
 0.760000   1.492622   -2.794112
 0.765000   1.478678   -2.783483
 0.770000   1.464787   -2.772715
 0.775000   1.450951   -2.761825
 0.780000   1.437169   -2.750836
 0.785000   1.423442   -2.739775
 0.790000   1.409771   -2.728675
 0.795000   1.396156   -2.717579
 0.800000   1.382595   -2.706544
 0.805000   1.369090   -2.695641
 0.810000   1.355639   -2.684964
 0.815000   1.342241   -2.674631
 0.820000   1.328893   -2.664801
 0.825000   1.315593   -2.655678
 0.830000   1.302336   -2.647533
 0.835000   1.289117   -2.640718
 0.840000   1.275929   -2.635700
 0.845000   1.262760   -2.633093
 0.850000   1.249598   -2.633711
 0.855000   1.236423   -2.638628
 0.860000   1.223212   -2.649272
 0.865000   1.209930   -2.667537
 0.870000   1.196536   -2.695937
 0.875000   1.182971   -2.737814
 0.880000   1.169158   -2.797606
 0.885000   1.154995   -2.881199
 0.890000   1.140346   -2.996380
 0.895000   1.125031   -3.153410
 0.900000   1.108812   -3.365718
 0.905000   1.091374   -3.650704
 0.910000   1.072305   -4.030573
 0.915000   1.051068   -4.533017
 0.920000   1.026975   -5.191352
 0.925000   0.999155   -6.043402
 0.930000   0.966541   -7.127893
 0.935000   0.927876   -8.476530
 0.940000   0.881775   -10.099467
 0.945000   0.826881   -11.962492
 0.950000   0.762151   -13.957380
 0.955000   0.687307   -15.874639
 0.960000   0.603404   -17.399886
 0.965000   0.513308   -18.163502
 0.970000   0.421769   -17.859466
 0.975000   0.334714   -16.398468
 0.980000   0.257784   -13.999097
 0.985000   0.194723   -11.125834
 0.990000   0.146526   -8.292393
 0.995000   0.111799   -5.865340
 1.000000   0.087873   -3.705160
201 psinorm ni(10^20/m^3) dni/dpsiN
 0.000000   0.409039   -0.343709
 0.005000   0.407400   -0.311892
 0.010000   0.405920   -0.279764
 0.015000   0.404602   -0.248854
 0.020000   0.403431   -0.221682
 0.025000   0.402385   -0.197964
 0.030000   0.401452   -0.176253
 0.035000   0.400623   -0.157068
 0.040000   0.399881   -0.140994
 0.045000   0.399213   -0.127419
 0.050000   0.398607   -0.115517
 0.055000   0.398058   -0.105296
 0.060000   0.397554   -0.096742
 0.065000   0.397090   -0.089660
 0.070000   0.396657   -0.083856
 0.075000   0.396252   -0.079446
 0.080000   0.395863   -0.076393
 0.085000   0.395488   -0.073866
 0.090000   0.395124   -0.072050
 0.095000   0.394767   -0.071059
 0.100000   0.394414   -0.070750
 0.105000   0.394060   -0.070836
 0.110000   0.393705   -0.071434
 0.115000   0.393346   -0.072807
 0.120000   0.392977   -0.074843
 0.125000   0.392597   -0.077312
 0.130000   0.392204   -0.080056
 0.135000   0.391797   -0.083125
 0.140000   0.391373   -0.086500
 0.145000   0.390932   -0.090129
 0.150000   0.390472   -0.093967
 0.155000   0.389992   -0.097988
 0.160000   0.389492   -0.102171
 0.165000   0.388970   -0.106494
 0.170000   0.388427   -0.111071
 0.175000   0.387859   -0.115803
 0.180000   0.387269   -0.120541
 0.185000   0.386654   -0.125340
 0.190000   0.386015   -0.130190
 0.195000   0.385352   -0.135099
 0.200000   0.384664   -0.140065
 0.205000   0.383952   -0.145082
 0.210000   0.383214   -0.150135
 0.215000   0.382450   -0.155265
 0.220000   0.381661   -0.160626
 0.225000   0.380844   -0.165913
 0.230000   0.380002   -0.170973
 0.235000   0.379134   -0.176063
 0.240000   0.378241   -0.181188
 0.245000   0.377322   -0.186359
 0.250000   0.376378   -0.191782
 0.255000   0.375404   -0.197299
 0.260000   0.374405   -0.202675
 0.265000   0.373378   -0.208084
 0.270000   0.372324   -0.213576
 0.275000   0.371242   -0.219203
 0.280000   0.370132   -0.225018
 0.285000   0.368992   -0.230816
 0.290000   0.367823   -0.236522
 0.295000   0.366627   -0.242245
 0.300000   0.365401   -0.248006
 0.305000   0.364147   -0.253792
 0.310000   0.362863   -0.259432
 0.315000   0.361552   -0.264859
 0.320000   0.360215   -0.270183
 0.325000   0.358850   -0.275504
 0.330000   0.357459   -0.280837
 0.335000   0.356042   -0.286106
 0.340000   0.354598   -0.291330
 0.345000   0.353129   -0.296651
 0.350000   0.351632   -0.302101
 0.355000   0.350108   -0.307583
 0.360000   0.348556   -0.313045
 0.365000   0.346977   -0.318461
 0.370000   0.345371   -0.323760
 0.375000   0.343740   -0.328894
 0.380000   0.342083   -0.333751
 0.385000   0.340402   -0.338225
 0.390000   0.338700   -0.342250
 0.395000   0.336980   -0.345801
 0.400000   0.335242   -0.348888
 0.405000   0.333491   -0.351375
 0.410000   0.331729   -0.353174
 0.415000   0.329959   -0.354364
 0.420000   0.328185   -0.355025
 0.425000   0.326409   -0.355191
 0.430000   0.324633   -0.354900
 0.435000   0.322860   -0.354171
 0.440000   0.321091   -0.353153
 0.445000   0.319328   -0.351994
 0.450000   0.317571   -0.350628
 0.455000   0.315822   -0.348994
 0.460000   0.314081   -0.347080
 0.465000   0.312351   -0.344852
 0.470000   0.310633   -0.342153
 0.475000   0.308930   -0.338720
 0.480000   0.307246   -0.334479
 0.485000   0.305585   -0.329510
 0.490000   0.303951   -0.323830
 0.495000   0.302347   -0.317403
 0.500000   0.300777   -0.310212
 0.505000   0.299244   -0.302329
 0.510000   0.297753   -0.293825
 0.515000   0.296306   -0.284743
 0.520000   0.294906   -0.275153
 0.525000   0.293555   -0.265118
 0.530000   0.292255   -0.254669
 0.535000   0.291008   -0.243845
 0.540000   0.289816   -0.232666
 0.545000   0.288681   -0.221138
 0.550000   0.287605   -0.209253
 0.555000   0.286589   -0.196992
 0.560000   0.285635   -0.184324
 0.565000   0.284745   -0.171256
 0.570000   0.283922   -0.157830
 0.575000   0.283167   -0.144094
 0.580000   0.282481   -0.130096
 0.585000   0.281866   -0.115919
 0.590000   0.281322   -0.101673
 0.595000   0.280849   -0.087406
 0.600000   0.280448   -0.073123
 0.605000   0.280118   -0.058862
 0.610000   0.279860   -0.044671
 0.615000   0.279672   -0.030556
 0.620000   0.279554   -0.016514
 0.625000   0.279506   -0.002508
 0.630000   0.279529   0.011412
 0.635000   0.279621   0.025169
 0.640000   0.279781   0.038760
 0.645000   0.280008   0.052159
 0.650000   0.280302   0.065395
 0.655000   0.280662   0.078495
 0.660000   0.281087   0.092001
 0.665000   0.281582   0.107001
 0.670000   0.282157   0.124427
 0.675000   0.282826   0.144929
 0.680000   0.283606   0.170304
 0.685000   0.284529   0.199817
 0.690000   0.285605   0.230658
 0.695000   0.286836   0.262315
 0.700000   0.288228   0.294228
 0.705000   0.289778   0.325229
 0.710000   0.291480   0.355320
 0.715000   0.293331   0.382108
 0.720000   0.295301   0.402332
 0.725000   0.297355   0.416107
 0.730000   0.299462   0.423538
 0.735000   0.301590   0.424177
 0.740000   0.303704   0.417259
 0.745000   0.305763   0.402228
 0.750000   0.307726   0.380748
 0.755000   0.309570   0.354788
 0.760000   0.311274   0.325398
 0.765000   0.312824   0.293966
 0.770000   0.314214   0.261026
 0.775000   0.315434   0.228037
 0.780000   0.316494   0.198315
 0.785000   0.317418   0.172559
 0.790000   0.318220   0.149913
 0.795000   0.318917   0.130537
 0.800000   0.319525   0.114408
 0.805000   0.320061   0.101141
 0.810000   0.320537   0.089517
 0.815000   0.320956   0.078560
 0.820000   0.321322   0.068385
 0.825000   0.321640   0.059462
 0.830000   0.321917   0.052334
 0.835000   0.322163   0.047557
 0.840000   0.322392   0.045942
 0.845000   0.322623   0.048304
 0.850000   0.322875   0.055347
 0.855000   0.323176   0.067977
 0.860000   0.323555   0.087250
 0.865000   0.324049   0.114594
 0.870000   0.324701   0.151346
 0.875000   0.325562   0.198179
 0.880000   0.326683   0.255318
 0.885000   0.328115   0.322376
 0.890000   0.329907   0.397754
 0.895000   0.332093   0.478686
 0.900000   0.334694   0.557401
 0.905000   0.337667   0.620027
 0.910000   0.340894   0.646333
 0.915000   0.344130   0.605180
 0.920000   0.346946   0.452850
 0.925000   0.348659   0.139035
 0.930000   0.348336   -0.396052
 0.935000   0.344698   -1.198780
 0.940000   0.336348   -2.259564
 0.945000   0.322102   -3.481923
 0.950000   0.301529   -4.660976
 0.955000   0.275493   -5.491364
 0.960000   0.246615   -5.752984
 0.965000   0.217963   -5.431945
 0.970000   0.192296   -4.696979
 0.975000   0.170993   -3.849589
 0.980000   0.153800   -3.145831
 0.985000   0.139535   -2.676228
 0.990000   0.127038   -2.397393
 0.995000   0.115561   -2.208439
 1.000000   0.104953   -2.034580
201 psinorm ti(KeV) dti/dpsiN
 0.000000   4.448069   0.004509
 0.005000   4.447714   -0.146277
 0.010000   4.446606   -0.303892
 0.015000   4.444675   -0.474868
 0.020000   4.441857   -0.658412
 0.025000   4.438091   -0.853297
 0.030000   4.433324   -1.057837
 0.035000   4.427513   -1.269969
 0.040000   4.420624   -1.486077
 0.045000   4.412652   -1.703953
 0.050000   4.403585   -1.922335
 0.055000   4.393429   -2.138502
 0.060000   4.382200   -2.350416
 0.065000   4.369924   -2.556628
 0.070000   4.356634   -2.753943
 0.075000   4.342385   -2.943805
 0.080000   4.327196   -3.129220
 0.085000   4.311093   -3.308761
 0.090000   4.294108   -3.482327
 0.095000   4.276270   -3.650467
 0.100000   4.257603   -3.812291
 0.105000   4.238147   -3.968611
 0.110000   4.217917   -4.120753
 0.115000   4.196939   -4.267574
 0.120000   4.175241   -4.408476
 0.125000   4.152854   -4.543065
 0.130000   4.129811   -4.669524
 0.135000   4.106159   -4.786743
 0.140000   4.081943   -4.895698
 0.145000   4.057202   -4.996435
 0.150000   4.031979   -5.088366
 0.155000   4.006318   -5.171307
 0.160000   3.980266   -5.244005
 0.165000   3.953878   -5.306131
 0.170000   3.927205   -5.359983
 0.175000   3.900279   -5.406382
 0.180000   3.873141   -5.444969
 0.185000   3.845829   -5.476416
 0.190000   3.818377   -5.501131
 0.195000   3.790818   -5.520969
 0.200000   3.763167   -5.539211
 0.205000   3.735425   -5.556822
 0.210000   3.707599   -5.573603
 0.215000   3.679689   -5.590065
 0.220000   3.651698   -5.607444
 0.225000   3.623615   -5.628136
 0.230000   3.595417   -5.649068
 0.235000   3.567124   -5.667152
 0.240000   3.538745   -5.683193
 0.245000   3.510292   -5.695986
 0.250000   3.481785   -5.704849
 0.255000   3.453244   -5.710222
 0.260000   3.424683   -5.706109
 0.265000   3.396183   -5.689303
 0.270000   3.367790   -5.662786
 0.275000   3.339555   -5.626081
 0.280000   3.311529   -5.578837
 0.285000   3.283767   -5.519501
 0.290000   3.256334   -5.447229
 0.295000   3.229294   -5.363557
 0.300000   3.202699   -5.270449
 0.305000   3.176590   -5.170210
 0.310000   3.150997   -5.065715
 0.315000   3.125933   -4.957645
 0.320000   3.101420   -4.851448
 0.325000   3.077418   -4.750736
 0.330000   3.053913   -4.652987
 0.335000   3.030888   -4.558610
 0.340000   3.008327   -4.467974
 0.345000   2.986209   -4.382405
 0.350000   2.964503   -4.302310
 0.355000   2.943185   -4.226299
 0.360000   2.922240   -4.153659
 0.365000   2.901649   -4.083922
 0.370000   2.881400   -4.016113
 0.375000   2.861488   -3.949551
 0.380000   2.841905   -3.878785
 0.385000   2.822700   -3.799821
 0.390000   2.803907   -3.714853
 0.395000   2.785551   -3.625115
 0.400000   2.767656   -3.531564
 0.405000   2.750236   -3.433964
 0.410000   2.733316   -3.335072
 0.415000   2.716885   -3.239456
 0.420000   2.700921   -3.147565
 0.425000   2.685409   -3.058974
 0.430000   2.670332   -2.973979
 0.435000   2.655670   -2.891791
 0.440000   2.641414   -2.813484
 0.445000   2.627535   -2.741624
 0.450000   2.613998   -2.675930
 0.455000   2.600775   -2.615626
 0.460000   2.587841   -2.560826
 0.465000   2.575167   -2.511653
 0.470000   2.562725   -2.468794
 0.475000   2.550479   -2.432071
 0.480000   2.538404   -2.399783
 0.485000   2.526481   -2.370300
 0.490000   2.514701   -2.342353
 0.495000   2.503058   -2.315062
 0.500000   2.491550   -2.288226
 0.505000   2.480176   -2.262580
 0.510000   2.468925   -2.238687
 0.515000   2.457789   -2.216506
 0.520000   2.446760   -2.196045
 0.525000   2.435828   -2.177107
 0.530000   2.424988   -2.159285
 0.535000   2.414235   -2.143456
 0.540000   2.403554   -2.130156
 0.545000   2.392934   -2.118858
 0.550000   2.382365   -2.109582
 0.555000   2.371838   -2.102264
 0.560000   2.361343   -2.096698
 0.565000   2.350871   -2.093637
 0.570000   2.340406   -2.093381
 0.575000   2.329937   -2.095378
 0.580000   2.319453   -2.099760
 0.585000   2.308940   -2.106861
 0.590000   2.298384   -2.118362
 0.595000   2.287756   -2.134600
 0.600000   2.277038   -2.154526
 0.605000   2.266211   -2.178076
 0.610000   2.255257   -2.204957
 0.615000   2.244161   -2.234825
 0.620000   2.232909   -2.269831
 0.625000   2.221463   -2.307081
 0.630000   2.209838   -2.342993
 0.635000   2.198033   -2.379070
 0.640000   2.186047   -2.414916
 0.645000   2.173884   -2.450066
 0.650000   2.161547   -2.485734
 0.655000   2.149026   -2.519501
 0.660000   2.136352   -2.548671
 0.665000   2.123540   -2.574382
 0.670000   2.110608   -2.596139
 0.675000   2.097578   -2.612898
 0.680000   2.084479   -2.622113
 0.685000   2.071357   -2.621965
 0.690000   2.058259   -2.614303
 0.695000   2.045214   -2.601364
 0.700000   2.032246   -2.584372
 0.705000   2.019370   -2.564608
 0.710000   2.006600   -2.541234
 0.715000   1.993958   -2.516361
 0.720000   1.981436   -2.494061
 0.725000   1.969018   -2.474027
 0.730000   1.956696   -2.455728
 0.735000   1.944460   -2.439763
 0.740000   1.932298   -2.426925
 0.745000   1.920191   -2.420868
 0.750000   1.908089   -2.424796
 0.755000   1.895943   -2.438030
 0.760000   1.883709   -2.459056
 0.765000   1.871353   -2.485903
 0.770000   1.858850   -2.517704
 0.775000   1.846175   -2.551960
 0.780000   1.833330   -2.582616
 0.785000   1.820349   -2.608509
 0.790000   1.807245   -2.631513
 0.795000   1.794034   -2.651296
 0.800000   1.780732   -2.668330
 0.805000   1.767351   -2.684030
 0.810000   1.753892   -2.699298
 0.815000   1.740358   -2.715486
 0.820000   1.726737   -2.733812
 0.825000   1.713020   -2.754048
 0.830000   1.699197   -2.776155
 0.835000   1.685258   -2.800406
 0.840000   1.671193   -2.827562
 0.845000   1.656983   -2.862488
 0.850000   1.642568   -2.911603
 0.855000   1.627867   -2.978591
 0.860000   1.612782   -3.066996
 0.865000   1.597197   -3.187090
 0.870000   1.580911   -3.330380
 0.875000   1.563893   -3.487494
 0.880000   1.546036   -3.666259
 0.885000   1.527230   -3.867847
 0.890000   1.507358   -4.094538
 0.895000   1.486285   -4.371787
 0.900000   1.463640   -4.692351
 0.905000   1.439361   -5.042607
 0.910000   1.413214   -5.442861
 0.915000   1.384933   -5.898944
 0.920000   1.354224   -6.416913
 0.925000   1.320764   -7.038226
 0.930000   1.283842   -7.724177
 0.935000   1.243522   -8.416125
 0.940000   1.199681   -9.124608
 0.945000   1.152276   -9.826392
 0.950000   1.101417   -10.486859
 0.955000   1.047407   -11.085809
 0.960000   0.990559   -11.544785
 0.965000   0.931959   -11.790848
 0.970000   0.872650   -11.821965
 0.975000   0.813740   -11.625413
 0.980000   0.756396   -11.197424
 0.985000   0.701765   -10.538578
 0.990000   0.651010   -9.673456
 0.995000   0.605031   -8.664859
 1.000000   0.564362   -7.602810
201 psinorm nb(10^20/m^3) dnb/dpsiN
 0.000000   0.046107   0.090622
 0.005000   0.046486   0.060942
 0.010000   0.046716   0.030980
 0.015000   0.046796   0.002289
 0.020000   0.046739   -0.022623
 0.025000   0.046569   -0.044054
 0.030000   0.046299   -0.063466
 0.035000   0.045935   -0.080357
 0.040000   0.045495   -0.094167
 0.045000   0.044993   -0.105524
 0.050000   0.044440   -0.115257
 0.055000   0.043840   -0.123376
 0.060000   0.043206   -0.129904
 0.065000   0.042541   -0.135046
 0.070000   0.041856   -0.139010
 0.075000   0.041151   -0.141673
 0.080000   0.040439   -0.143059
 0.085000   0.039721   -0.144009
 0.090000   0.038999   -0.144344
 0.095000   0.038277   -0.143952
 0.100000   0.037559   -0.142975
 0.105000   0.036848   -0.141701
 0.110000   0.036142   -0.140015
 0.115000   0.035447   -0.137667
 0.120000   0.034766   -0.134776
 0.125000   0.034100   -0.131574
 0.130000   0.033450   -0.128223
 0.135000   0.032817   -0.124667
 0.140000   0.032203   -0.120931
 0.145000   0.031608   -0.117068
 0.150000   0.031033   -0.113130
 0.155000   0.030477   -0.109143
 0.160000   0.029941   -0.105130
 0.165000   0.029426   -0.101118
 0.170000   0.028930   -0.097001
 0.175000   0.028455   -0.092885
 0.180000   0.028001   -0.088925
 0.185000   0.027566   -0.085068
 0.190000   0.027150   -0.081330
 0.195000   0.026753   -0.077709
 0.200000   0.026373   -0.074208
 0.205000   0.026011   -0.070833
 0.210000   0.025665   -0.067589
 0.215000   0.025335   -0.064426
 0.220000   0.025021   -0.061181
 0.225000   0.024723   -0.058146
 0.230000   0.024439   -0.055487
 0.235000   0.024168   -0.052966
 0.240000   0.023910   -0.050583
 0.245000   0.023662   -0.048338
 0.250000   0.023426   -0.046030
 0.255000   0.023202   -0.043825
 0.260000   0.022988   -0.041969
 0.265000   0.022782   -0.040294
 0.270000   0.022585   -0.038739
 0.275000   0.022395   -0.037247
 0.280000   0.022213   -0.035755
 0.285000   0.022038   -0.034447
 0.290000   0.021868   -0.033372
 0.295000   0.021704   -0.032387
 0.300000   0.021544   -0.031440
 0.305000   0.021389   -0.030512
 0.310000   0.021239   -0.029741
 0.315000   0.021092   -0.029136
 0.320000   0.020948   -0.028596
 0.325000   0.020806   -0.028070
 0.330000   0.020667   -0.027553
 0.335000   0.020531   -0.027148
 0.340000   0.020396   -0.026864
 0.345000   0.020262   -0.026632
 0.350000   0.020129   -0.026435
 0.355000   0.019998   -0.026302
 0.360000   0.019866   -0.026230
 0.365000   0.019735   -0.026185
 0.370000   0.019604   -0.026173
 0.375000   0.019473   -0.026199
 0.380000   0.019342   -0.026250
 0.385000   0.019211   -0.026321
 0.390000   0.019079   -0.026452
 0.395000   0.018946   -0.026620
 0.400000   0.018813   -0.026761
 0.405000   0.018679   -0.026888
 0.410000   0.018544   -0.027032
 0.415000   0.018409   -0.027195
 0.420000   0.018272   -0.027344
 0.425000   0.018135   -0.027475
 0.430000   0.017997   -0.027617
 0.435000   0.017859   -0.027773
 0.440000   0.017720   -0.027911
 0.445000   0.017580   -0.028028
 0.450000   0.017439   -0.028149
 0.455000   0.017298   -0.028279
 0.460000   0.017157   -0.028395
 0.465000   0.017014   -0.028490
 0.470000   0.016872   -0.028586
 0.475000   0.016729   -0.028730
 0.480000   0.016584   -0.028917
 0.485000   0.016439   -0.029079
 0.490000   0.016294   -0.029187
 0.495000   0.016147   -0.029275
 0.500000   0.016001   -0.029355
 0.505000   0.015854   -0.029417
 0.510000   0.015707   -0.029475
 0.515000   0.015559   -0.029541
 0.520000   0.015411   -0.029602
 0.525000   0.015263   -0.029645
 0.530000   0.015115   -0.029683
 0.535000   0.014966   -0.029733
 0.540000   0.014818   -0.029794
 0.545000   0.014668   -0.029849
 0.550000   0.014519   -0.029904
 0.555000   0.014369   -0.029968
 0.560000   0.014219   -0.030046
 0.565000   0.014069   -0.030123
 0.570000   0.013918   -0.030199
 0.575000   0.013767   -0.030283
 0.580000   0.013615   -0.030392
 0.585000   0.013463   -0.030509
 0.590000   0.013310   -0.030618
 0.595000   0.013157   -0.030734
 0.600000   0.013003   -0.030879
 0.605000   0.012848   -0.031045
 0.610000   0.012692   -0.031202
 0.615000   0.012536   -0.031354
 0.620000   0.012379   -0.031513
 0.625000   0.012221   -0.031711
 0.630000   0.012062   -0.031917
 0.635000   0.011902   -0.032100
 0.640000   0.011741   -0.032288
 0.645000   0.011579   -0.032490
 0.650000   0.011416   -0.032723
 0.655000   0.011252   -0.032951
 0.660000   0.011086   -0.033157
 0.665000   0.010920   -0.033365
 0.670000   0.010753   -0.033583
 0.675000   0.010584   -0.033829
 0.680000   0.010414   -0.034068
 0.685000   0.010244   -0.034291
 0.690000   0.010071   -0.034547
 0.695000   0.009898   -0.034862
 0.700000   0.009723   -0.035187
 0.705000   0.009546   -0.035448
 0.710000   0.009368   -0.035668
 0.715000   0.009189   -0.035881
 0.720000   0.009010   -0.036085
 0.725000   0.008829   -0.036286
 0.730000   0.008647   -0.036486
 0.735000   0.008464   -0.036660
 0.740000   0.008280   -0.036802
 0.745000   0.008096   -0.036929
 0.750000   0.007911   -0.037039
 0.755000   0.007725   -0.037131
 0.760000   0.007540   -0.037207
 0.765000   0.007353   -0.037260
 0.770000   0.007167   -0.037288
 0.775000   0.006980   -0.037298
 0.780000   0.006794   -0.037294
 0.785000   0.006607   -0.037274
 0.790000   0.006421   -0.037236
 0.795000   0.006235   -0.037174
 0.800000   0.006049   -0.037095
 0.805000   0.005864   -0.037000
 0.810000   0.005679   -0.036885
 0.815000   0.005495   -0.036750
 0.820000   0.005312   -0.036595
 0.825000   0.005129   -0.036418
 0.830000   0.004948   -0.036221
 0.835000   0.004767   -0.036001
 0.840000   0.004588   -0.035752
 0.845000   0.004410   -0.035488
 0.850000   0.004233   -0.035217
 0.855000   0.004057   -0.034930
 0.860000   0.003884   -0.034630
 0.865000   0.003711   -0.034315
 0.870000   0.003540   -0.033996
 0.875000   0.003371   -0.033690
 0.880000   0.003204   -0.033402
 0.885000   0.003037   -0.033128
 0.890000   0.002872   -0.032860
 0.895000   0.002709   -0.032585
 0.900000   0.002546   -0.032274
 0.905000   0.002386   -0.031888
 0.910000   0.002228   -0.031388
 0.915000   0.002072   -0.030727
 0.920000   0.001920   -0.029851
 0.925000   0.001773   -0.028723
 0.930000   0.001633   -0.027348
 0.935000   0.001500   -0.025812
 0.940000   0.001375   -0.024312
 0.945000   0.001257   -0.023170
 0.950000   0.001143   -0.022750
 0.955000   0.001029   -0.023216
 0.960000   0.000911   -0.024250
 0.965000   0.000787   -0.025079
 0.970000   0.000660   -0.024815
 0.975000   0.000539   -0.022976
 0.980000   0.000430   -0.019941
 0.985000   0.000339   -0.016787
 0.990000   0.000263   -0.014660
 0.995000   0.000193   -0.014215
 1.000000   0.000120   -0.014681
201 psinorm pb(KPa) dpb/dpsiN
 0.000000   18.569503   30.326005
 0.005000   18.692800   18.992485
 0.010000   18.759428   7.184967
 0.015000   18.764649   -4.463779
 0.020000   18.714790   -14.484488
 0.025000   18.619804   -22.964296
 0.030000   18.485147   -30.665960
 0.035000   18.313145   -37.330045
 0.040000   18.111847   -42.625478
 0.045000   17.886890   -46.904953
 0.050000   17.642797   -50.543388
 0.055000   17.381456   -53.540625
 0.060000   17.107391   -55.889590
 0.065000   16.822560   -57.688807
 0.070000   16.530503   -59.007560
 0.075000   16.232485   -59.714645
 0.080000   15.933357   -59.904654
 0.085000   15.633438   -60.043746
 0.090000   15.332919   -60.005173
 0.095000   15.033386   -59.690169
 0.100000   14.736018   -59.159662
 0.105000   14.441790   -58.602483
 0.110000   14.149993   -57.913670
 0.115000   13.862653   -56.884239
 0.120000   13.581150   -55.617251
 0.125000   13.306481   -54.238868
 0.130000   13.038762   -52.811320
 0.135000   12.778367   -51.311058
 0.140000   12.525651   -49.741751
 0.145000   12.280950   -48.127392
 0.150000   12.044377   -46.499252
 0.155000   11.815957   -44.864497
 0.160000   11.595732   -43.226680
 0.165000   11.383690   -41.595508
 0.170000   11.179777   -39.929964
 0.175000   10.984391   -38.271334
 0.180000   10.797064   -36.679238
 0.185000   10.617598   -35.132471
 0.190000   10.445739   -33.635525
 0.195000   10.281243   -32.187647
 0.200000   10.123863   -30.790684
 0.205000   9.973336   -29.446720
 0.210000   9.829395   -28.157021
 0.215000   9.691766   -26.902444
 0.220000   9.560371   -25.621107
 0.225000   9.435555   -24.422920
 0.230000   9.316142   -23.369752
 0.235000   9.201858   -22.372347
 0.240000   9.092418   -21.431286
 0.245000   8.987545   -20.544452
 0.250000   8.886974   -19.637290
 0.255000   8.791172   -18.771267
 0.260000   8.699261   -18.038290
 0.265000   8.610789   -17.374160
 0.270000   8.525519   -16.757428
 0.275000   8.443215   -16.167011
 0.280000   8.363849   -15.578457
 0.285000   8.287430   -15.058139
 0.290000   8.213268   -14.624018
 0.295000   8.141190   -14.223892
 0.300000   8.071029   -13.838739
 0.305000   8.002802   -13.461269
 0.310000   7.936416   -13.142954
 0.315000   7.871373   -12.887326
 0.320000   7.807543   -12.656764
 0.325000   7.744805   -12.431568
 0.330000   7.683227   -12.195470
 0.335000   7.622851   -11.998143
 0.340000   7.563246   -11.860442
 0.345000   7.504246   -11.747116
 0.350000   7.445775   -11.648098
 0.355000   7.387765   -11.573353
 0.360000   7.330041   -11.521773
 0.365000   7.272547   -11.481042
 0.370000   7.215231   -11.453421
 0.375000   7.158013   -11.440464
 0.380000   7.100826   -11.437373
 0.385000   7.043640   -11.442507
 0.390000   6.986401   -11.479565
 0.395000   6.928844   -11.533602
 0.400000   6.871065   -11.569711
 0.405000   6.813147   -11.596282
 0.410000   6.755102   -11.628508
 0.415000   6.696862   -11.668281
 0.420000   6.638420   -11.701645
 0.425000   6.579845   -11.727680
 0.430000   6.521143   -11.757780
 0.435000   6.462267   -11.793647
 0.440000   6.403206   -11.822905
 0.445000   6.344038   -11.843588
 0.450000   6.284770   -11.865933
 0.455000   6.225379   -11.895794
 0.460000   6.165812   -11.921033
 0.465000   6.106169   -11.935733
 0.470000   6.046455   -11.951091
 0.475000   5.986658   -11.982254
 0.480000   5.926633   -12.027501
 0.485000   5.866383   -12.066181
 0.490000   5.805971   -12.089913
 0.495000   5.745484   -12.108571
 0.500000   5.684885   -12.123439
 0.505000   5.624249   -12.130172
 0.510000   5.563583   -12.135468
 0.515000   5.502895   -12.147071
 0.520000   5.442113   -12.155401
 0.525000   5.381341   -12.150986
 0.530000   5.320603   -12.143374
 0.535000   5.259907   -12.147388
 0.540000   5.199129   -12.156772
 0.545000   5.138339   -12.159364
 0.550000   5.077535   -12.162834
 0.555000   5.016711   -12.169619
 0.560000   4.955839   -12.185276
 0.565000   4.894858   -12.199919
 0.570000   4.833840   -12.207776
 0.575000   4.772780   -12.218816
 0.580000   4.711652   -12.242752
 0.585000   4.650353   -12.268606
 0.590000   4.588966   -12.287149
 0.595000   4.527481   -12.307771
 0.600000   4.465888   -12.341431
 0.605000   4.404067   -12.383579
 0.610000   4.342052   -12.417356
 0.615000   4.279893   -12.446382
 0.620000   4.217588   -12.476729
 0.625000   4.155126   -12.522328
 0.630000   4.092365   -12.568959
 0.635000   4.029437   -12.602665
 0.640000   3.966338   -12.636754
 0.645000   3.903069   -12.674824
 0.650000   3.839590   -12.723375
 0.655000   3.775835   -12.767460
 0.660000   3.711916   -12.800018
 0.665000   3.647835   -12.831678
 0.670000   3.583599   -12.865570
 0.675000   3.519179   -12.908468
 0.680000   3.454514   -12.945978
 0.685000   3.389720   -12.974450
 0.690000   3.324770   -13.011228
 0.695000   3.259607   -13.062784
 0.700000   3.194142   -13.119018
 0.705000   3.128417   -13.156268
 0.710000   3.062579   -13.177278
 0.715000   2.996644   -13.194632
 0.720000   2.930633   -13.207727
 0.725000   2.864567   -13.218544
 0.730000   2.798447   -13.228337
 0.735000   2.732284   -13.228059
 0.740000   2.666167   -13.215971
 0.745000   2.600124   -13.198039
 0.750000   2.534186   -13.173494
 0.755000   2.468389   -13.141576
 0.760000   2.402771   -13.102723
 0.765000   2.337362   -13.056414
 0.770000   2.272206   -13.001835
 0.775000   2.207343   -12.940424
 0.780000   2.142802   -12.873574
 0.785000   2.078608   -12.801466
 0.790000   2.014788   -12.723192
 0.795000   1.951376   -12.637093
 0.800000   1.888417   -12.545724
 0.805000   1.825919   -12.449981
 0.810000   1.763917   -12.348075
 0.815000   1.702438   -12.240606
 0.820000   1.641511   -12.127091
 0.825000   1.581167   -12.007537
 0.830000   1.521435   -11.882692
 0.835000   1.462340   -11.751521
 0.840000   1.403920   -11.612424
 0.845000   1.346216   -11.470609
 0.850000   1.289214   -11.328290
 0.855000   1.232933   -11.182554
 0.860000   1.177389   -11.033964
 0.865000   1.122593   -10.883326
 0.870000   1.068555   -10.733393
 0.875000   1.015259   -10.588212
 0.880000   0.962673   -10.448839
 0.885000   0.910771   -10.314362
 0.890000   0.859530   -10.183679
 0.895000   0.808934   -10.053789
 0.900000   0.758992   -9.917372
 0.905000   0.709760   -9.763676
 0.910000   0.661355   -9.582052
 0.915000   0.613940   -9.360111
 0.920000   0.567754   -9.082750
 0.925000   0.523112   -8.738322
 0.930000   0.480371   -8.326840
 0.935000   0.439844   -7.869166
 0.940000   0.401679   -7.415045
 0.945000   0.365694   -7.047168
 0.950000   0.331207   -6.861137
 0.955000   0.297082   -6.906336
 0.960000   0.262144   -7.118943
 0.965000   0.225893   -7.316461
 0.970000   0.188979   -7.267790
 0.975000   0.153215   -6.818330
 0.980000   0.120796   -5.984197
 0.985000   0.093373   -4.927920
 0.990000   0.071517   -3.960272
 0.995000   0.053770   -3.442839
 1.000000   0.037088   -3.229883
201 psinorm ptot(KPa) dptot/dpsiN
 0.000000   93.369281   -20.473260
 0.005000   93.240483   -31.045862
 0.010000   93.058822   -42.114036
 0.015000   92.819343   -53.195885
 0.020000   92.526864   -62.996670
 0.025000   92.189376   -71.574957
 0.030000   91.811114   -79.578838
 0.035000   91.393588   -86.771356
 0.040000   90.943400   -92.836926
 0.045000   90.465219   -98.068813
 0.050000   89.962712   -102.774760
 0.055000   89.437471   -106.935269
 0.060000   88.893360   -110.527744
 0.065000   88.332193   -113.626064
 0.070000   87.757099   -116.262739
 0.075000   87.169566   -118.324569
 0.080000   86.573853   -119.924707
 0.085000   85.970319   -121.460771
 0.090000   85.359246   -122.817530
 0.095000   84.742144   -123.907517
 0.100000   84.120170   -124.774799
 0.105000   83.494396   -125.593966
 0.110000   82.864231   -126.276875
 0.115000   82.231627   -126.623310
 0.120000   81.597998   -126.723551
 0.125000   80.964391   -126.684825
 0.130000   80.331149   -126.545213
 0.135000   79.698939   -126.276445
 0.140000   79.068385   -125.887252
 0.145000   78.440067   -125.398347
 0.150000   77.814401   -124.833394
 0.155000   77.191733   -124.196533
 0.160000   76.572436   -123.480910
 0.165000   75.956924   -122.692376
 0.170000   75.345512   -121.813292
 0.175000   74.738791   -120.884285
 0.180000   74.136670   -119.953065
 0.185000   73.539260   -119.006796
 0.190000   72.946602   -118.052253
 0.195000   72.358738   -117.102307
 0.200000   71.775578   -116.181720
 0.205000   71.196920   -115.298807
 0.210000   70.622590   -114.452718
 0.215000   70.052393   -113.630269
 0.220000   69.486288   -112.787063
 0.225000   68.924523   -112.031761
 0.230000   68.365970   -111.395946
 0.235000   67.810563   -110.783984
 0.240000   67.258130   -110.202302
 0.245000   66.708540   -109.641199
 0.250000   66.161718   -109.032888
 0.255000   65.618211   -108.433047
 0.260000   65.077388   -107.879900
 0.265000   64.539412   -107.297724
 0.270000   64.004411   -106.688992
 0.275000   63.472522   -106.032836
 0.280000   62.944082   -105.305949
 0.285000   62.419463   -104.554441
 0.290000   61.898538   -103.787895
 0.295000   61.381584   -102.971738
 0.300000   60.868820   -102.102358
 0.305000   60.360560   -101.188335
 0.310000   59.856937   -100.292670
 0.315000   59.357634   -99.421362
 0.320000   58.862723   -98.578816
 0.325000   58.371846   -97.773817
 0.330000   57.884985   -96.974070
 0.335000   57.402105   -96.227968
 0.340000   56.922706   -95.559523
 0.345000   56.446510   -94.948110
 0.350000   55.973224   -94.387449
 0.355000   55.502635   -93.874071
 0.360000   55.034484   -93.400074
 0.365000   54.568634   -92.949369
 0.370000   54.104990   -92.515226
 0.375000   53.643482   -92.093104
 0.380000   53.184059   -91.640101
 0.385000   52.727081   -91.126325
 0.390000   52.272796   -90.587880
 0.395000   51.821202   -90.017984
 0.400000   51.372616   -89.389570
 0.405000   50.927307   -88.705601
 0.410000   50.485560   -87.995734
 0.415000   50.047349   -87.293558
 0.420000   49.612624   -86.591262
 0.425000   49.181437   -85.886679
 0.430000   48.753758   -85.194236
 0.435000   48.329494   -84.511555
 0.440000   47.908642   -83.838233
 0.445000   47.491112   -83.192517
 0.450000   47.076717   -82.580048
 0.455000   46.665311   -81.999374
 0.460000   46.256723   -81.438442
 0.465000   45.850927   -80.890519
 0.470000   45.447818   -80.364914
 0.475000   45.047278   -79.866159
 0.480000   44.649156   -79.380123
 0.485000   44.253477   -78.879975
 0.490000   43.860357   -78.351018
 0.495000   43.469966   -77.796939
 0.500000   43.082387   -77.217606
 0.505000   42.697790   -76.615677
 0.510000   42.316230   -76.003506
 0.515000   41.937755   -75.390156
 0.520000   41.562329   -74.768610
 0.525000   41.190069   -74.130497
 0.530000   40.821024   -73.484232
 0.535000   40.455227   -72.850637
 0.540000   40.092518   -72.227142
 0.545000   39.732956   -71.599000
 0.550000   39.376528   -70.973791
 0.555000   39.023218   -70.352916
 0.560000   38.672998   -69.739999
 0.565000   38.325818   -69.129632
 0.570000   37.981702   -68.519087
 0.575000   37.640627   -67.916915
 0.580000   37.302533   -67.334979
 0.585000   36.967277   -66.766925
 0.590000   36.634864   -66.216046
 0.595000   36.305117   -65.694900
 0.600000   35.977915   -65.208861
 0.605000   35.653028   -64.754221
 0.610000   35.330372   -64.314281
 0.615000   35.009885   -63.891069
 0.620000   34.691462   -63.502081
 0.625000   34.374864   -63.144632
 0.630000   34.060015   -62.787316
 0.635000   33.746991   -62.426845
 0.640000   33.435747   -62.074452
 0.645000   33.126247   -61.732133
 0.650000   32.818426   -61.412041
 0.655000   32.512126   -61.085886
 0.660000   32.207567   -60.717126
 0.665000   31.904955   -60.292000
 0.670000   31.604647   -59.785901
 0.675000   31.307096   -59.183577
 0.680000   31.012811   -58.409686
 0.685000   30.722999   -57.474081
 0.690000   30.438070   -56.483497
 0.695000   30.158164   -55.470830
 0.700000   29.883362   -54.448124
 0.705000   29.613683   -53.430221
 0.710000   29.349060   -52.414143
 0.715000   29.089541   -51.485945
 0.720000   28.834200   -50.750934
 0.725000   28.582032   -50.202121
 0.730000   28.332179   -49.830806
 0.735000   28.083724   -49.638935
 0.740000   27.835790   -49.644622
 0.745000   27.587278   -49.883901
 0.750000   27.336951   -50.327268
 0.755000   27.084005   -50.916833
 0.760000   26.827782   -51.615686
 0.765000   26.567848   -52.375363
 0.770000   26.304029   -53.175247
 0.775000   26.036096   -53.965063
 0.780000   25.764378   -54.629677
 0.785000   25.489799   -55.146318
 0.790000   25.212915   -55.546827
 0.795000   24.934331   -55.824425
 0.800000   24.654671   -55.985334
 0.805000   24.374477   -56.047781
 0.810000   24.094193   -56.043047
 0.815000   23.814047   -56.000273
 0.820000   23.534190   -55.920258
 0.825000   23.254844   -55.787149
 0.830000   22.976319   -55.585014
 0.835000   22.698994   -55.297390
 0.840000   22.423345   -54.904321
 0.845000   22.149951   -54.416372
 0.850000   21.879181   -53.853521
 0.855000   21.611416   -53.212031
 0.860000   21.347061   -52.490893
 0.865000   21.086507   -51.726412
 0.870000   20.829797   -50.859997
 0.875000   20.577907   -49.858485
 0.880000   20.331212   -48.817819
 0.885000   20.089729   -47.840983
 0.890000   19.852802   -47.113729
 0.895000   19.618591   -47.056718
 0.900000   19.382235   -48.099101
 0.905000   19.137600   -50.888269
 0.910000   18.873352   -56.569208
 0.915000   18.571908   -66.600084
 0.920000   18.207351   -82.827553
 0.925000   17.743633   -107.445403
 0.930000   17.132897   -141.972082
 0.935000   16.323912   -186.595018
 0.940000   15.266947   -239.187966
 0.945000   13.932032   -293.569921
 0.950000   12.331248   -339.607057
 0.955000   10.535962   -365.402724
 0.960000   8.677221   -362.792370
 0.965000   6.908038   -331.925861
 0.970000   5.357962   -281.141677
 0.975000   4.096621   -223.080293
 0.980000   3.127159   -168.869882
 0.985000   2.407922   -124.493695
 0.990000   1.882222   -91.189557
 0.995000   1.496027   -67.497307
 1.000000   1.207249   -48.013868
201 psinorm omeg(kRad/s) domeg/dpsiN
 0.000000   83.277994   0.008479
 0.005000   83.277624   -0.156601
 0.010000   83.276428   -0.334920
 0.015000   83.274275   -0.540314
 0.020000   83.271025   -0.773459
 0.025000   83.266540   -1.034070
 0.030000   83.260684   -1.320930
 0.035000   83.253331   -1.631875
 0.040000   83.244366   -1.961619
 0.045000   83.233715   -2.306594
 0.050000   83.221300   -2.664726
 0.055000   83.207067   -3.031468
 0.060000   83.190985   -3.403260
 0.065000   83.173035   -3.777737
 0.070000   83.153208   -4.149094
 0.075000   83.131544   -4.520711
 0.080000   83.108001   -4.898578
 0.085000   83.082558   -5.279657
 0.090000   83.055204   -5.664062
 0.095000   83.025917   -6.053706
 0.100000   82.994667   -6.447899
 0.105000   82.961438   -6.851649
 0.110000   82.926150   -7.273529
 0.115000   82.888703   -7.718837
 0.120000   82.848962   -8.195430
 0.125000   82.806749   -8.711229
 0.130000   82.761850   -9.277684
 0.135000   82.713972   -9.898733
 0.140000   82.662862   -10.566107
 0.145000   82.608311   -11.280466
 0.150000   82.550058   -12.047360
 0.155000   82.487837   -12.867145
 0.160000   82.421386   -13.748506
 0.165000   82.350352   -14.686749
 0.170000   82.274519   -15.653218
 0.175000   82.193820   -16.640437
 0.180000   82.108114   -17.652032
 0.185000   82.017300   -18.679088
 0.190000   81.921324   -19.710154
 0.195000   81.820198   -20.712731
 0.200000   81.714196   -21.652839
 0.205000   81.603670   -22.519304
 0.210000   81.489003   -23.301509
 0.215000   81.370655   -23.985674
 0.220000   81.249147   -24.541698
 0.225000   81.125238   -24.919745
 0.230000   80.999949   -25.180826
 0.235000   80.873430   -25.376522
 0.240000   80.746184   -25.475839
 0.245000   80.618671   -25.489570
 0.250000   80.491288   -25.416846
 0.255000   80.364503   -25.233856
 0.260000   80.238950   -25.067035
 0.265000   80.113832   -24.999245
 0.270000   79.988957   -24.983526
 0.275000   79.863997   -25.046480
 0.280000   79.738492   -25.214864
 0.285000   79.611848   -25.542180
 0.290000   79.483071   -26.045812
 0.295000   79.351390   -26.659643
 0.300000   79.216474   -27.326151
 0.305000   79.078129   -28.022729
 0.310000   78.936247   -28.739111
 0.315000   78.790738   -29.510071
 0.320000   78.641146   -30.295203
 0.325000   78.487786   -31.046456
 0.330000   78.330682   -31.789274
 0.335000   78.169893   -32.515674
 0.340000   78.005525   -33.216356
 0.345000   77.837729   -33.890678
 0.350000   77.666618   -34.504261
 0.355000   77.492687   -35.034627
 0.360000   77.316272   -35.497263
 0.365000   77.137714   -35.889304
 0.370000   76.957379   -36.206582
 0.375000   76.775648   -36.417957
 0.380000   76.593199   -36.528608
 0.385000   76.410362   -36.578352
 0.390000   76.227416   -36.568966
 0.395000   76.044673   -36.505513
 0.400000   75.862360   -36.412016
 0.405000   75.680552   -36.333325
 0.410000   75.499027   -36.418435
 0.415000   75.316368   -36.768649
 0.420000   75.131341   -37.346491
 0.425000   74.942903   -38.123113
 0.430000   74.750110   -39.076655
 0.435000   74.552137   -40.254514
 0.440000   74.347564   -41.636651
 0.445000   74.135770   -43.070409
 0.450000   73.916860   -44.519148
 0.455000   73.690579   -46.006030
 0.460000   73.456800   -47.503726
 0.465000   73.215541   -49.038738
 0.470000   72.966413   -50.561767
 0.475000   72.709924   -51.894814
 0.480000   72.447465   -52.999284
 0.485000   72.179931   -53.911595
 0.490000   71.908349   -54.620164
 0.495000   71.633729   -55.163189
 0.500000   71.356717   -55.656337
 0.505000   71.077166   -56.181901
 0.510000   70.794898   -56.750070
 0.515000   70.509665   -57.364966
 0.520000   70.221248   -58.020448
 0.525000   69.929461   -58.728321
 0.530000   69.633965   -59.520536
 0.535000   69.334255   -60.307168
 0.540000   69.030893   -61.026891
 0.545000   68.723986   -61.718598
 0.550000   68.413707   -62.369605
 0.555000   68.100290   -62.977361
 0.560000   67.783934   -63.562089
 0.565000   67.464669   -64.036471
 0.570000   67.143569   -64.354324
 0.575000   66.821126   -64.569985
 0.580000   66.497869   -64.677501
 0.585000   66.174351   -64.671960
 0.590000   65.851149   -64.535015
 0.595000   65.529001   -64.269823
 0.600000   65.208451   -63.910949
 0.605000   64.889892   -63.479463
 0.610000   64.573657   -62.987270
 0.615000   64.260019   -62.447065
 0.620000   63.949186   -61.821027
 0.625000   63.641809   -61.173474
 0.630000   63.337451   -60.581890
 0.635000   63.035990   -60.022542
 0.640000   62.737226   -59.516717
 0.645000   62.440823   -59.095303
 0.650000   62.146273   -58.807179
 0.655000   61.852751   -58.729990
 0.660000   61.558973   -58.875959
 0.665000   61.263991   -59.193077
 0.670000   60.967042   -59.624918
 0.675000   60.667742   -60.078785
 0.680000   60.366254   -60.396522
 0.685000   60.063777   -60.399773
 0.690000   59.762256   -60.114191
 0.695000   59.462635   -59.692556
 0.700000   59.165331   -59.227301
 0.705000   58.870362   -58.791755
 0.710000   58.577413   -58.406273
 0.715000   58.286299   -58.142331
 0.720000   57.995990   -58.076107
 0.725000   57.705538   -58.180834
 0.730000   57.414182   -58.441226
 0.735000   57.121126   -58.868372
 0.740000   56.825498   -59.549116
 0.745000   56.525635   -60.711760
 0.750000   56.218380   -62.496371
 0.755000   55.900671   -64.906525
 0.760000   55.569315   -67.909263
 0.765000   55.221578   -71.390428
 0.770000   54.855411   -75.369334
 0.775000   54.467885   -79.710111
 0.780000   54.058310   -83.839973
 0.785000   53.629485   -87.597098
 0.790000   53.182339   -91.125507
 0.795000   52.718230   -94.350106
 0.800000   52.238838   -97.304002
 0.805000   51.745190   -100.161707
 0.810000   51.237221   -102.939101
 0.815000   50.715799   -105.697723
 0.820000   50.180243   -108.560562
 0.825000   49.630193   -111.456066
 0.830000   49.065683   -114.378934
 0.835000   48.486404   -117.423748
 0.840000   47.891445   -120.377183
 0.845000   47.282632   -123.455049
 0.850000   46.656895   -127.315531
 0.855000   46.009477   -132.263489
 0.860000   45.334260   -138.655703
 0.865000   44.622920   -147.505161
 0.870000   43.859208   -158.191516
 0.875000   43.041005   -170.147267
 0.880000   42.157736   -184.463470
 0.885000   41.196370   -201.663096
 0.890000   40.141105   -222.305476
 0.895000   38.973315   -247.980090
 0.900000   37.661304   -277.465600
 0.905000   36.198659   -308.909277
 0.910000   34.572211   -342.034158
 0.915000   32.778318   -374.428213
 0.920000   30.827929   -402.741503
 0.925000   28.750903   -423.244378
 0.930000   26.595485   -430.360663
 0.935000   24.447296   -420.387460
 0.940000   22.391610   -393.696530
 0.945000   20.510331   -352.171810
 0.950000   18.869892   -299.999587
 0.955000   17.510335   -242.619936
 0.960000   16.443693   -187.162473
 0.965000   15.638710   -140.333174
 0.970000   15.040361   -105.920546
 0.975000   14.579505   -85.775798
 0.980000   14.182603   -79.840816
 0.985000   13.781097   -86.057808
 0.990000   13.322025   -101.360815
 0.995000   12.767488   -122.352486
 1.000000   12.098500   -145.242768
201 psinorm omegp(kRad/s) domegp/dpsiN
 0.000000   0.024446   129.260551
 0.005000   0.540321   77.089415
 0.010000   0.795340   47.439906
 0.015000   1.014720   42.982692
 0.020000   1.225167   41.311987
 0.025000   1.427840   39.983351
 0.030000   1.625000   38.979698
 0.035000   1.817637   38.145291
 0.040000   2.006453   37.392264
 0.045000   2.191559   36.748197
 0.050000   2.373935   36.259939
 0.055000   2.554159   35.907413
 0.060000   2.733009   35.671332
 0.065000   2.910872   35.423247
 0.070000   3.087242   34.946928
 0.075000   3.260341   34.248413
 0.080000   3.429726   33.330698
 0.085000   3.593648   31.967577
 0.090000   3.749402   30.273988
 0.095000   3.896388   28.600170
 0.100000   4.035403   27.072906
 0.105000   4.167117   25.678954
 0.110000   4.292193   24.478321
 0.115000   4.411900   23.494771
 0.120000   4.527141   22.786012
 0.125000   4.639760   22.299272
 0.130000   4.750133   21.969404
 0.135000   4.859455   21.723145
 0.140000   4.967365   21.327395
 0.145000   5.072728   20.742553
 0.150000   5.174790   19.915964
 0.155000   5.271888   18.741051
 0.160000   5.362201   17.446373
 0.165000   5.446352   15.978778
 0.170000   5.521989   14.428908
 0.175000   5.590641   12.734995
 0.180000   5.649339   10.889877
 0.185000   5.699540   9.111748
 0.190000   5.740456   7.283501
 0.195000   5.772375   5.653666
 0.200000   5.796993   4.064235
 0.205000   5.813017   2.591569
 0.210000   5.822908   1.197705
 0.215000   5.824994   -0.375399
 0.220000   5.819154   -2.094329
 0.225000   5.804051   -4.144335
 0.230000   5.777711   -6.396219
 0.235000   5.740089   -8.869071
 0.240000   5.689020   -11.609292
 0.245000   5.623996   -14.217367
 0.250000   5.546847   -16.744353
 0.255000   5.456552   -19.299410
 0.260000   5.353853   -21.497972
 0.265000   5.241572   -23.462659
 0.270000   5.119226   -25.319336
 0.275000   4.988379   -26.985308
 0.280000   4.849373   -28.667705
 0.285000   4.701702   -30.163419
 0.290000   4.547739   -31.520275
 0.295000   4.386499   -33.061358
 0.300000   4.217125   -34.638457
 0.305000   4.040115   -36.350948
 0.310000   3.853616   -38.322386
 0.315000   3.656891   -40.305209
 0.320000   3.450564   -42.283054
 0.325000   3.234060   -44.077955
 0.330000   3.009784   -45.543768
 0.335000   2.778623   -46.858488
 0.340000   2.541199   -48.111169
 0.345000   2.297511   -49.358244
 0.350000   2.047617   -50.666842
 0.355000   1.790843   -52.245021
 0.360000   1.525167   -54.039783
 0.365000   1.250445   -55.973327
 0.370000   0.965433   -58.127171
 0.375000   0.669173   -60.422501
 0.380000   0.361208   -62.902031
 0.385000   0.040153   -65.269275
 0.390000   -0.291484   -67.091675
 0.395000   -0.630764   -68.406067
 0.400000   -0.975545   -69.373953
 0.405000   -1.324504   -70.482612
 0.410000   -1.680371   -73.102462
 0.415000   -2.055528   -77.833604
 0.420000   -2.458707   -84.212751
 0.425000   -2.897656   -92.018538
 0.430000   -3.378893   -100.981022
 0.435000   -3.907466   -110.870066
 0.440000   -4.487593   -121.642099
 0.445000   -5.123887   -131.083542
 0.450000   -5.798429   -137.358790
 0.455000   -6.497475   -140.574917
 0.460000   -7.204178   -140.190266
 0.465000   -7.899378   -135.559054
 0.470000   -8.559768   -126.003618
 0.475000   -9.159414   -112.839101
 0.480000   -9.688159   -97.926451
 0.485000   -10.138678   -82.226464
 0.490000   -10.510424   -66.904948
 0.495000   -10.807728   -52.429205
 0.500000   -11.034716   -39.620512
 0.505000   -11.203933   -29.610665
 0.510000   -11.330823   -22.511292
 0.515000   -11.429046   -17.556744
 0.520000   -11.506390   -14.138487
 0.525000   -11.570431   -12.081154
 0.530000   -11.627202   -10.646013
 0.535000   -11.676891   -8.652149
 0.540000   -11.713723   -5.686141
 0.545000   -11.733752   -1.844084
 0.550000   -11.732164   3.075220
 0.555000   -11.703000   9.199133
 0.560000   -11.640173   16.247866
 0.565000   -11.540521   23.552992
 0.570000   -11.404643   30.701280
 0.575000   -11.233508   37.257429
 0.580000   -11.032069   42.584967
 0.585000   -10.807659   46.019947
 0.590000   -10.571869   47.594135
 0.595000   -10.331717   47.676781
 0.600000   -10.095101   46.362048
 0.605000   -9.868097   44.101121
 0.610000   -9.654090   41.260530
 0.615000   -9.455492   37.923686
 0.620000   -9.274853   34.979260
 0.625000   -9.105699   32.965778
 0.630000   -8.945195   31.456446
 0.635000   -8.791135   30.281845
 0.640000   -8.642377   29.314162
 0.645000   -8.497993   28.413774
 0.650000   -8.358239   27.395588
 0.655000   -8.224037   26.216128
 0.660000   -8.096078   24.959011
 0.665000   -7.974447   23.635633
 0.670000   -7.859722   22.198277
 0.675000   -7.752464   20.679216
 0.680000   -7.652930   19.086033
 0.685000   -7.561604   17.450383
 0.690000   -7.478426   15.738920
 0.695000   -7.404215   13.919414
 0.700000   -7.339232   12.057633
 0.705000   -7.283638   10.102870
 0.710000   -7.238203   8.020302
 0.715000   -7.203435   5.853801
 0.720000   -7.179665   3.646372
 0.725000   -7.166972   1.364296
 0.730000   -7.166022   -0.941484
 0.735000   -7.176386   -3.245321
 0.740000   -7.198475   -5.524289
 0.745000   -7.231629   -7.742130
 0.750000   -7.275896   -9.939269
 0.755000   -7.331022   -12.021910
 0.760000   -7.396115   -14.048894
 0.765000   -7.471511   -16.322736
 0.770000   -7.559343   -19.135542
 0.775000   -7.662866   -22.655027
 0.780000   -7.785893   -27.023463
 0.785000   -7.933101   -32.409591
 0.790000   -8.109989   -39.295745
 0.795000   -8.326058   -47.036061
 0.800000   -8.580350   -54.737404
 0.805000   -8.873433   -62.409796
 0.810000   -9.204448   -69.488906
 0.815000   -9.568322   -75.356548
 0.820000   -9.958013   -79.536663
 0.825000   -10.363688   -81.411005
 0.830000   -10.772123   -80.692600
 0.835000   -11.170614   -77.637816
 0.840000   -11.548501   -72.663881
 0.845000   -11.897253   -66.234600
 0.850000   -12.210847   -58.404361
 0.855000   -12.481297   -50.218150
 0.860000   -12.713029   -42.882481
 0.865000   -12.910121   -36.524507
 0.870000   -13.078274   -31.007192
 0.875000   -13.220193   -26.251979
 0.880000   -13.340794   -22.554227
 0.885000   -13.445736   -19.542587
 0.890000   -13.536219   -16.330589
 0.895000   -13.609042   -12.581966
 0.900000   -13.662039   -7.985502
 0.905000   -13.688897   -2.035861
 0.910000   -13.682398   5.021028
 0.915000   -13.638686   13.602942
 0.920000   -13.546368   27.121685
 0.925000   -13.367469   46.230642
 0.930000   -13.084062   65.611261
 0.935000   -12.711357   86.086100
 0.940000   -12.223201   112.972713
 0.945000   -11.581630   141.224794
 0.950000   -10.810953   156.816317
 0.955000   -10.013466   146.319671
 0.960000   -9.347756   96.401659
 0.965000   -9.049450   0.519017
 0.970000   -9.342566   -114.480155
 0.975000   -10.194251   -175.414009
 0.980000   -11.096706   -89.033693
 0.985000   -11.084588   189.188490
 0.990000   -9.204821   599.390734
 0.995000   -5.090681   953.072073
 1.000000   0.325899   1213.560110
201 psinorm omgvb(kRad/s) domgvb/dpsiN
 0.000000   83.302440   129.269030
 0.005000   83.817945   76.932814
 0.010000   84.071768   47.104986
 0.015000   84.288994   42.442379
 0.020000   84.496192   40.538528
 0.025000   84.694380   38.949281
 0.030000   84.885685   37.658768
 0.035000   85.070967   36.513415
 0.040000   85.250819   35.430645
 0.045000   85.425274   34.441603
 0.050000   85.595235   33.595214
 0.055000   85.761226   32.875945
 0.060000   85.923994   32.268072
 0.065000   86.083907   31.645510
 0.070000   86.240449   30.797833
 0.075000   86.391885   29.727701
 0.080000   86.537727   28.432120
 0.085000   86.676206   26.687920
 0.090000   86.804606   24.609926
 0.095000   86.922306   22.546464
 0.100000   87.030070   20.625007
 0.105000   87.128556   18.827305
 0.110000   87.218343   17.204792
 0.115000   87.300604   15.775934
 0.120000   87.376103   14.590582
 0.125000   87.446509   13.588043
 0.130000   87.511983   12.691720
 0.135000   87.573427   11.824412
 0.140000   87.630227   10.761288
 0.145000   87.681039   9.462087
 0.150000   87.724848   7.868603
 0.155000   87.759725   5.873905
 0.160000   87.783587   3.697867
 0.165000   87.796704   1.292029
 0.170000   87.796508   -1.224310
 0.175000   87.784461   -3.905442
 0.180000   87.757453   -6.762154
 0.185000   87.716840   -9.567341
 0.190000   87.661780   -12.426653
 0.195000   87.592573   -15.059066
 0.200000   87.511189   -17.588604
 0.205000   87.416687   -19.927735
 0.210000   87.311912   -22.103804
 0.215000   87.195649   -24.361072
 0.220000   87.068301   -26.636027
 0.225000   86.929289   -29.064079
 0.230000   86.777660   -31.577045
 0.235000   86.613518   -34.245593
 0.240000   86.435204   -37.085131
 0.245000   86.242667   -39.706937
 0.250000   86.038135   -42.161199
 0.255000   85.821055   -44.533266
 0.260000   85.592802   -46.565007
 0.265000   85.355405   -48.461903
 0.270000   85.108183   -50.302862
 0.275000   84.852376   -52.031787
 0.280000   84.587865   -53.882570
 0.285000   84.313550   -55.705599
 0.290000   84.030809   -57.566087
 0.295000   83.737890   -59.721001
 0.300000   83.433599   -61.964607
 0.305000   83.118244   -64.373677
 0.310000   82.789863   -67.061497
 0.315000   82.447629   -69.815280
 0.320000   82.091710   -72.578257
 0.325000   81.721846   -75.124411
 0.330000   81.340466   -77.333042
 0.335000   80.948516   -79.374162
 0.340000   80.546724   -81.327525
 0.345000   80.135240   -83.248922
 0.350000   79.714235   -85.171103
 0.355000   79.283529   -87.279647
 0.360000   78.841438   -89.537046
 0.365000   78.388159   -91.862631
 0.370000   77.922812   -94.333753
 0.375000   77.444821   -96.840458
 0.380000   76.954407   -99.430639
 0.385000   76.450515   -101.847627
 0.390000   75.935931   -103.660641
 0.395000   75.413909   -104.911580
 0.400000   74.886815   -105.785969
 0.405000   74.356049   -106.815937
 0.410000   73.818656   -109.520898
 0.415000   73.260840   -114.602253
 0.420000   72.672633   -121.559242
 0.425000   72.045247   -130.141651
 0.430000   71.371217   -140.057677
 0.435000   70.644671   -151.124580
 0.440000   69.859971   -163.278750
 0.445000   69.011883   -174.153951
 0.450000   68.118432   -181.877938
 0.455000   67.193104   -186.580947
 0.460000   66.252622   -187.693991
 0.465000   65.316164   -184.597792
 0.470000   64.406644   -176.565385
 0.475000   63.550510   -164.733915
 0.480000   62.759305   -150.925735
 0.485000   62.041253   -136.138060
 0.490000   61.397924   -121.525112
 0.495000   60.826002   -107.592394
 0.500000   60.322001   -95.276848
 0.505000   59.873233   -85.792567
 0.510000   59.464075   -79.261362
 0.515000   59.080619   -74.921710
 0.520000   58.714858   -72.158935
 0.525000   58.359030   -70.809475
 0.530000   58.006763   -70.166549
 0.535000   57.657365   -68.959318
 0.540000   57.317170   -66.713032
 0.545000   56.990234   -63.562681
 0.550000   56.681543   -59.294385
 0.555000   56.397290   -53.778228
 0.560000   56.143761   -47.314222
 0.565000   55.924148   -40.483479
 0.570000   55.738926   -33.653044
 0.575000   55.587618   -27.312556
 0.580000   55.465800   -22.092534
 0.585000   55.366692   -18.652013
 0.590000   55.279280   -16.940880
 0.595000   55.197284   -16.593042
 0.600000   55.113350   -17.548901
 0.605000   55.021795   -19.378342
 0.610000   54.919566   -21.726739
 0.615000   54.804527   -24.523378
 0.620000   54.674333   -26.841767
 0.625000   54.536110   -28.207697
 0.630000   54.392256   -29.125444
 0.635000   54.244855   -29.740697
 0.640000   54.094849   -30.202555
 0.645000   53.942830   -30.681529
 0.650000   53.788033   -31.411591
 0.655000   53.628714   -32.513863
 0.660000   53.462895   -33.916947
 0.665000   53.289544   -35.557444
 0.670000   53.107320   -37.426642
 0.675000   52.915278   -39.399569
 0.680000   52.713325   -41.310489
 0.685000   52.502173   -42.949390
 0.690000   52.283831   -44.375271
 0.695000   52.058420   -45.773143
 0.700000   51.826099   -47.169668
 0.705000   51.586723   -48.688884
 0.710000   51.339211   -50.385970
 0.715000   51.082864   -52.288530
 0.720000   50.816325   -54.429736
 0.725000   50.538566   -56.816538
 0.730000   50.248160   -59.382709
 0.735000   49.944739   -62.113692
 0.740000   49.627023   -65.073405
 0.745000   49.294005   -68.453890
 0.750000   48.942484   -72.435640
 0.755000   48.569649   -76.928435
 0.760000   48.173200   -81.958157
 0.765000   47.750067   -87.713164
 0.770000   47.296068   -94.504876
 0.775000   46.805019   -102.365138
 0.780000   46.272417   -110.863436
 0.785000   45.696384   -120.006690
 0.790000   45.072350   -130.421252
 0.795000   44.392172   -141.386167
 0.800000   43.658488   -152.041406
 0.805000   42.871758   -162.571503
 0.810000   42.032773   -172.428007
 0.815000   41.147478   -181.054271
 0.820000   40.222230   -188.097225
 0.825000   39.266505   -192.867071
 0.830000   38.293560   -195.071534
 0.835000   37.315790   -195.061564
 0.840000   36.342944   -193.041064
 0.845000   35.385379   -189.689649
 0.850000   34.446047   -185.719892
 0.855000   33.528180   -182.481639
 0.860000   32.621231   -181.538184
 0.865000   31.712799   -184.029668
 0.870000   30.780934   -189.198708
 0.875000   29.820811   -196.399246
 0.880000   28.816942   -207.017697
 0.885000   27.750634   -221.205683
 0.890000   26.604885   -238.636064
 0.895000   25.364274   -260.562056
 0.900000   23.999265   -285.451102
 0.905000   22.509763   -310.945138
 0.910000   20.889813   -337.013130
 0.915000   19.139632   -360.825271
 0.920000   17.281560   -375.619819
 0.925000   15.383433   -377.013736
 0.930000   13.511423   -364.749402
 0.935000   11.735939   -334.301360
 0.940000   10.168410   -280.723817
 0.945000   8.928701   -210.947017
 0.950000   8.058939   -143.183270
 0.955000   7.496868   -96.300265
 0.960000   7.095937   -90.760813
 0.965000   6.589260   -139.814157
 0.970000   5.697795   -220.400701
 0.975000   4.385253   -261.189807
 0.980000   3.085897   -168.874508
 0.985000   2.696508   103.130681
 0.990000   4.117204   498.029920
 0.995000   7.676807   830.719587
 1.000000   12.424400   1068.317342
201 psinorm omgpp(kRad/s) domgpp/dpsiN
 0.000000   -0.025962   -12.757641
 0.005000   -0.106867   -19.604301
 0.010000   -0.222005   -23.889643
 0.015000   -0.345763   -25.556656
 0.020000   -0.477572   -27.062112
 0.025000   -0.616385   -28.316047
 0.030000   -0.760732   -29.318886
 0.035000   -0.909573   -30.046949
 0.040000   -1.061202   -30.437339
 0.045000   -1.213947   -30.492248
 0.050000   -1.366124   -30.110224
 0.055000   -1.515049   -29.281369
 0.060000   -1.658938   -28.533334
 0.065000   -1.800382   -27.822865
 0.070000   -1.937166   -26.854558
 0.075000   -2.068928   -25.832053
 0.080000   -2.195487   -24.708437
 0.085000   -2.316012   -23.518700
 0.090000   -2.430674   -22.816479
 0.095000   -2.544177   -22.285450
 0.100000   -2.653528   -21.436612
 0.105000   -2.758543   -20.546337
 0.110000   -2.858992   -19.591460
 0.115000   -2.954458   -18.553194
 0.120000   -3.044524   -17.671679
 0.125000   -3.131175   -16.739104
 0.130000   -3.211915   -15.517995
 0.135000   -3.286355   -14.236373
 0.140000   -3.354279   -12.926951
 0.145000   -3.415624   -11.448334
 0.150000   -3.468762   -10.140830
 0.155000   -3.517032   -8.968302
 0.160000   -3.558445   -7.598278
 0.165000   -3.593015   -6.243275
 0.170000   -3.620878   -4.927578
 0.175000   -3.642291   -3.476750
 0.180000   -3.655645   -2.338090
 0.185000   -3.665672   -1.535418
 0.190000   -3.670999   -0.658665
 0.195000   -3.672258   0.071532
 0.200000   -3.670284   0.631413
 0.205000   -3.665944   0.878333
 0.210000   -3.661501   0.929717
 0.215000   -3.656647   1.076387
 0.220000   -3.650737   1.274203
 0.225000   -3.643905   1.470605
 0.230000   -3.636031   1.703265
 0.235000   -3.626872   1.583504
 0.240000   -3.620196   1.861909
 0.245000   -3.608253   2.980959
 0.250000   -3.590386   4.088276
 0.255000   -3.567371   5.176285
 0.260000   -3.538623   6.370862
 0.265000   -3.503662   7.522517
 0.270000   -3.463398   9.000034
 0.275000   -3.413662   10.797687
 0.280000   -3.355421   12.364974
 0.285000   -3.290012   13.780917
 0.290000   -3.217612   15.151641
 0.295000   -3.138496   16.665606
 0.300000   -3.050956   18.030183
 0.305000   -2.958194   18.507368
 0.310000   -2.865882   18.421675
 0.315000   -2.773977   18.252587
 0.320000   -2.683357   17.941090
 0.325000   -2.594566   17.591553
 0.330000   -2.507441   17.118732
 0.335000   -2.423379   16.487588
 0.340000   -2.342565   15.942892
 0.345000   -2.263950   15.506479
 0.350000   -2.187500   15.072812
 0.355000   -2.113222   14.556965
 0.360000   -2.041931   13.846929
 0.365000   -1.974752   13.360254
 0.370000   -1.908328   13.241601
 0.375000   -1.842336   13.246832
 0.380000   -1.775860   13.394407
 0.385000   -1.708392   13.602363
 0.390000   -1.639836   13.901322
 0.395000   -1.569379   14.037729
 0.400000   -1.499459   13.759878
 0.405000   -1.431780   13.190402
 0.410000   -1.367555   12.410555
 0.415000   -1.307675   11.508097
 0.420000   -1.252474   10.675977
 0.425000   -1.200915   9.753778
 0.430000   -1.154936   8.784463
 0.435000   -1.113070   7.963619
 0.440000   -1.075300   7.143201
 0.445000   -1.041638   6.319397
 0.450000   -1.012106   5.618094
 0.455000   -0.985457   4.709335
 0.460000   -0.965013   3.566700
 0.465000   -0.949790   2.468236
 0.470000   -0.940330   1.283835
 0.475000   -0.936952   0.059850
 0.480000   -0.939732   -1.141977
 0.485000   -0.948372   -2.067900
 0.490000   -0.960411   -2.754766
 0.495000   -0.975919   -3.468018
 0.500000   -0.995091   -4.198596
 0.505000   -1.017905   -4.912909
 0.510000   -1.044220   -5.540846
 0.515000   -1.073314   -6.107094
 0.520000   -1.105291   -6.665431
 0.525000   -1.139968   -7.182692
 0.530000   -1.177118   -7.664295
 0.535000   -1.216611   -8.124760
 0.540000   -1.258365   -8.507051
 0.545000   -1.301682   -8.944292
 0.550000   -1.347808   -9.507505
 0.555000   -1.396757   -10.051605
 0.560000   -1.448324   -10.577463
 0.565000   -1.502531   -11.097675
 0.570000   -1.559301   -11.582786
 0.575000   -1.618359   -12.055897
 0.580000   -1.679860   -12.533401
 0.585000   -1.743693   -12.996398
 0.590000   -1.809824   -13.447173
 0.595000   -1.878165   -13.874017
 0.600000   -1.948564   -14.375224
 0.605000   -2.021917   -14.907003
 0.610000   -2.097634   -15.183737
 0.615000   -2.173755   -15.316220
 0.620000   -2.250797   -15.462141
 0.625000   -2.328376   -15.530567
 0.630000   -2.406102   -15.653234
 0.635000   -2.484908   -15.740140
 0.640000   -2.563504   -15.364339
 0.645000   -2.638552   -14.819744
 0.650000   -2.711701   -14.444727
 0.655000   -2.782999   -14.178035
 0.660000   -2.853481   -14.514745
 0.665000   -2.928146   -16.462007
 0.670000   -3.018101   -18.754968
 0.675000   -3.115696   -20.466596
 0.680000   -3.222767   -22.252264
 0.685000   -3.338219   -23.762826
 0.690000   -3.460396   -25.225941
 0.695000   -3.590478   -27.175793
 0.700000   -3.732154   -26.453002
 0.705000   -3.855008   -23.672425
 0.710000   -3.968878   -21.494957
 0.715000   -4.069958   -18.531053
 0.720000   -4.154188   -14.804570
 0.725000   -4.218003   -10.086940
 0.730000   -4.255058   -3.872484
 0.735000   -4.256728   2.450903
 0.740000   -4.230549   7.862757
 0.745000   -4.178101   12.841566
 0.750000   -4.102133   17.148518
 0.755000   -4.006616   22.072403
 0.760000   -3.881409   24.431189
 0.765000   -3.762304   24.017602
 0.770000   -3.641233   24.049700
 0.775000   -3.521807   23.388214
 0.780000   -3.407351   22.113408
 0.785000   -3.300673   20.646172
 0.790000   -3.200889   17.978581
 0.795000   -3.120887   14.958038
 0.800000   -3.051309   13.273329
 0.805000   -2.988153   12.299006
 0.810000   -2.928319   11.895820
 0.815000   -2.869195   11.782894
 0.820000   -2.810490   11.814130
 0.825000   -2.751054   11.762795
 0.830000   -2.692862   11.393512
 0.835000   -2.637119   10.739762
 0.840000   -2.585464   9.687870
 0.845000   -2.540240   7.618505
 0.850000   -2.509279   4.414013
 0.855000   -2.496100   1.036459
 0.860000   -2.498915   -2.380917
 0.865000   -2.519909   -6.097570
 0.870000   -2.559890   -9.954098
 0.875000   -2.619450   -15.166429
 0.880000   -2.711555   -20.422887
 0.885000   -2.823679   -23.789606
 0.890000   -2.949451   -27.989693
 0.895000   -3.103576   -34.294803
 0.900000   -3.292399   -41.975440
 0.905000   -3.523330   -53.494718
 0.910000   -3.827346   -69.120904
 0.915000   -4.214539   -84.926241
 0.920000   -4.676608   -104.911466
 0.925000   -5.263654   -134.235835
 0.930000   -6.018967   -174.169917
 0.935000   -7.005353   -234.826167
 0.940000   -8.367228   -323.304246
 0.945000   -10.238396   -419.569051
 0.950000   -12.562919   -522.296863
 0.955000   -15.461364   -632.931885
 0.960000   -18.892238   -719.355911
 0.965000   -22.654923   -753.881000
 0.970000   -26.431048   -697.401014
 0.975000   -29.628934   -491.118035
 0.980000   -31.342228   -187.220902
 0.985000   -31.501143   121.818561
 0.990000   -30.124042   402.042456
 0.995000   -27.480718   605.905529
 1.000000   -24.064987   760.386827
201 psinorm omgeb(kRad/s) domgeb/dpsiN
 0.000000   83.276478   116.511388
 0.005000   83.711078   57.328513
 0.010000   83.849763   23.215343
 0.015000   83.943231   16.885723
 0.020000   84.018620   13.476416
 0.025000   84.077995   10.633233
 0.030000   84.124953   8.339883
 0.035000   84.161394   6.466467
 0.040000   84.189617   4.993306
 0.045000   84.211327   3.949355
 0.050000   84.229111   3.484989
 0.055000   84.246177   3.594576
 0.060000   84.265057   3.734738
 0.065000   84.283524   3.822645
 0.070000   84.303283   3.943276
 0.075000   84.322957   3.895648
 0.080000   84.342240   3.723683
 0.085000   84.360194   3.169220
 0.090000   84.373932   1.793447
 0.095000   84.378128   0.261014
 0.100000   84.376542   -0.811605
 0.105000   84.370012   -1.719032
 0.110000   84.359352   -2.386669
 0.115000   84.346146   -2.777260
 0.120000   84.331579   -3.081097
 0.125000   84.315335   -3.151061
 0.130000   84.300068   -2.826275
 0.135000   84.287072   -2.411962
 0.140000   84.275949   -2.165663
 0.145000   84.265415   -1.986247
 0.150000   84.256086   -2.272226
 0.155000   84.242693   -3.094397
 0.160000   84.225142   -3.900411
 0.165000   84.203689   -4.951246
 0.170000   84.175630   -6.151888
 0.175000   84.142170   -7.382192
 0.180000   84.101808   -9.100245
 0.185000   84.051168   -11.102759
 0.190000   83.990780   -13.085318
 0.195000   83.920315   -14.987534
 0.200000   83.840905   -16.957192
 0.205000   83.750743   -19.049402
 0.210000   83.650411   -21.174087
 0.215000   83.539002   -23.284686
 0.220000   83.417564   -25.361824
 0.225000   83.285383   -27.593475
 0.230000   83.141629   -29.873779
 0.235000   82.986646   -32.662089
 0.240000   82.815008   -35.223222
 0.245000   82.634413   -36.725978
 0.250000   82.447749   -38.072923
 0.255000   82.253684   -39.356980
 0.260000   82.054179   -40.194145
 0.265000   81.851743   -40.939387
 0.270000   81.644785   -41.302827
 0.275000   81.438715   -41.234101
 0.280000   81.232444   -41.517595
 0.285000   81.023539   -41.924683
 0.290000   80.813197   -42.414446
 0.295000   80.599394   -43.055395
 0.300000   80.382643   -43.934424
 0.305000   80.160050   -45.866308
 0.310000   79.923980   -48.639822
 0.315000   79.673652   -51.562693
 0.320000   79.408353   -54.637167
 0.325000   79.127280   -57.532858
 0.330000   78.833025   -60.214310
 0.335000   78.525137   -62.886574
 0.340000   78.204159   -65.384634
 0.345000   77.871291   -67.742443
 0.350000   77.526734   -70.098291
 0.355000   77.170308   -72.722682
 0.360000   76.799508   -75.690117
 0.365000   76.413406   -78.502378
 0.370000   76.014484   -81.092152
 0.375000   75.602485   -83.593627
 0.380000   75.178548   -86.036233
 0.385000   74.742123   -88.245264
 0.390000   74.296095   -89.759320
 0.395000   73.844529   -90.873851
 0.400000   73.387356   -92.026090
 0.405000   72.924269   -93.625535
 0.410000   72.451101   -97.110343
 0.415000   71.953165   -103.094155
 0.420000   71.420160   -110.883265
 0.425000   70.844332   -120.387872
 0.430000   70.216281   -131.273214
 0.435000   69.531600   -143.160961
 0.440000   68.784671   -156.135549
 0.445000   67.970245   -167.834554
 0.450000   67.106326   -176.259844
 0.455000   66.207646   -181.871612
 0.460000   65.287610   -184.127292
 0.465000   64.366373   -182.129556
 0.470000   63.466314   -175.281550
 0.475000   62.613558   -164.674065
 0.480000   61.819573   -152.067712
 0.485000   61.092881   -138.205960
 0.490000   60.437514   -124.279878
 0.495000   59.850082   -111.060412
 0.500000   59.326910   -99.475444
 0.505000   58.855328   -90.705476
 0.510000   58.419855   -84.802208
 0.515000   58.007306   -81.028804
 0.520000   57.609567   -78.824366
 0.525000   57.219062   -77.992167
 0.530000   56.829645   -77.830844
 0.535000   56.440753   -77.084078
 0.540000   56.058804   -75.220083
 0.545000   55.688553   -72.506973
 0.550000   55.333735   -68.801890
 0.555000   55.000534   -63.829833
 0.560000   54.695436   -57.891686
 0.565000   54.421617   -51.581154
 0.570000   54.179625   -45.235830
 0.575000   53.969259   -39.368453
 0.580000   53.785940   -34.625935
 0.585000   53.622999   -31.648411
 0.590000   53.469456   -30.388053
 0.595000   53.319119   -30.467059
 0.600000   53.164786   -31.924126
 0.605000   52.999877   -34.285344
 0.610000   52.821932   -36.910477
 0.615000   52.630773   -39.839599
 0.620000   52.423536   -42.303908
 0.625000   52.207734   -43.738264
 0.630000   51.986153   -44.778678
 0.635000   51.759947   -45.480837
 0.640000   51.531345   -45.566893
 0.645000   51.304278   -45.501274
 0.650000   51.076332   -45.856318
 0.655000   50.845715   -46.691898
 0.660000   50.609413   -48.431692
 0.665000   50.361398   -52.019451
 0.670000   50.089219   -56.181610
 0.675000   49.799582   -59.866165
 0.680000   49.490557   -63.562753
 0.685000   49.163954   -66.712216
 0.690000   48.823435   -69.601212
 0.695000   48.467942   -72.948935
 0.700000   48.093946   -73.622670
 0.705000   47.731715   -72.361310
 0.710000   47.370333   -71.880928
 0.715000   47.012906   -70.819583
 0.720000   46.662137   -69.234305
 0.725000   46.320563   -66.903478
 0.730000   45.993102   -63.255194
 0.735000   45.688011   -59.662789
 0.740000   45.396474   -57.210648
 0.745000   45.115905   -55.612323
 0.750000   44.840351   -55.287122
 0.755000   44.563033   -54.856033
 0.760000   44.291791   -57.526968
 0.765000   43.987764   -63.695562
 0.770000   43.654835   -70.455176
 0.775000   43.283212   -78.976924
 0.780000   42.865066   -88.750028
 0.785000   42.395712   -99.360518
 0.790000   41.871461   -112.442672
 0.795000   41.271285   -126.428128
 0.800000   40.607179   -138.768077
 0.805000   39.883604   -150.272497
 0.810000   39.104454   -160.532187
 0.815000   38.278282   -169.271377
 0.820000   37.411741   -176.283095
 0.825000   36.515451   -181.104276
 0.830000   35.600698   -183.678022
 0.835000   34.678671   -184.321802
 0.840000   33.757480   -183.353193
 0.845000   32.845139   -182.071144
 0.850000   31.936768   -181.305879
 0.855000   31.032080   -181.445180
 0.860000   30.122317   -183.919100
 0.865000   29.192889   -190.127238
 0.870000   28.221044   -199.152805
 0.875000   27.201361   -211.565675
 0.880000   26.105387   -227.440584
 0.885000   24.926955   -244.995289
 0.890000   23.655434   -266.625757
 0.895000   22.260698   -294.856859
 0.900000   20.706866   -327.426542
 0.905000   18.986432   -364.439857
 0.910000   17.062467   -406.134034
 0.915000   14.925092   -445.751512
 0.920000   12.604952   -480.531284
 0.925000   10.119779   -511.249571
 0.930000   7.492456   -538.919319
 0.935000   4.730586   -569.127527
 0.940000   1.801181   -604.028063
 0.945000   -1.309695   -630.516068
 0.950000   -4.503979   -665.480134
 0.955000   -7.964496   -729.232150
 0.960000   -11.796301   -810.116724
 0.965000   -16.065663   -893.695156
 0.970000   -20.733253   -917.801714
 0.975000   -25.243680   -752.307842
 0.980000   -28.256331   -356.095410
 0.985000   -28.804634   224.949242
 0.990000   -26.006839   900.072375
 0.995000   -19.803911   1436.625116
 1.000000   -11.640587   1828.704170
201 psinorm er(kV/m) der/dpsiN
 0.000000   1.033981   1419.228414
 0.005000   6.729251   858.879596
 0.010000   9.622777   511.909180
 0.015000   11.848343   410.126861
 0.020000   13.724046   353.982628
 0.025000   15.388169   316.669183
 0.030000   16.890738   287.975305
 0.035000   18.267922   265.503431
 0.040000   19.545772   247.636788
 0.045000   20.744290   233.091873
 0.050000   21.876691   220.993229
 0.055000   22.954222   211.661571
 0.060000   23.993306   202.223273
 0.065000   24.976455   192.322747
 0.070000   25.916534   185.922581
 0.075000   26.835681   180.311246
 0.080000   27.719646   172.345013
 0.085000   28.559131   167.697894
 0.090000   29.396625   162.514604
 0.095000   30.184277   155.626185
 0.100000   30.952887   152.304892
 0.105000   31.707326   146.277580
 0.110000   32.415663   143.063796
 0.115000   33.137964   138.622808
 0.120000   33.801891   135.209971
 0.125000   34.490064   131.733762
 0.130000   35.119228   128.760779
 0.135000   35.777672   125.630076
 0.140000   36.375529   123.048470
 0.145000   37.008156   120.122369
 0.150000   37.576753   116.926687
 0.155000   38.177423   115.111012
 0.160000   38.727863   110.964578
 0.165000   39.287069   109.697502
 0.170000   39.824838   105.064575
 0.175000   40.337715   103.551707
 0.180000   40.860355   99.138985
 0.185000   41.329104   96.661569
 0.190000   41.826971   93.785685
 0.195000   42.266961   89.351386
 0.200000   42.720485   89.033216
 0.205000   43.157293   83.332728
 0.210000   43.553812   81.566372
 0.215000   43.972957   78.085520
 0.220000   44.334667   73.721536
 0.225000   44.710173   73.823998
 0.230000   45.072907   67.775700
 0.235000   45.387930   65.013901
 0.240000   45.723046   63.298533
 0.245000   46.020915   58.155469
 0.250000   46.304601   58.018262
 0.255000   46.601098   53.985617
 0.260000   46.844457   50.613022
 0.265000   47.107228   52.122962
 0.270000   47.365687   47.070656
 0.275000   47.577934   45.246028
 0.280000   47.818147   46.638977
 0.285000   48.044324   41.728514
 0.290000   48.235432   40.236167
 0.295000   48.446686   40.559174
 0.300000   48.641024   35.873193
 0.305000   48.805418   33.818674
 0.310000   48.979211   32.366939
 0.315000   49.129087   26.775033
 0.320000   49.246961   24.017668
 0.325000   49.369264   22.287202
 0.330000   49.469833   17.074199
 0.335000   49.540006   14.398402
 0.340000   49.613817   12.928149
 0.345000   49.669287   8.109351
 0.350000   49.694910   5.384577
 0.355000   49.723133   3.960925
 0.360000   49.734520   -1.071069
 0.365000   49.712422   -4.386041
 0.370000   49.690659   -5.637147
 0.375000   49.656051   -10.176222
 0.380000   49.588897   -13.544984
 0.385000   49.520601   -14.553777
 0.390000   49.443359   -17.920659
 0.395000   49.341394   -20.658282
 0.400000   49.236776   -21.438721
 0.405000   49.127007   -23.871745
 0.410000   48.998059   -28.395591
 0.415000   48.843051   -33.245568
 0.420000   48.665603   -39.048992
 0.425000   48.452561   -47.750754
 0.430000   48.188096   -56.624664
 0.435000   47.886315   -65.018414
 0.440000   47.537912   -76.036808
 0.445000   47.125947   -85.903547
 0.450000   46.678876   -92.211104
 0.455000   46.203836   -97.572334
 0.460000   45.703153   -101.127409
 0.465000   45.192562   -100.776425
 0.470000   44.695389   -96.638489
 0.475000   44.226177   -90.999249
 0.480000   43.785396   -83.387739
 0.485000   43.392299   -73.797738
 0.490000   43.047419   -65.210358
 0.495000   42.740196   -57.082845
 0.500000   42.476590   -49.096685
 0.505000   42.249229   -43.281751
 0.510000   42.043773   -40.360631
 0.515000   41.845623   -38.347671
 0.520000   41.660296   -36.649684
 0.525000   41.479126   -37.161117
 0.530000   41.288685   -37.954912
 0.535000   41.099577   -37.354617
 0.540000   40.915139   -36.415676
 0.545000   40.735420   -35.567470
 0.550000   40.559464   -33.293439
 0.555000   40.402485   -29.399865
 0.560000   40.265465   -26.009363
 0.565000   40.142392   -22.067014
 0.570000   40.044795   -17.096618
 0.575000   39.971426   -12.940286
 0.580000   39.915392   -10.420672
 0.585000   39.867219   -8.397695
 0.590000   39.831415   -6.934661
 0.595000   39.797872   -7.739081
 0.600000   39.754025   -9.481495
 0.605000   39.703057   -10.872086
 0.610000   39.645304   -12.624742
 0.615000   39.576810   -16.031412
 0.620000   39.484990   -18.115732
 0.625000   39.395653   -18.330524
 0.630000   39.301684   -19.673594
 0.635000   39.198917   -21.149791
 0.640000   39.090186   -20.958940
 0.645000   38.989327   -20.270334
 0.650000   38.887483   -21.635458
 0.655000   38.772973   -22.821213
 0.660000   38.659271   -23.325832
 0.665000   38.539714   -25.872699
 0.670000   38.400544   -30.604493
 0.675000   38.233669   -33.551227
 0.680000   38.065032   -35.130556
 0.685000   37.882364   -38.219947
 0.690000   37.682832   -41.768240
 0.695000   37.464681   -44.000984
 0.700000   37.242822   -43.510992
 0.705000   37.029572   -43.801638
 0.710000   36.804806   -44.433006
 0.715000   36.585241   -42.671913
 0.720000   36.378087   -40.776112
 0.725000   36.177480   -40.847450
 0.730000   35.969612   -38.561770
 0.735000   35.791863   -34.215143
 0.740000   35.627461   -32.194117
 0.745000   35.469921   -33.063578
 0.750000   35.296825   -32.950513
 0.755000   35.140416   -30.895116
 0.760000   34.987874   -33.627311
 0.765000   34.804143   -40.165506
 0.770000   34.586219   -45.422441
 0.775000   34.349919   -51.068257
 0.780000   34.075536   -59.702353
 0.785000   33.752895   -69.530450
 0.790000   33.380232   -79.838316
 0.795000   32.954512   -90.408030
 0.800000   32.476152   -101.352734
 0.805000   31.940985   -111.845741
 0.810000   31.357694   -120.009583
 0.815000   30.740889   -126.798066
 0.820000   30.089714   -133.677724
 0.825000   29.404112   -138.750742
 0.830000   28.702206   -140.784385
 0.835000   27.996268   -141.311033
 0.840000   27.289096   -141.786113
 0.845000   26.578407   -141.829543
 0.850000   25.870800   -141.169738
 0.855000   25.166709   -141.381928
 0.860000   24.456981   -144.585278
 0.865000   23.720857   -150.630367
 0.870000   22.950677   -157.946710
 0.875000   22.141390   -168.195791
 0.880000   21.268719   -182.239558
 0.885000   20.318994   -197.436707
 0.890000   19.294352   -215.042658
 0.895000   18.168567   -238.271858
 0.900000   16.911634   -265.012975
 0.905000   15.518438   -294.553762
 0.910000   13.966096   -328.224617
 0.915000   12.236191   -361.377474
 0.920000   10.352321   -390.576400
 0.925000   8.330427   -412.746371
 0.930000   6.224858   -433.679328
 0.935000   3.993634   -462.655216
 0.940000   1.598306   -517.777371
 0.945000   -1.184140   -542.648036
 0.950000   -3.828175   -552.175315
 0.955000   -6.705893   -608.730341
 0.960000   -9.915478   -754.872770
 0.965000   -14.254620   -848.122739
 0.970000   -18.396706   -811.509286
 0.975000   -22.369713   -663.392806
 0.980000   -25.030634   -331.863980
 0.985000   -25.688353   173.883889
 0.990000   -23.291795   791.526085
 0.995000   -17.773092   1279.776154
 1.000000   -10.494033   1631.847467
201 psinorm ommvb() dommvb/dpsiN
 0.000000   -52.949753   7096.228072
 0.005000   -9.466872   10296.924179
 0.010000   50.019489   11565.198161
 0.015000   106.185109   10529.520867
 0.020000   155.314697   9048.436560
 0.025000   196.669475   7935.987314
 0.030000   234.674571   7294.184681
 0.035000   269.611322   6277.294858
 0.040000   297.447519   5167.786881
 0.045000   321.289190   4487.463263
 0.050000   342.322152   4099.382596
 0.055000   362.283016   3541.784294
 0.060000   377.739995   3043.865563
 0.065000   392.721672   2701.396880
 0.070000   404.753964   2114.867392
 0.075000   413.870346   1554.834095
 0.080000   420.302304   1378.234932
 0.085000   427.652695   1342.540244
 0.090000   433.727707   1093.828458
 0.095000   438.590980   818.495266
 0.100000   441.912660   625.434380
 0.105000   444.845324   633.289592
 0.110000   448.245556   343.902143
 0.115000   448.284345   -87.954661
 0.120000   447.366009   -278.831990
 0.125000   445.496025   -459.343124
 0.130000   442.772578   -624.714567
 0.135000   439.248880   -791.580888
 0.140000   434.856769   -948.041629
 0.145000   429.768463   -1067.026644
 0.150000   424.186502   -1165.895644
 0.155000   418.109507   -1262.304447
 0.160000   411.563458   -1349.644595
 0.165000   404.613061   -1423.975116
 0.170000   397.323707   -1486.751943
 0.175000   389.745541   -1542.086859
 0.180000   381.902838   -1588.783175
 0.185000   373.857710   -1612.767258
 0.190000   365.775166   -1621.926730
 0.195000   357.638442   -1739.328186
 0.200000   348.381884   -1793.116546
 0.205000   339.707277   -1672.980657
 0.210000   331.652077   -1598.036227
 0.215000   323.726915   -1568.703033
 0.220000   315.965047   -1533.868681
 0.225000   308.388228   -1492.912005
 0.230000   301.035927   -1511.071021
 0.235000   293.277518   -1590.432932
 0.240000   285.131597   -1462.837719
 0.245000   278.649140   -1267.838702
 0.250000   272.453210   -1210.393808
 0.255000   266.545202   -1151.277299
 0.260000   260.940437   -1172.016703
 0.265000   254.825035   -1185.234113
 0.270000   249.088096   -1011.470416
 0.275000   244.710331   -847.392695
 0.280000   240.614169   -795.592605
 0.285000   236.754405   -787.418653
 0.290000   232.739983   -814.148502
 0.295000   228.612920   -698.192897
 0.300000   225.758054   -545.770130
 0.305000   223.155219   -497.366549
 0.310000   220.784388   -491.431002
 0.315000   218.240909   -469.324878
 0.320000   216.091140   -363.511732
 0.325000   214.605791   -307.002385
 0.330000   213.021116   -334.799439
 0.335000   211.257797   -311.795546
 0.340000   209.903160   -195.663246
 0.345000   209.301165   -103.426061
 0.350000   208.868900   -73.388249
 0.355000   208.567282   -51.570754
 0.360000   208.353192   -17.055240
 0.365000   208.396730   24.090363
 0.370000   208.594096   48.458080
 0.375000   208.881310   70.847971
 0.380000   209.302575   106.773269
 0.385000   209.949043   159.564851
 0.390000   210.898224   192.893755
 0.395000   211.877981   194.736969
 0.400000   212.845594   206.904722
 0.405000   213.947028   198.232790
 0.410000   214.827922   176.764897
 0.415000   215.714677   176.867095
 0.420000   216.596592   202.036831
 0.425000   217.735045   196.959690
 0.430000   218.566189   159.831064
 0.435000   219.333356   148.446731
 0.440000   220.050657   162.662533
 0.445000   220.959981   156.296191
 0.450000   221.613619   126.162389
 0.455000   222.221605   122.033771
 0.460000   222.833956   141.019827
 0.465000   223.631803   148.614128
 0.470000   224.320098   149.208814
 0.475000   225.123891   181.238610
 0.480000   226.132484   270.539553
 0.485000   227.829287   281.816726
 0.490000   228.950651   217.938877
 0.495000   230.008676   218.747498
 0.500000   231.138126   249.005672
 0.505000   232.498733   273.748044
 0.510000   233.875606   268.106275
 0.515000   235.179795   262.617203
 0.520000   236.501778   269.704800
 0.525000   237.876843   271.239871
 0.530000   239.214177   278.531742
 0.535000   240.662161   294.261796
 0.540000   242.156795   302.021290
 0.545000   243.682374   342.178711
 0.550000   245.578582   357.685478
 0.555000   247.259228   350.934105
 0.560000   249.087923   380.366619
 0.565000   251.062895   421.249614
 0.570000   253.300419   446.893747
 0.575000   255.531832   452.016818
 0.580000   257.820588   469.151501
 0.585000   260.223347   507.998705
 0.590000   262.900575   558.496226
 0.595000   265.808309   573.823676
 0.600000   268.638811   576.161109
 0.605000   271.569920   594.782817
 0.610000   274.586640   654.220801
 0.615000   278.112128   681.046742
 0.620000   281.397107   661.703644
 0.625000   284.729165   678.909283
 0.630000   288.186200   713.804362
 0.635000   291.867208   787.330398
 0.640000   296.059504   806.140133
 0.645000   299.928610   786.922639
 0.650000   303.928730   813.690339
 0.655000   308.065513   857.267312
 0.660000   312.501403   924.120406
 0.665000   317.306717   931.881270
 0.670000   321.820216   918.609050
 0.675000   326.492808   949.690294
 0.680000   331.317119   985.536748
 0.685000   336.348175   1089.431391
 0.690000   342.211433   1200.362599
 0.695000   348.351801   1208.447852
 0.700000   354.295911   1186.113801
 0.705000   360.212939   1202.654770
 0.710000   366.322459   1278.072169
 0.715000   372.993661   1326.371541
 0.720000   379.586174   1324.023689
 0.725000   386.233898   1351.787742
 0.730000   393.104052   1396.655256
 0.735000   400.200450   1438.622907
 0.740000   407.490281   1500.557529
 0.745000   415.206026   1539.039528
 0.750000   422.880676   1545.931251
 0.755000   430.665338   1578.109410
 0.760000   438.661770   1622.235356
 0.765000   446.887692   1671.252673
 0.770000   455.374297   1713.863184
 0.775000   464.026324   1751.209661
 0.780000   472.886394   1801.073779
 0.785000   482.037061   1856.253044
 0.790000   491.448924   1916.270156
 0.795000   501.199763   1988.234158
 0.800000   511.331266   2062.934598
 0.805000   521.829109   2135.127793
 0.810000   532.682544   2201.608929
 0.815000   543.845198   2268.252770
 0.820000   555.365071   2371.934559
 0.825000   567.564544   2502.087770
 0.830000   580.385949   2634.900971
 0.835000   593.913553   2784.109441
 0.840000   608.227043   2949.195883
 0.845000   623.405512   3131.674097
 0.850000   639.543784   3335.123156
 0.855000   656.756744   3563.108133
 0.860000   675.174866   3821.583483
 0.865000   694.972579   4068.664774
 0.870000   715.861513   4465.138130
 0.875000   739.623960   5014.337520
 0.880000   766.004889   5573.059811
 0.885000   795.354558   6207.195328
 0.890000   828.076842   6916.326805
 0.895000   864.517826   7649.101778
 0.900000   904.567860   8326.211891
 0.905000   947.779945   8896.750620
 0.910000   993.535366   9283.678025
 0.915000   1040.616725   9332.141601
 0.920000   1086.856782   8886.043820
 0.925000   1129.477163   7911.376964
 0.930000   1165.970552   6667.314182
 0.935000   1196.150305   5871.416713
 0.940000   1224.684719   7042.235011
 0.945000   1266.572655   12402.679358
 0.950000   1348.711512   23924.605457
 0.955000   1505.818710   41150.427173
 0.960000   1760.215784   60482.722486
 0.965000   2110.645935   74106.143182
 0.970000   2501.277216   75230.577953
 0.975000   2862.951714   61664.149723
 0.980000   3117.918713   39105.702269
 0.985000   3254.008737   31136.747895
 0.990000   3429.286192   54382.360937
 0.995000   3797.832346   358142.991243
 1.000000   7010.716104   927010.511963
201 psinorm ommpp() dommpp/dpsiN
 0.000000   136.226231   -6979.716684
 0.005000   93.177950   -10239.595666
 0.010000   33.830274   -11541.982818
 0.015000   -22.241878   -10512.635144
 0.020000   -71.296077   -9034.960144
 0.025000   -112.591480   -7925.354081
 0.030000   -150.549618   -7285.844798
 0.035000   -185.449928   -6270.828391
 0.040000   -213.257902   -5162.793575
 0.045000   -237.077863   -4483.513909
 0.050000   -258.093041   -4095.897607
 0.055000   -278.036839   -3538.189718
 0.060000   -293.474938   -3040.130825
 0.065000   -308.438148   -2697.574235
 0.070000   -320.450680   -2110.924116
 0.075000   -329.547389   -1550.938447
 0.080000   -335.960065   -1374.511249
 0.085000   -343.292501   -1339.371024
 0.090000   -349.353775   -1092.035011
 0.095000   -354.212851   -818.234252
 0.100000   -357.536118   -626.245985
 0.105000   -360.475311   -635.008624
 0.110000   -363.886204   -346.288811
 0.115000   -363.938199   85.177401
 0.120000   -363.034430   275.750894
 0.125000   -361.180690   456.192063
 0.130000   -358.472509   621.888293
 0.135000   -354.961807   789.168926
 0.140000   -350.580820   945.875966
 0.145000   -345.503048   1065.040397
 0.150000   -339.930416   1163.623417
 0.155000   -333.866814   1259.210050
 0.160000   -327.338316   1345.744184
 0.165000   -320.409372   1419.023870
 0.170000   -313.148077   1480.600055
 0.175000   -305.603371   1534.704667
 0.180000   -297.801030   1579.682930
 0.185000   -289.806542   1601.664499
 0.190000   -281.784385   1608.841411
 0.195000   -273.718128   1724.340652
 0.200000   -264.540979   1776.159355
 0.205000   -255.956534   1653.931256
 0.210000   -248.001666   1576.862140
 0.215000   -240.187913   1545.418347
 0.220000   -232.547483   1508.506856
 0.225000   -225.102844   1465.318531
 0.230000   -217.894297   1481.197242
 0.235000   -210.290872   1557.770844
 0.240000   -202.316589   1427.614497
 0.245000   -196.014727   1231.112724
 0.250000   -190.005462   1172.320885
 0.255000   -184.291518   1111.920319
 0.260000   -178.886259   1131.822558
 0.265000   -172.973292   1144.294726
 0.270000   -167.443311   970.167589
 0.275000   -163.271617   806.158594
 0.280000   -159.381725   754.075010
 0.285000   -155.730867   745.493971
 0.290000   -151.926786   771.734056
 0.295000   -148.013526   655.137502
 0.300000   -145.375411   501.835706
 0.305000   -142.995169   451.500241
 0.310000   -140.860408   442.791180
 0.315000   -138.567257   417.762184
 0.320000   -136.682786   308.874565
 0.325000   -135.478511   249.469527
 0.330000   -134.188091   274.585129
 0.335000   -132.732660   248.908973
 0.340000   -131.699001   130.278612
 0.345000   -131.429874   35.683618
 0.350000   -131.342165   3.289958
 0.355000   -131.396974   -21.151928
 0.360000   -131.553684   -58.634877
 0.365000   -131.983323   -102.592740
 0.370000   -132.579612   -129.550231
 0.375000   -133.278826   -154.441597
 0.380000   -134.124028   -192.809502
 0.385000   -135.206921   -247.810115
 0.390000   -136.602129   -282.653075
 0.395000   -138.033451   -285.610821
 0.400000   -139.458237   -298.930812
 0.405000   -141.022759   -291.858325
 0.410000   -142.376820   -273.875240
 0.415000   -143.761512   -279.961250
 0.420000   -145.176433   -312.920097
 0.425000   -146.890713   -317.347562
 0.430000   -148.349909   -291.104278
 0.435000   -149.801756   -291.607692
 0.440000   -151.265985   -318.798082
 0.445000   -152.989736   -324.130745
 0.450000   -154.507293   -302.422233
 0.455000   -156.013959   -303.905383
 0.460000   -157.546347   -325.147119
 0.465000   -159.265430   -330.743684
 0.470000   -160.853784   -324.490364
 0.475000   -162.510334   -345.912674
 0.480000   -164.312910   -422.607264
 0.485000   -166.736406   -420.022686
 0.490000   -168.513137   -342.218755
 0.495000   -170.158594   -329.807909
 0.500000   -171.811216   -348.481116
 0.505000   -173.643405   -364.453520
 0.510000   -175.455751   -352.908484
 0.515000   -177.172490   -343.646007
 0.520000   -178.892212   -348.529166
 0.525000   -180.657781   -349.232038
 0.530000   -182.384532   -356.362586
 0.535000   -184.221407   -371.345874
 0.540000   -186.097991   -377.241373
 0.545000   -187.993821   -414.685684
 0.550000   -190.244848   -426.487368
 0.555000   -192.258695   -414.763939
 0.560000   -194.392487   -438.258305
 0.565000   -196.641278   -472.830768
 0.570000   -199.120795   -492.129577
 0.575000   -201.562573   -491.385271
 0.580000   -204.034647   -503.777435
 0.585000   -206.600348   -539.647116
 0.590000   -209.431118   -588.884279
 0.595000   -212.489191   -604.290735
 0.600000   -215.474026   -608.085235
 0.605000   -218.570043   -629.068161
 0.610000   -221.764707   -691.131278
 0.615000   -225.481356   -720.886341
 0.620000   -228.973571   -704.007552
 0.625000   -232.521431   -722.647547
 0.630000   -236.200046   -758.583040
 0.635000   -240.107262   -832.811235
 0.640000   -244.528159   -851.707026
 0.645000   -248.624332   -832.423913
 0.650000   -252.852398   -859.546657
 0.655000   -257.219799   -903.959210
 0.660000   -261.891990   -972.552098
 0.665000   -266.945319   -983.900722
 0.670000   -271.730997   -974.790660
 0.675000   -276.693226   -1009.556459
 0.680000   -281.826562   -1049.099501
 0.685000   -287.184221   -1156.143607
 0.690000   -293.387998   -1269.963811
 0.695000   -299.883859   -1281.396787
 0.700000   -306.201966   -1259.736470
 0.705000   -312.481224   -1275.016080
 0.710000   -318.952126   -1349.953096
 0.715000   -325.980755   -1397.191124
 0.720000   -332.924038   -1393.257994
 0.725000   -339.913335   -1418.691220
 0.730000   -347.110950   -1459.910450
 0.735000   -354.512439   -1498.285696
 0.740000   -362.093807   -1557.768177
 0.745000   -370.090121   -1594.651852
 0.750000   -378.040325   -1601.218372
 0.755000   -386.102305   -1632.965442
 0.760000   -394.369980   -1679.762324
 0.765000   -402.899928   -1734.948235
 0.770000   -411.719462   -1784.318360
 0.775000   -420.743112   -1830.186585
 0.780000   -430.021328   -1889.823807
 0.785000   -439.641350   -1955.613562
 0.790000   -449.577464   -2028.712828
 0.795000   -459.928478   -2114.662287
 0.800000   -470.724086   -2201.702674
 0.805000   -481.945505   -2285.400290
 0.810000   -493.578089   -2362.141116
 0.815000   -505.566916   -2437.524148
 0.820000   -517.953331   -2548.217654
 0.825000   -531.049092   -2683.192046
 0.830000   -544.785251   -2818.578993
 0.835000   -559.234882   -2968.431242
 0.840000   -574.469564   -3132.549077
 0.845000   -590.560373   -3313.745241
 0.850000   -607.607016   -3516.429034
 0.855000   -625.724663   -3744.553313
 0.860000   -645.052549   -4005.502583
 0.865000   -665.779689   -4258.792012
 0.870000   -687.640469   -4664.290935
 0.875000   -712.422599   -5225.903195
 0.880000   -739.899501   -5800.500394
 0.885000   -770.427603   -6452.190617
 0.890000   -804.421407   -7182.952562
 0.895000   -842.257128   -7943.958637
 0.900000   -883.860994   -8653.638433
 0.905000   -928.793513   -9261.190477
 0.910000   -976.472899   -9689.812059
 0.915000   -1025.691633   -9777.893113
 0.920000   -1074.251830   -9366.575104
 0.925000   -1119.357384   -8422.626535
 0.930000   -1158.478095   -7206.233501
 0.935000   -1191.419719   -6440.544240
 0.940000   -1222.883538   -7646.263074
 0.945000   -1267.882350   -13033.195426
 0.950000   -1353.215492   -24590.085591
 0.955000   -1513.783206   -41879.659323
 0.960000   -1772.012085   -61292.839210
 0.965000   -2126.711598   -74999.838339
 0.970000   -2522.010468   -76148.379668
 0.975000   -2888.195395   -62416.457565
 0.980000   -3146.175044   -39461.797679
 0.985000   -3282.813371   -30911.798653
 0.990000   -3455.293031   -53482.288562
 0.995000   -3817.636257   -356706.366127
 1.000000   -7022.356692   -925181.807793
201 psinorm omevb() domevb/dpsiN
 0.000000   75.469717   100.820262
 0.005000   75.810701   35.573593
 0.010000   75.825453   -1.488453
 0.015000   75.795817   -7.650224
 0.020000   75.748950   -10.888089
 0.025000   75.686936   -13.556275
 0.030000   75.613388   -15.671116
 0.035000   75.530225   -17.362550
 0.040000   75.439762   -18.650299
 0.045000   75.343722   -19.505451
 0.050000   75.244708   -19.777674
 0.055000   75.145945   -19.472645
 0.060000   75.049981   -19.133787
 0.065000   74.954607   -18.843977
 0.070000   74.861541   -18.518283
 0.075000   74.769424   -18.357733
 0.080000   74.677964   -18.318455
 0.085000   74.586240   -18.658658
 0.090000   74.491377   -19.817206
 0.095000   74.388068   -21.129497
 0.100000   74.280082   -21.979108
 0.105000   74.168277   -22.660713
 0.110000   74.053475   -23.099765
 0.115000   73.937279   -23.259063
 0.120000   73.820885   -23.328951
 0.125000   73.703989   -23.162364
 0.130000   73.589261   -22.598479
 0.135000   73.478005   -21.942575
 0.140000   73.369835   -21.452248
 0.145000   73.263482   -21.026421
 0.150000   73.159571   -21.063666
 0.155000   73.052845   -21.634833
 0.160000   72.943223   -22.187634
 0.165000   72.830969   -22.983101
 0.170000   72.713392   -23.926281
 0.175000   72.591706   -24.897086
 0.180000   72.464421   -26.353662
 0.185000   72.328170   -28.092780
 0.190000   72.183493   -29.810084
 0.195000   72.030069   -31.445245
 0.200000   71.869041   -33.146108
 0.205000   71.698608   -34.967844
 0.210000   71.519362   -36.820437
 0.215000   71.330403   -38.657384
 0.220000   71.132788   -40.459375
 0.225000   70.925810   -42.414441
 0.230000   70.708644   -44.416787
 0.235000   70.481642   -46.925824
 0.240000   70.239386   -49.206432
 0.245000   69.989577   -50.427474
 0.250000   69.735111   -51.491575
 0.255000   69.474662   -52.491722
 0.260000   69.210194   -53.043971
 0.265000   68.944222   -53.503354
 0.270000   68.675160   -53.580055
 0.275000   68.408421   -53.223769
 0.280000   68.142922   -53.218946
 0.285000   67.876232   -53.337020
 0.290000   67.609552   -53.537135
 0.295000   67.340861   -53.887863
 0.300000   67.070674   -54.476161
 0.305000   66.796099   -56.116863
 0.310000   66.509505   -58.598806
 0.315000   66.210111   -61.229779
 0.320000   65.897207   -64.012087
 0.325000   65.569990   -66.615406
 0.330000   65.231053   -69.004341
 0.335000   64.879947   -71.384001
 0.340000   64.517213   -73.589432
 0.345000   64.144052   -75.654647
 0.350000   63.760667   -77.717994
 0.355000   63.366872   -80.050036
 0.360000   62.960166   -82.725334
 0.365000   62.539619   -85.245726
 0.370000   62.107709   -87.543960
 0.375000   61.664180   -89.754280
 0.380000   61.210166   -91.906175
 0.385000   60.745118   -93.824994
 0.390000   60.271916   -95.049394
 0.395000   59.794624   -95.874882
 0.400000   59.313168   -96.738746
 0.405000   58.827236   -98.050538
 0.410000   58.332662   -101.248471
 0.415000   57.814752   -106.946242
 0.420000   57.263200   -114.450195
 0.425000   56.670250   -123.670584
 0.430000   56.026494   -134.272700
 0.435000   55.327523   -145.878264
 0.440000   54.567711   -158.571764
 0.445000   53.741805   -169.990828
 0.450000   52.867803   -178.137374
 0.455000   51.960431   -183.471643
 0.460000   51.033087   -185.451121
 0.465000   50.105920   -183.178527
 0.470000   49.201301   -176.057055
 0.475000   48.345350   -165.177542
 0.480000   47.549526   -152.300649
 0.485000   46.822343   -138.169889
 0.490000   46.167827   -123.976375
 0.495000   45.582579   -110.491100
 0.500000   45.062916   -98.641989
 0.505000   44.596159   -89.609587
 0.510000   44.166820   -83.445637
 0.515000   43.761703   -79.413344
 0.520000   43.372687   -76.951852
 0.525000   42.992185   -75.864474
 0.530000   42.614042   -75.449887
 0.535000   42.237686   -74.451809
 0.540000   41.869524   -72.338495
 0.545000   41.514301   -69.378095
 0.550000   41.175743   -65.427786
 0.555000   40.860023   -60.212605
 0.560000   40.573617   -54.033470
 0.565000   40.319688   -47.484119
 0.570000   40.098776   -40.902181
 0.575000   39.910666   -34.800425
 0.580000   39.750771   -29.825794
 0.585000   39.612408   -26.618456
 0.590000   39.484587   -25.130610
 0.595000   39.361102   -24.984485
 0.600000   39.234742   -26.218803
 0.605000   39.098914   -28.359682
 0.610000   38.951145   -30.766911
 0.615000   38.791245   -33.480586
 0.620000   38.616339   -35.731930
 0.625000   38.433926   -36.955819
 0.630000   38.246781   -37.788285
 0.635000   38.056043   -38.285028
 0.640000   37.863931   -38.168215
 0.645000   37.674361   -37.902279
 0.650000   37.484908   -38.059565
 0.655000   37.293765   -38.699941
 0.660000   37.097909   -40.247076
 0.665000   36.891294   -43.644703
 0.670000   36.661462   -47.619224
 0.675000   36.415102   -51.118592
 0.680000   36.150276   -54.632376
 0.685000   35.868778   -57.601330
 0.690000   35.574262   -60.311990
 0.695000   35.265659   -63.483388
 0.700000   34.939428   -63.982595
 0.705000   34.625833   -62.548225
 0.710000   34.313946   -61.895986
 0.715000   34.006873   -60.663463
 0.720000   33.707312   -58.907076
 0.725000   33.417802   -56.404417
 0.730000   33.143267   -52.582567
 0.735000   32.891976   -48.813562
 0.740000   32.655132   -46.180125
 0.745000   32.430175   -44.393690
 0.750000   32.211195   -43.870867
 0.755000   31.991466   -43.229227
 0.760000   31.778903   -45.672356
 0.765000   31.534743   -51.590437
 0.770000   31.262998   -58.069987
 0.775000   30.954043   -66.273554
 0.780000   30.600263   -75.679705
 0.785000   30.197246   -85.861277
 0.790000   29.741650   -98.436324
 0.795000   29.212883   -111.816683
 0.800000   28.623483   -123.429595
 0.805000   27.978587   -134.056413
 0.810000   27.282919   -143.254201
 0.815000   26.546045   -150.708172
 0.820000   25.775837   -156.167363
 0.825000   24.984371   -159.120880
 0.830000   24.184628   -159.462651
 0.835000   23.389745   -157.464309
 0.840000   22.609985   -153.409001
 0.845000   21.855655   -148.585912
 0.850000   21.124126   -143.861262
 0.855000   20.417042   -139.737328
 0.860000   19.726753   -137.887045
 0.865000   19.038172   -140.156059
 0.870000   18.325192   -146.387149
 0.875000   17.574300   -158.383467
 0.880000   16.741358   -178.154750
 0.885000   15.792753   -206.871671
 0.890000   14.672641   -251.323436
 0.895000   13.279518   -320.400513
 0.900000   11.468636   -420.782395
 0.905000   9.071694   -564.634648
 0.910000   5.822289   -767.538495
 0.915000   1.396309   -1040.511133
 0.920000   -4.582822   -1398.028310
 0.925000   -12.583974   -1850.932981
 0.930000   -23.092152   -2391.377233
 0.935000   -36.497746   -2980.521224
 0.940000   -52.897364   -3523.917050
 0.945000   -71.736917   -3855.484525
 0.950000   -91.452209   -3808.807405
 0.955000   -109.824991   -3257.692444
 0.960000   -124.029134   -2172.763467
 0.965000   -131.552625   -715.781314
 0.970000   -131.186947   828.290903
 0.975000   -123.269716   2200.346681
 0.980000   -109.183480   3184.072032
 0.985000   -91.428996   3716.180078
 0.990000   -72.021679   3897.502648
 0.995000   -52.453970   3760.200098
 1.000000   -34.419678   3453.516428
201 psinorm omepp() domepp/dpsiN
 0.000000   7.806761   15.691127
 0.005000   7.900376   21.754920
 0.010000   8.024311   24.703796
 0.015000   8.147414   24.535947
 0.020000   8.269670   24.364505
 0.025000   8.391059   24.189508
 0.030000   8.511565   24.010999
 0.035000   8.631169   23.829017
 0.040000   8.749855   23.643605
 0.045000   8.867605   23.454806
 0.050000   8.984403   23.262663
 0.055000   9.100232   23.067221
 0.060000   9.215076   22.868526
 0.065000   9.328917   22.666622
 0.070000   9.441742   22.461558
 0.075000   9.553533   22.253381
 0.080000   9.664276   22.042138
 0.085000   9.773954   21.827879
 0.090000   9.882554   21.610653
 0.095000   9.990061   21.390510
 0.100000   10.096459   21.167503
 0.105000   10.201736   20.941681
 0.110000   10.305876   20.713097
 0.115000   10.408867   20.481803
 0.120000   10.510694   20.247854
 0.125000   10.611345   20.011303
 0.130000   10.710807   19.772205
 0.135000   10.809067   19.530613
 0.140000   10.906113   19.286585
 0.145000   11.001933   19.040175
 0.150000   11.096515   18.791440
 0.155000   11.189848   18.540437
 0.160000   11.281920   18.287223
 0.165000   11.372720   18.031855
 0.170000   11.462238   17.774393
 0.175000   11.550464   17.514894
 0.180000   11.637387   17.253417
 0.185000   11.722998   16.990021
 0.190000   11.807287   16.724766
 0.195000   11.890246   16.457711
 0.200000   11.971864   16.188916
 0.205000   12.052135   15.918442
 0.210000   12.131049   15.646350
 0.215000   12.208598   15.372699
 0.220000   12.284776   15.097551
 0.225000   12.359574   14.820967
 0.230000   12.432985   14.543007
 0.235000   12.505004   14.263735
 0.240000   12.575623   13.983210
 0.245000   12.644836   13.701495
 0.250000   12.712638   13.418652
 0.255000   12.779023   13.134742
 0.260000   12.843985   12.849826
 0.265000   12.907521   12.563967
 0.270000   12.969625   12.277227
 0.275000   13.030293   11.989668
 0.280000   13.089522   11.701350
 0.285000   13.147307   11.412337
 0.290000   13.203645   11.122689
 0.295000   13.258533   10.832468
 0.300000   13.311970   10.541736
 0.305000   13.363951   10.250554
 0.310000   13.414475   9.958984
 0.315000   13.463541   9.667085
 0.320000   13.511146   9.374920
 0.325000   13.557290   9.082548
 0.330000   13.601971   8.790031
 0.335000   13.645190   8.497428
 0.340000   13.686946   8.204799
 0.345000   13.727238   7.912204
 0.350000   13.766068   7.619703
 0.355000   13.803435   7.327354
 0.360000   13.839341   7.035216
 0.365000   13.873787   6.743348
 0.370000   13.906775   6.451808
 0.375000   13.938305   6.160654
 0.380000   13.968381   5.869942
 0.385000   13.997005   5.579730
 0.390000   14.024179   5.290074
 0.395000   14.049906   5.001031
 0.400000   14.074189   4.712655
 0.405000   14.097032   4.425003
 0.410000   14.118439   4.138129
 0.415000   14.138413   3.852086
 0.420000   14.156960   3.566929
 0.425000   14.174083   3.282712
 0.430000   14.189787   2.999485
 0.435000   14.204078   2.717303
 0.440000   14.216960   2.436216
 0.445000   14.228440   2.156274
 0.450000   14.238523   1.877530
 0.455000   14.247215   1.600032
 0.460000   14.254523   1.323829
 0.465000   14.260453   1.048971
 0.470000   14.265013   0.775505
 0.475000   14.268208   0.503478
 0.480000   14.270048   0.232937
 0.485000   14.270538   -0.036071
 0.490000   14.269687   -0.303503
 0.495000   14.267503   -0.569312
 0.500000   14.263994   -0.833455
 0.505000   14.259168   -1.095889
 0.510000   14.253035   -1.356571
 0.515000   14.245602   -1.615460
 0.520000   14.236880   -1.872514
 0.525000   14.226877   -2.127693
 0.530000   14.215603   -2.380957
 0.535000   14.203068   -2.632268
 0.540000   14.189281   -2.881588
 0.545000   14.174252   -3.128878
 0.550000   14.157992   -3.374104
 0.555000   14.140511   -3.617228
 0.560000   14.121820   -3.858216
 0.565000   14.101929   -4.097034
 0.570000   14.080849   -4.333649
 0.575000   14.058592   -4.568029
 0.580000   14.035169   -4.800141
 0.585000   14.010591   -5.029956
 0.590000   13.984869   -5.257443
 0.595000   13.958016   -5.482575
 0.600000   13.930044   -5.705323
 0.605000   13.900963   -5.925662
 0.610000   13.870787   -6.143566
 0.615000   13.839527   -6.359012
 0.620000   13.807197   -6.571979
 0.625000   13.773808   -6.782445
 0.630000   13.739372   -6.990393
 0.635000   13.703904   -7.195808
 0.640000   13.667414   -7.398678
 0.645000   13.629917   -7.598994
 0.650000   13.591424   -7.796753
 0.655000   13.551949   -7.991957
 0.660000   13.511505   -8.184616
 0.665000   13.470103   -8.374748
 0.670000   13.427757   -8.562386
 0.675000   13.384479   -8.747573
 0.680000   13.340282   -8.930377
 0.685000   13.295176   -9.110886
 0.690000   13.249173   -9.289222
 0.695000   13.202283   -9.465547
 0.700000   13.154517   -9.640075
 0.705000   13.105883   -9.813085
 0.710000   13.056386   -9.984942
 0.715000   13.006033   -10.156120
 0.720000   12.954825   -10.327230
 0.725000   12.902761   -10.499061
 0.730000   12.849835   -10.672627
 0.735000   12.796035   -10.849227
 0.740000   12.741342   -11.030523
 0.745000   12.685729   -11.218633
 0.750000   12.629156   -11.416254
 0.755000   12.571567   -11.626805
 0.760000   12.512888   -11.854612
 0.765000   12.453021   -12.105124
 0.770000   12.391837   -12.385190
 0.775000   12.329169   -12.703370
 0.780000   12.264803   -13.070323
 0.785000   12.198466   -13.499240
 0.790000   12.129811   -14.006347
 0.795000   12.058402   -14.611446
 0.800000   11.983696   -15.338482
 0.805000   11.905017   -16.216084
 0.810000   11.821535   -17.277986
 0.815000   11.732238   -18.563206
 0.820000   11.635903   -20.115732
 0.825000   11.531080   -21.983396
 0.830000   11.416069   -24.215371
 0.835000   11.288926   -26.857493
 0.840000   11.147494   -29.944192
 0.845000   10.989485   -33.485232
 0.850000   10.812642   -37.444617
 0.855000   10.615038   -41.707852
 0.860000   10.395564   -46.032055
 0.865000   10.154718   -49.971179
 0.870000   9.895852   -52.765657
 0.875000   9.627061   -53.182208
 0.880000   9.364030   -49.285834
 0.885000   9.134203   -38.123618
 0.890000   8.982793   -15.302321
 0.895000   8.981180   25.543654
 0.900000   9.238230   93.355853
 0.905000   9.914738   200.194791
 0.910000   11.240178   361.404461
 0.915000   13.528783   594.759621
 0.920000   17.187774   917.497026
 0.925000   22.703753   1339.683410
 0.930000   30.584608   1852.457914
 0.935000   41.228332   2411.393697
 0.940000   54.698545   2919.888987
 0.945000   70.427222   3224.968457
 0.950000   86.948230   3143.327271
 0.955000   101.860495   2528.460294
 0.960000   112.232833   1362.646743
 0.965000   115.486962   -177.913843
 0.970000   110.453694   -1746.092617
 0.975000   98.026036   -2952.654523
 0.980000   80.927149   -3540.167442
 0.985000   62.624362   -3491.230836
 0.990000   46.014841   -2997.430272
 0.995000   32.650059   -2323.574982
 1.000000   22.779091   -1624.812259
201 psinorm kpol(km/s/T) dkpol/dpsiN
 0.000000   0.023771   129.542210
 0.005000   0.545723   79.238563
 0.010000   0.816157   50.818658
 0.015000   1.053910   46.911359
 0.020000   1.285270   45.704222
 0.025000   1.510952   44.786660
 0.030000   1.733137   44.166888
 0.035000   1.952621   43.665587
 0.040000   2.169793   43.213004
 0.045000   2.384751   42.863766
 0.050000   2.598431   42.656248
 0.055000   2.811313   42.569419
 0.060000   3.024125   42.598339
 0.065000   3.237297   42.610156
 0.070000   3.450226   42.348690
 0.075000   3.660784   41.817527
 0.080000   3.868402   41.028493
 0.085000   4.071069   39.718994
 0.090000   4.265592   37.999160
 0.095000   4.451060   36.276679
 0.100000   4.628358   34.705128
 0.105000   4.798111   33.258119
 0.110000   4.960940   32.013704
 0.115000   5.118249   31.008011
 0.120000   5.271020   30.313000
 0.125000   5.421379   29.861442
 0.130000   5.569634   29.586286
 0.135000   5.717241   29.413203
 0.140000   5.863766   29.056576
 0.145000   6.007807   28.465868
 0.150000   6.148425   27.583198
 0.155000   6.283639   26.280636
 0.160000   6.411231   24.815654
 0.165000   6.531796   23.127313
 0.170000   6.642504   21.327043
 0.175000   6.745066   19.336547
 0.180000   6.835870   17.144900
 0.185000   6.916515   15.014609
 0.190000   6.986016   12.811206
 0.195000   7.044627   10.827053
 0.200000   7.094286   8.877283
 0.205000   7.133400   7.058252
 0.210000   7.164869   5.321590
 0.215000   7.186616   3.351724
 0.220000   7.198386   1.184051
 0.225000   7.198456   -1.405285
 0.230000   7.184333   -4.266145
 0.235000   7.155795   -7.425969
 0.240000   7.110074   -10.936187
 0.245000   7.046433   -14.307042
 0.250000   6.967003   -17.600921
 0.255000   6.870424   -20.948105
 0.260000   6.757522   -23.867139
 0.265000   6.631752   -26.507519
 0.270000   6.492447   -29.027005
 0.275000   6.341482   -31.320105
 0.280000   6.179246   -33.643835
 0.285000   6.005044   -35.744214
 0.290000   5.821804   -37.679050
 0.295000   5.628254   -39.855612
 0.300000   5.423248   -42.092535
 0.305000   5.207328   -44.517821
 0.310000   4.978069   -47.287508
 0.315000   4.734453   -50.088984
 0.320000   4.477180   -52.899778
 0.325000   4.205455   -55.483814
 0.330000   3.922341   -57.653725
 0.335000   3.628918   -59.637159
 0.340000   3.325970   -61.547247
 0.345000   3.013446   -63.459789
 0.350000   2.691372   -65.461404
 0.355000   2.358832   -67.826590
 0.360000   2.013106   -70.490341
 0.365000   1.653928   -73.351176
 0.370000   1.279594   -76.517216
 0.375000   0.888756   -79.887677
 0.380000   0.480718   -83.520971
 0.385000   0.053546   -87.021949
 0.390000   -0.389502   -89.811637
 0.395000   -0.844570   -91.933377
 0.400000   -1.308836   -93.598861
 0.405000   -1.780559   -95.461078
 0.410000   -2.263446   -99.368410
 0.415000   -2.774243   -106.146931
 0.420000   -3.324916   -115.193664
 0.425000   -3.926179   -126.222631
 0.430000   -4.587142   -138.882898
 0.435000   -5.315008   -152.875496
 0.440000   -6.115897   -168.148029
 0.445000   -6.996489   -181.679924
 0.450000   -7.932696   -190.950131
 0.455000   -8.905990   -196.071624
 0.460000   -9.893413   -196.262445
 0.465000   -10.868614   -190.599644
 0.470000   -11.799409   -178.108683
 0.475000   -12.649701   -160.551404
 0.480000   -13.404923   -140.468462
 0.485000   -14.054386   -119.180921
 0.490000   -14.596732   -98.298964
 0.495000   -15.037376   -78.472233
 0.500000   -15.381455   -60.860095
 0.505000   -15.645976   -47.068522
 0.510000   -15.852140   -37.270256
 0.515000   -16.018679   -30.422142
 0.520000   -16.156361   -25.703100
 0.525000   -16.275710   -22.873257
 0.530000   -16.385094   -20.898005
 0.535000   -16.484690   -18.124981
 0.540000   -16.566344   -13.967307
 0.545000   -16.624363   -8.536580
 0.550000   -16.651709   -1.545845
 0.555000   -16.639822   7.188972
 0.560000   -16.579820   17.289865
 0.565000   -16.466923   27.813797
 0.570000   -16.301682   38.167011
 0.575000   -16.085253   47.718859
 0.580000   -15.824493   55.559692
 0.585000   -15.529656   60.721252
 0.590000   -15.217281   63.222215
 0.595000   -14.897434   63.580012
 0.600000   -14.581480   61.925437
 0.605000   -14.278179   58.889396
 0.610000   -13.992587   54.988878
 0.615000   -13.728291   50.349594
 0.620000   -13.489091   46.259786
 0.625000   -13.265693   43.502756
 0.630000   -13.054063   41.463091
 0.635000   -12.851062   39.906038
 0.640000   -12.655003   38.645318
 0.645000   -12.464609   37.469831
 0.650000   -12.280304   36.114455
 0.655000   -12.103464   34.518866
 0.660000   -11.935116   32.798644
 0.665000   -11.775478   30.966635
 0.670000   -11.625449   28.957975
 0.675000   -11.485898   26.820772
 0.680000   -11.357242   24.559843
 0.685000   -11.240299   22.220125
 0.690000   -11.135040   19.759827
 0.695000   -11.042701   17.126868
 0.700000   -10.963772   14.413173
 0.705000   -10.898569   11.545194
 0.710000   -10.848320   8.475902
 0.715000   -10.813810   5.265960
 0.720000   -10.795660   1.972865
 0.725000   -10.794082   -1.447931
 0.730000   -10.810139   -4.916780
 0.735000   -10.843250   -8.401210
 0.740000   -10.894152   -11.868382
 0.745000   -10.961933   -15.257737
 0.750000   -11.046729   -18.627941
 0.755000   -11.148213   -21.842448
 0.760000   -11.265153   -24.991044
 0.765000   -11.398123   -28.527218
 0.770000   -11.550426   -32.902589
 0.775000   -11.727149   -38.384024
 0.780000   -11.934266   -45.196057
 0.785000   -12.179110   -53.597843
 0.790000   -12.470244   -64.346232
 0.795000   -12.822572   -76.465318
 0.800000   -13.234897   -88.580995
 0.805000   -13.708382   -100.701310
 0.810000   -14.241911   -111.956995
 0.815000   -14.827952   -121.391683
 0.820000   -15.455827   -128.246192
 0.825000   -16.110414   -131.536375
 0.830000   -16.771191   -130.801496
 0.835000   -17.418429   -126.422348
 0.840000   -18.035415   -119.020542
 0.845000   -18.608634   -109.298055
 0.850000   -19.128395   -97.335119
 0.855000   -19.581985   -84.765092
 0.860000   -19.976046   -73.471458
 0.865000   -20.316700   -63.658925
 0.870000   -20.612635   -55.129315
 0.875000   -20.867993   -47.770755
 0.880000   -21.090343   -42.048184
 0.885000   -21.288475   -37.380505
 0.890000   -21.464148   -32.376077
 0.895000   -21.612236   -26.502837
 0.900000   -21.729176   -19.249103
 0.905000   -21.804727   -9.799994
 0.910000   -21.827176   1.455522
 0.915000   -21.790172   15.195537
 0.920000   -21.675221   36.910985
 0.925000   -21.421062   67.695406
 0.930000   -20.998267   99.055784
 0.935000   -20.430504   132.326271
 0.940000   -19.675004   176.084904
 0.945000   -18.669655   222.240474
 0.950000   -17.452599   248.124568
 0.955000   -16.188409   231.894968
 0.960000   -15.133650   151.711184
 0.965000   -14.671297   -3.386432
 0.970000   -15.167514   -190.171524
 0.975000   -16.573013   -289.735987
 0.980000   -18.064874   -149.678371
 0.985000   -18.069796   303.899671
 0.990000   -15.025877   974.849456
 0.995000   -8.321302   1555.932262
 1.000000   0.533446   1985.966650
201 psinorm omghb() domghb/dpsiN
 0.000000   -0.000078   -0.019574
 0.005000   -0.000264   -0.055135
 0.010000   -0.000629   -0.045535
 0.015000   -0.000720   -0.011110
 0.020000   -0.000740   -0.000905
 0.025000   -0.000729   0.001814
 0.030000   -0.000722   0.008947
 0.035000   -0.000639   0.011527
 0.040000   -0.000607   0.013258
 0.045000   -0.000507   0.011327
 0.050000   -0.000493   -0.003347
 0.055000   -0.000540   -0.010143
 0.060000   -0.000595   -0.020218
 0.065000   -0.000742   -0.036429
 0.070000   -0.000959   -0.015582
 0.075000   -0.000898   0.015220
 0.080000   -0.000807   0.020085
 0.085000   -0.000697   0.035200
 0.090000   -0.000455   0.058951
 0.095000   -0.000108   0.056492
 0.100000   0.000110   0.067785
 0.105000   0.000570   0.069523
 0.110000   0.000805   0.046559
 0.115000   0.001036   0.030959
 0.120000   0.001115   0.016354
 0.125000   0.001199   -0.006160
 0.130000   0.001053   -0.030111
 0.135000   0.000898   -0.022230
 0.140000   0.000831   0.002477
 0.145000   0.000923   0.024274
 0.150000   0.001074   0.052909
 0.155000   0.001452   0.064253
 0.160000   0.001716   0.082598
 0.165000   0.002278   0.139082
 0.170000   0.003107   0.165975
 0.175000   0.003938   0.184462
 0.180000   0.004952   0.206999
 0.185000   0.006008   0.226836
 0.190000   0.007220   0.256882
 0.195000   0.008577   0.288680
 0.200000   0.010107   0.299103
 0.205000   0.011568   0.282857
 0.210000   0.012935   0.301218
 0.215000   0.014580   0.335266
 0.220000   0.016288   0.399423
 0.225000   0.018574   0.397600
 0.230000   0.020264   0.365526
 0.235000   0.022229   0.392881
 0.240000   0.024193   0.378484
 0.245000   0.026014   0.363336
 0.250000   0.027826   0.376401
 0.255000   0.029778   0.226265
 0.260000   0.030089   0.133739
 0.265000   0.031115   0.192061
 0.270000   0.032010   0.150115
 0.275000   0.032617   0.143850
 0.280000   0.033448   0.146089
 0.285000   0.034078   0.141947
 0.290000   0.034868   0.200827
 0.295000   0.036086   0.282151
 0.300000   0.037689   0.365903
 0.305000   0.039745   0.479561
 0.310000   0.042485   0.553833
 0.315000   0.045283   0.670274
 0.320000   0.049187   0.729232
 0.325000   0.052575   0.656227
 0.330000   0.055750   0.617095
 0.335000   0.058746   0.589271
 0.340000   0.061642   0.600273
 0.345000   0.064749   0.623824
 0.350000   0.067881   0.641444
 0.355000   0.071164   0.672012
 0.360000   0.074601   0.697084
 0.365000   0.078134   0.737010
 0.370000   0.081971   0.774585
 0.375000   0.085880   0.665225
 0.380000   0.088623   0.569158
 0.385000   0.091572   0.575430
 0.390000   0.094377   0.501580
 0.395000   0.096588   0.398232
 0.400000   0.098360   0.421578
 0.405000   0.100803   0.724400
 0.410000   0.105604   1.174292
 0.415000   0.112546   1.603528
 0.420000   0.121639   2.200746
 0.425000   0.134554   2.753556
 0.430000   0.149175   2.892012
 0.435000   0.163474   2.898136
 0.440000   0.178156   2.882943
 0.445000   0.192303   2.624475
 0.450000   0.204401   2.227350
 0.455000   0.214577   1.380515
 0.460000   0.218206   0.165789
 0.465000   0.216235   -0.850823
 0.470000   0.209698   -1.698195
 0.475000   0.199253   -2.405446
 0.480000   0.185643   -3.166715
 0.485000   0.167586   -3.462746
 0.490000   0.151016   -3.113151
 0.495000   0.136454   -2.724320
 0.500000   0.123772   -2.275002
 0.505000   0.113704   -1.749086
 0.510000   0.106282   -1.201703
 0.515000   0.101687   -0.599371
 0.520000   0.100288   -0.176160
 0.525000   0.099926   -0.038834
 0.530000   0.099900   -0.046038
 0.535000   0.099465   -0.204381
 0.540000   0.097856   -0.419644
 0.545000   0.095269   -0.712304
 0.550000   0.090733   -1.084263
 0.555000   0.084426   -1.399896
 0.560000   0.076734   -1.547532
 0.565000   0.068951   -1.632582
 0.570000   0.060408   -1.603559
 0.575000   0.052915   -1.361908
 0.580000   0.046789   -1.010194
 0.585000   0.042813   -0.568115
 0.590000   0.041108   -0.160076
 0.595000   0.041212   0.270609
 0.600000   0.043814   0.658413
 0.605000   0.047797   0.768372
 0.610000   0.051498   0.767715
 0.615000   0.055474   0.837337
 0.620000   0.059871   0.643114
 0.625000   0.061905   0.377097
 0.630000   0.063642   0.235662
 0.635000   0.064262   0.111519
 0.640000   0.064757   0.106744
 0.645000   0.065329   0.208592
 0.650000   0.066843   0.224703
 0.655000   0.067576   0.359912
 0.660000   0.070442   0.748319
 0.665000   0.075059   1.051642
 0.670000   0.080958   1.242004
 0.675000   0.087479   1.608343
 0.680000   0.097042   1.335407
 0.685000   0.100833   0.671711
 0.690000   0.103759   0.592575
 0.695000   0.106759   0.496907
 0.700000   0.108728   0.324259
 0.705000   0.110002   0.366204
 0.710000   0.112390   -0.125590
 0.715000   0.108746   -0.760294
 0.720000   0.104787   -0.718760
 0.725000   0.101558   -0.692000
 0.730000   0.097867   -0.772545
 0.735000   0.093833   -0.942208
 0.740000   0.088445   -0.942552
 0.745000   0.084407   -0.319274
 0.750000   0.085252   0.312971
 0.755000   0.087537   0.819721
 0.760000   0.093450   1.380967
 0.765000   0.101347   1.621373
 0.770000   0.109663   2.192457
 0.775000   0.123271   3.322892
 0.780000   0.142892   3.834565
 0.785000   0.161617   4.016081
 0.790000   0.183053   4.248359
 0.795000   0.204100   4.248973
 0.800000   0.225543   4.276364
 0.805000   0.246864   3.863766
 0.810000   0.264180   3.183825
 0.815000   0.278702   2.755414
 0.820000   0.291735   2.279372
 0.825000   0.301496   1.554653
 0.830000   0.307281   0.673295
 0.835000   0.308229   -0.096725
 0.840000   0.306314   -0.350578
 0.845000   0.304723   -0.153022
 0.850000   0.304784   0.227135
 0.855000   0.306994   0.770586
 0.860000   0.312490   1.899508
 0.865000   0.325990   2.547964
 0.870000   0.337969   3.175334
 0.875000   0.357743   4.733518
 0.880000   0.385304   6.171840
 0.885000   0.419461   7.273070
 0.890000   0.458035   9.713341
 0.895000   0.516595   10.687982
 0.900000   0.564915   10.908204
 0.905000   0.625677   13.207788
 0.910000   0.696993   14.553557
 0.915000   0.771212   14.487246
 0.920000   0.841865   14.840441
 0.925000   0.919617   12.273919
 0.930000   0.964604   10.108240
 0.935000   1.020699   11.337042
 0.940000   1.077975   11.222174
 0.945000   1.132921   15.649838
 0.950000   1.234473   32.861796
 0.955000   1.461539   36.738209
 0.960000   1.601855   29.518979
 0.965000   1.756729   19.946404
 0.970000   1.801319   -18.789140
 0.975000   1.568837   -95.550988
 0.980000   0.845809   -196.050301
 0.985000   -0.391666   -278.377307
 0.990000   -1.937964   -270.875600
 0.995000   -3.100422   -150.651457
 1.000000   -3.444478   13.028906
201 psinorm nz1(10^20/m^3) dnz1/dpsiN
 0.000000   0.052229   0.000002
 0.005000   0.052228   -0.000374
 0.010000   0.052225   -0.000755
 0.015000   0.052220   -0.001144
 0.020000   0.052214   -0.001540
 0.025000   0.052205   -0.001939
 0.030000   0.052194   -0.002341
 0.035000   0.052182   -0.002741
 0.040000   0.052167   -0.003136
 0.045000   0.052150   -0.003523
 0.050000   0.052132   -0.003902
 0.055000   0.052111   -0.004269
 0.060000   0.052089   -0.004623
 0.065000   0.052065   -0.004962
 0.070000   0.052039   -0.005285
 0.075000   0.052012   -0.005591
 0.080000   0.051983   -0.005884
 0.085000   0.051953   -0.006162
 0.090000   0.051922   -0.006423
 0.095000   0.051889   -0.006667
 0.100000   0.051855   -0.006895
 0.105000   0.051820   -0.007107
 0.110000   0.051784   -0.007302
 0.115000   0.051747   -0.007477
 0.120000   0.051709   -0.007632
 0.125000   0.051671   -0.007766
 0.130000   0.051632   -0.007879
 0.135000   0.051592   -0.007972
 0.140000   0.051552   -0.008043
 0.145000   0.051512   -0.008093
 0.150000   0.051471   -0.008121
 0.155000   0.051430   -0.008125
 0.160000   0.051390   -0.008107
 0.165000   0.051349   -0.008065
 0.170000   0.051309   -0.007997
 0.175000   0.051269   -0.007903
 0.180000   0.051230   -0.007783
 0.185000   0.051192   -0.007634
 0.190000   0.051154   -0.007457
 0.195000   0.051117   -0.007250
 0.200000   0.051081   -0.007013
 0.205000   0.051047   -0.006747
 0.210000   0.051014   -0.006452
 0.215000   0.050982   -0.006131
 0.220000   0.050953   -0.005784
 0.225000   0.050924   -0.005415
 0.230000   0.050898   -0.005020
 0.235000   0.050874   -0.004597
 0.240000   0.050852   -0.004145
 0.245000   0.050833   -0.003662
 0.250000   0.050816   -0.003147
 0.255000   0.050801   -0.002600
 0.260000   0.050790   -0.002016
 0.265000   0.050781   -0.001398
 0.270000   0.050776   -0.000745
 0.275000   0.050774   -0.000058
 0.280000   0.050775   0.000660
 0.285000   0.050780   0.001406
 0.290000   0.050789   0.002176
 0.295000   0.050802   0.002964
 0.300000   0.050819   0.003765
 0.305000   0.050840   0.004574
 0.310000   0.050865   0.005384
 0.315000   0.050894   0.006187
 0.320000   0.050927   0.006985
 0.325000   0.050963   0.007784
 0.330000   0.051004   0.008587
 0.335000   0.051049   0.009399
 0.340000   0.051098   0.010223
 0.345000   0.051152   0.011073
 0.350000   0.051209   0.011950
 0.355000   0.051271   0.012843
 0.360000   0.051338   0.013744
 0.365000   0.051408   0.014642
 0.370000   0.051484   0.015526
 0.375000   0.051564   0.016389
 0.380000   0.051648   0.017210
 0.385000   0.051736   0.017971
 0.390000   0.051828   0.018668
 0.395000   0.051923   0.019292
 0.400000   0.052020   0.019835
 0.405000   0.052121   0.020276
 0.410000   0.052223   0.020604
 0.415000   0.052327   0.020836
 0.420000   0.052432   0.020976
 0.425000   0.052537   0.021032
 0.430000   0.052642   0.021013
 0.435000   0.052747   0.020924
 0.440000   0.052851   0.020785
 0.445000   0.052955   0.020618
 0.450000   0.053057   0.020418
 0.455000   0.053159   0.020175
 0.460000   0.053259   0.019884
 0.465000   0.053358   0.019537
 0.470000   0.053454   0.019111
 0.475000   0.053549   0.018572
 0.480000   0.053640   0.017906
 0.485000   0.053728   0.017114
 0.490000   0.053811   0.016195
 0.495000   0.053890   0.015148
 0.500000   0.053963   0.013974
 0.505000   0.054030   0.012681
 0.510000   0.054090   0.011284
 0.515000   0.054142   0.009792
 0.520000   0.054187   0.008216
 0.525000   0.054225   0.006562
 0.530000   0.054253   0.004839
 0.535000   0.054273   0.003055
 0.540000   0.054284   0.001215
 0.545000   0.054285   -0.000685
 0.550000   0.054277   -0.002643
 0.555000   0.054259   -0.004663
 0.560000   0.054230   -0.006748
 0.565000   0.054191   -0.008899
 0.570000   0.054141   -0.011110
 0.575000   0.054080   -0.013371
 0.580000   0.054007   -0.015671
 0.585000   0.053923   -0.017999
 0.590000   0.053827   -0.020340
 0.595000   0.053720   -0.022684
 0.600000   0.053601   -0.025024
 0.605000   0.053470   -0.027357
 0.610000   0.053327   -0.029680
 0.615000   0.053173   -0.031991
 0.620000   0.053007   -0.034288
 0.625000   0.052830   -0.036572
 0.630000   0.052641   -0.038840
 0.635000   0.052442   -0.041085
 0.640000   0.052231   -0.043301
 0.645000   0.052009   -0.045483
 0.650000   0.051776   -0.047631
 0.655000   0.051532   -0.049758
 0.660000   0.051278   -0.051956
 0.665000   0.051013   -0.054402
 0.670000   0.050734   -0.057250
 0.675000   0.050440   -0.060606
 0.680000   0.050128   -0.064775
 0.685000   0.049792   -0.069636
 0.690000   0.049432   -0.074712
 0.695000   0.049045   -0.079914
 0.700000   0.048633   -0.085156
 0.705000   0.048194   -0.090256
 0.710000   0.047730   -0.095210
 0.715000   0.047242   -0.099614
 0.720000   0.046734   -0.102924
 0.725000   0.046212   -0.105158
 0.730000   0.045682   -0.106332
 0.735000   0.045149   -0.106376
 0.740000   0.044619   -0.105162
 0.745000   0.044098   -0.102594
 0.750000   0.043593   -0.098949
 0.755000   0.043108   -0.094552
 0.760000   0.042647   -0.089576
 0.765000   0.042212   -0.084252
 0.770000   0.041805   -0.078665
 0.775000   0.041426   -0.073053
 0.780000   0.041074   -0.067961
 0.785000   0.040746   -0.063499
 0.790000   0.040439   -0.059516
 0.795000   0.040151   -0.056027
 0.800000   0.039879   -0.053013
 0.805000   0.039621   -0.050388
 0.810000   0.039375   -0.047928
 0.815000   0.039141   -0.045438
 0.820000   0.038921   -0.042901
 0.825000   0.038712   -0.040347
 0.830000   0.038517   -0.037810
 0.835000   0.038334   -0.035312
 0.840000   0.038164   -0.032903
 0.845000   0.038005   -0.030615
 0.850000   0.037858   -0.028444
 0.855000   0.037721   -0.026405
 0.860000   0.037594   -0.024519
 0.865000   0.037476   -0.022862
 0.870000   0.037365   -0.021496
 0.875000   0.037261   -0.020395
 0.880000   0.037161   -0.019531
 0.885000   0.037065   -0.018903
 0.890000   0.036972   -0.018553
 0.895000   0.036880   -0.018724
 0.900000   0.036785   -0.019476
 0.905000   0.036685   -0.020844
 0.910000   0.036576   -0.023255
 0.915000   0.036453   -0.027312
 0.920000   0.036303   -0.033994
 0.925000   0.036113   -0.045719
 0.930000   0.035846   -0.064867
 0.935000   0.035464   -0.094644
 0.940000   0.034900   -0.140629
 0.945000   0.034058   -0.208646
 0.950000   0.032813   -0.302999
 0.955000   0.031028   -0.427651
 0.960000   0.028537   -0.569046
 0.965000   0.025337   -0.695964
 0.970000   0.021577   -0.777174
 0.975000   0.017565   -0.787796
 0.980000   0.013699   -0.724226
 0.985000   0.010323   -0.607926
 0.990000   0.007620   -0.471148
 0.995000   0.005612   -0.343248
 1.000000   0.004187   -0.226488
201 psinorm vtor1(km/s) dvtor1/dpsiN
 0.000000   145.439932   717.166001
 0.005000   148.223819   396.388533
 0.010000   149.403818   207.952993
 0.015000   150.303349   164.687530
 0.020000   151.050693   139.645167
 0.025000   151.699800   123.475138
 0.030000   152.285444   112.215578
 0.035000   152.821956   102.733395
 0.040000   153.312778   94.863185
 0.045000   153.770588   88.738506
 0.050000   154.200163   83.316047
 0.055000   154.603748   78.288724
 0.060000   154.983051   73.910279
 0.065000   155.342851   70.191232
 0.070000   155.684963   66.631964
 0.075000   156.009171   63.265621
 0.080000   156.317619   60.297214
 0.085000   156.612143   57.556967
 0.090000   156.893189   54.838912
 0.095000   157.160532   52.285962
 0.100000   157.416048   49.988656
 0.105000   157.660419   47.693657
 0.110000   157.892985   45.425565
 0.115000   158.114674   43.272433
 0.120000   158.325709   41.178609
 0.125000   158.526460   38.991248
 0.130000   158.715622   36.747919
 0.135000   158.893939   34.576186
 0.140000   159.061384   32.324200
 0.145000   159.217181   29.955523
 0.150000   159.360939   27.578049
 0.155000   159.492962   25.192569
 0.160000   159.612865   22.657731
 0.165000   159.719539   20.012233
 0.170000   159.812987   17.388851
 0.175000   159.893428   14.758724
 0.180000   159.960574   12.068389
 0.185000   160.014112   9.380773
 0.190000   160.054382   6.736407
 0.195000   160.081476   4.130398
 0.200000   160.095686   1.649507
 0.205000   160.097971   -0.641565
 0.210000   160.089270   -2.748031
 0.215000   160.070491   -4.680540
 0.220000   160.042465   -6.341047
 0.225000   160.007080   -7.605253
 0.230000   159.966412   -8.644113
 0.235000   159.920639   -9.552860
 0.240000   159.870884   -10.237767
 0.245000   159.818261   -10.726100
 0.250000   159.763623   -11.057444
 0.255000   159.707687   -11.155030
 0.260000   159.652072   -11.242847
 0.265000   159.595258   -11.526139
 0.270000   159.536811   -11.915181
 0.275000   159.476107   -12.442140
 0.280000   159.412390   -13.164727
 0.285000   159.344459   -14.214956
 0.290000   159.270240   -15.605754
 0.295000   159.188402   -17.191249
 0.300000   159.098327   -18.880850
 0.305000   158.999593   -20.640670
 0.310000   158.891921   -22.439004
 0.315000   158.775203   -24.338051
 0.320000   158.648540   -26.267374
 0.325000   158.512529   -28.123151
 0.330000   158.367309   -29.947528
 0.335000   158.213054   -31.740686
 0.340000   158.049902   -33.502918
 0.345000   157.878025   -35.200904
 0.350000   157.697893   -36.750498
 0.355000   157.510520   -38.138263
 0.360000   157.316510   -39.402998
 0.365000   157.116490   -40.515560
 0.370000   156.911355   -41.455422
 0.375000   156.701936   -42.185520
 0.380000   156.489499   -42.715598
 0.385000   156.274780   -43.109003
 0.390000   156.058409   -43.371793
 0.395000   155.841062   -43.522273
 0.400000   155.623187   -43.611847
 0.405000   155.404943   -43.722118
 0.410000   155.185965   -44.162744
 0.415000   154.963316   -45.149140
 0.420000   154.734474   -46.604375
 0.425000   154.497272   -48.465240
 0.430000   154.249822   -50.690979
 0.435000   153.990362   -53.388957
 0.440000   153.715932   -56.509001
 0.445000   153.425272   -59.737357
 0.450000   153.118559   -63.007531
 0.455000   152.795197   -66.363430
 0.460000   152.454924   -69.739212
 0.465000   152.097805   -73.202036
 0.470000   151.722904   -76.654239
 0.475000   151.331263   -79.706224
 0.480000   150.925842   -82.284288
 0.485000   150.508420   -84.478339
 0.490000   150.081058   -86.242930
 0.495000   149.645990   -87.652719
 0.500000   149.204531   -88.975064
 0.505000   148.756240   -90.363103
 0.510000   148.300900   -91.828843
 0.515000   147.837951   -93.404016
 0.520000   147.366860   -95.065708
 0.525000   146.887294   -96.833501
 0.530000   146.398525   -98.783910
 0.535000   145.899455   -100.725215
 0.540000   145.391273   -102.526981
 0.545000   144.874185   -104.273899
 0.550000   144.348534   -105.933038
 0.555000   143.814855   -107.505210
 0.560000   143.273482   -109.033605
 0.565000   142.724519   -110.321073
 0.570000   142.170271   -111.285192
 0.575000   141.611667   -112.035654
 0.580000   141.049914   -112.547135
 0.585000   140.486196   -112.822453
 0.590000   139.921690   -112.818880
 0.595000   139.358007   -112.537377
 0.600000   138.796316   -112.055228
 0.605000   138.237455   -111.413589
 0.610000   137.682180   -110.640800
 0.615000   137.131047   -109.762373
 0.620000   136.584556   -108.690106
 0.625000   136.044146   -107.576058
 0.630000   135.508796   -106.576406
 0.635000   134.978381   -105.634769
 0.640000   134.452448   -104.809684
 0.645000   133.930285   -104.160502
 0.650000   133.410843   -103.794612
 0.655000   132.892339   -103.878969
 0.660000   132.372053   -104.441891
 0.665000   131.847920   -105.377547
 0.670000   131.318278   -106.555887
 0.675000   130.782361   -107.785004
 0.680000   130.240428   -108.725496
 0.685000   129.695106   -108.982738
 0.690000   129.150601   -108.616564
 0.695000   128.608940   -107.953563
 0.700000   128.071065   -107.194657
 0.705000   127.536994   -106.496321
 0.710000   127.006102   -105.900608
 0.715000   126.477987   -105.571514
 0.720000   125.950387   -105.667532
 0.725000   125.421312   -106.132246
 0.730000   124.889064   -106.937859
 0.735000   124.351934   -108.106477
 0.740000   123.807999   -109.830768
 0.745000   123.253626   -112.605163
 0.750000   122.681948   -116.748206
 0.755000   122.086144   -122.265981
 0.760000   121.459288   -129.086870
 0.765000   120.795275   -136.972961
 0.770000   120.089558   -145.964906
 0.775000   119.335626   -155.771556
 0.780000   118.531843   -165.133162
 0.785000   117.684294   -173.700950
 0.790000   116.794833   -181.785047
 0.795000   115.866444   -189.214057
 0.800000   114.902693   -196.065651
 0.805000   113.905787   -202.718598
 0.810000   112.875507   -209.209602
 0.815000   111.813691   -215.669518
 0.820000   110.718811   -222.374592
 0.825000   109.589946   -229.165749
 0.830000   108.427154   -236.028195
 0.835000   107.229664   -243.175070
 0.840000   105.995403   -250.133862
 0.845000   104.728325   -257.383278
 0.850000   103.421571   -266.380384
 0.855000   102.064521   -277.810365
 0.860000   100.643467   -292.471820
 0.865000   99.139803   -312.625500
 0.870000   97.517212   -336.906598
 0.875000   95.770737   -364.067797
 0.880000   93.876534   -396.546616
 0.885000   91.805271   -435.522953
 0.890000   89.521304   -482.266562
 0.895000   86.982605   -540.348985
 0.900000   84.117815   -607.072646
 0.905000   80.911879   -678.322565
 0.910000   77.334589   -753.492310
 0.915000   73.376956   -827.191079
 0.920000   69.062678   -891.906412
 0.925000   64.457891   -939.250419
 0.930000   59.670174   -956.660841
 0.935000   54.891283   -935.731436
 0.940000   50.312860   -877.177274
 0.945000   46.119510   -785.125058
 0.950000   42.461609   -668.891961
 0.955000   39.430591   -540.665593
 0.960000   37.054953   -416.486970
 0.965000   35.265721   -311.499459
 0.970000   33.939958   -234.306897
 0.975000   32.922652   -189.164301
 0.980000   32.048315   -176.037562
 0.985000   31.162276   -190.358841
 0.990000   30.144727   -225.267197
 0.995000   28.909604   -273.127861
 1.000000   27.413448   -325.334566
201 psinorm vpol1(km/s) dvpol1/dpsiN
 0.000000   0.000172   4.593750
 0.005000   0.024688   5.212500
 0.010000   0.052297   5.793750
 0.015000   0.082625   6.371875
 0.020000   0.116016   6.931250
 0.025000   0.151938   7.434375
 0.030000   0.190359   7.912500
 0.035000   0.231063   8.329687
 0.040000   0.273656   8.706250
 0.045000   0.318125   9.078125
 0.050000   0.364438   9.435938
 0.055000   0.412484   9.778125
 0.060000   0.462219   10.118750
 0.065000   0.513672   10.450000
 0.070000   0.566719   10.718750
 0.075000   0.620859   10.914062
 0.080000   0.675859   11.048438
 0.085000   0.731344   11.076563
 0.090000   0.786625   10.981250
 0.095000   0.841156   10.857812
 0.100000   0.895203   10.745312
 0.105000   0.948609   10.620312
 0.110000   1.001406   10.515625
 0.115000   1.053766   10.440625
 0.120000   1.105813   10.421875
 0.125000   1.157984   10.434375
 0.130000   1.210156   10.476562
 0.135000   1.262750   10.543750
 0.140000   1.315594   10.559375
 0.145000   1.368344   10.512500
 0.150000   1.420719   10.387500
 0.155000   1.472219   10.164062
 0.160000   1.522359   9.873437
 0.165000   1.570953   9.521875
 0.170000   1.617578   9.117188
 0.175000   1.662125   8.650000
 0.180000   1.704078   8.123438
 0.185000   1.743359   7.579688
 0.190000   1.779875   7.021875
 0.195000   1.813578   6.479687
 0.200000   1.844672   5.946875
 0.205000   1.873047   5.426563
 0.210000   1.898937   4.907813
 0.215000   1.922125   4.340625
 0.220000   1.942344   3.678125
 0.225000   1.958906   2.907813
 0.230000   1.971422   2.040625
 0.235000   1.979313   1.057813
 0.240000   1.982000   -0.003125
 0.245000   1.979281   -1.079688
 0.250000   1.971203   -2.150000
 0.255000   1.957781   -3.221875
 0.260000   1.938984   -4.218750
 0.265000   1.915594   -5.129687
 0.270000   1.887687   -6.014062
 0.275000   1.855453   -6.862500
 0.280000   1.819063   -7.698438
 0.285000   1.778469   -8.492188
 0.290000   1.734141   -9.254688
 0.295000   1.685922   -10.059375
 0.300000   1.633547   -10.914062
 0.305000   1.576781   -11.839063
 0.310000   1.515156   -12.840625
 0.315000   1.448375   -13.887500
 0.320000   1.376281   -14.948437
 0.325000   1.298891   -15.914062
 0.330000   1.217141   -16.781250
 0.335000   1.131078   -17.596875
 0.340000   1.041172   -18.367187
 0.345000   0.947406   -19.157812
 0.350000   0.849594   -19.981250
 0.355000   0.747594   -20.904688
 0.360000   0.640547   -21.935937
 0.365000   0.528234   -23.037500
 0.370000   0.410172   -24.231250
 0.375000   0.285922   -25.498437
 0.380000   0.155188   -26.857812
 0.385000   0.017344   -28.176562
 0.390000   -0.126578   -29.268750
 0.395000   -0.275344   -30.142187
 0.400000   -0.428000   -30.867187
 0.405000   -0.584016   -31.660937
 0.410000   -0.744609   -33.115625
 0.415000   -0.915172   -35.523438
 0.420000   -1.099844   -38.710938
 0.425000   -1.302281   -42.554687
 0.430000   -1.525391   -46.956250
 0.435000   -1.771844   -51.850000
 0.440000   -2.043891   -57.187500
 0.445000   -2.343719   -61.945312
 0.450000   -2.663344   -65.312500
 0.455000   -2.996844   -67.312500
 0.460000   -3.336469   -67.600000
 0.465000   -3.672844   -65.903125
 0.470000   -3.995500   -61.925000
 0.475000   -4.292094   -56.143750
 0.480000   -4.556938   -49.440625
 0.485000   -4.786500   -42.335938
 0.490000   -4.980297   -35.323437
 0.495000   -5.139734   -28.576562
 0.500000   -5.266063   -22.573437
 0.505000   -5.365469   -17.904688
 0.510000   -5.445109   -14.520312
 0.515000   -5.510672   -12.121875
 0.520000   -5.566328   -10.510938
 0.525000   -5.615781   -9.531250
 0.530000   -5.661641   -8.796875
 0.535000   -5.703750   -7.807812
 0.540000   -5.739719   -6.379687
 0.545000   -5.767547   -4.451563
 0.550000   -5.784234   -1.964063
 0.555000   -5.787187   1.087500
 0.560000   -5.773359   4.631250
 0.565000   -5.740875   8.370312
 0.570000   -5.689656   12.046875
 0.575000   -5.620406   15.418750
 0.580000   -5.535469   18.229688
 0.585000   -5.438109   20.120312
 0.590000   -5.334266   21.054688
 0.595000   -5.227563   21.231250
 0.600000   -5.121953   20.723437
 0.605000   -5.020328   19.723437
 0.610000   -4.924719   18.392187
 0.615000   -4.836406   16.804688
 0.620000   -4.756672   15.414062
 0.625000   -4.682266   14.481250
 0.630000   -4.611859   13.790625
 0.635000   -4.544359   13.276563
 0.640000   -4.479094   12.867188
 0.645000   -4.415687   12.478125
 0.650000   -4.354312   12.023438
 0.655000   -4.295453   11.485938
 0.660000   -4.239453   10.901562
 0.665000   -4.186438   10.271875
 0.670000   -4.136734   9.578125
 0.675000   -4.090656   8.837500
 0.680000   -4.048359   8.050000
 0.685000   -4.010156   7.231250
 0.690000   -3.976047   6.367187
 0.695000   -3.946484   5.439062
 0.700000   -3.921656   4.479688
 0.705000   -3.901687   3.462500
 0.710000   -3.887031   2.370312
 0.715000   -3.877984   1.225000
 0.720000   -3.874781   0.046875
 0.725000   -3.877516   -1.179688
 0.730000   -3.886578   -2.425000
 0.735000   -3.901766   -3.679688
 0.740000   -3.923375   -4.932813
 0.745000   -3.951094   -6.157812
 0.750000   -3.984953   -7.375000
 0.755000   -4.024844   -8.542188
 0.760000   -4.070375   -9.692187
 0.765000   -4.121766   -10.975000
 0.770000   -4.180125   -12.559375
 0.775000   -4.247359   -14.557813
 0.780000   -4.325703   -17.048437
 0.785000   -4.417844   -20.098437
 0.790000   -4.526688   -24.001562
 0.795000   -4.657859   -28.432813
 0.800000   -4.811016   -32.876562
 0.805000   -4.986625   -37.284375
 0.810000   -5.183859   -41.381250
 0.815000   -5.400437   -44.865625
 0.820000   -5.632516   -47.409375
 0.825000   -5.874531   -48.584375
 0.830000   -6.118359   -48.293750
 0.835000   -6.357469   -46.739063
 0.840000   -6.585750   -44.054688
 0.845000   -6.798016   -40.418750
 0.850000   -6.989937   -35.976562
 0.855000   -7.157781   -31.401563
 0.860000   -7.303953   -27.242188
 0.865000   -7.430203   -23.496875
 0.870000   -7.538922   -20.260937
 0.875000   -7.632812   -17.571875
 0.880000   -7.714641   -15.412500
 0.885000   -7.786938   -13.509375
 0.890000   -7.849734   -11.548437
 0.895000   -7.902422   -9.396875
 0.900000   -7.943703   -6.942188
 0.905000   -7.971844   -3.978125
 0.910000   -7.983484   -0.153125
 0.915000   -7.973375   4.876562
 0.920000   -7.934719   11.401562
 0.925000   -7.859359   19.667187
 0.930000   -7.738047   29.778125
 0.935000   -7.561578   42.471875
 0.940000   -7.313328   57.898438
 0.945000   -6.982594   73.254687
 0.950000   -6.580781   82.945312
 0.955000   -6.153141   78.321875
 0.960000   -5.797562   49.490625
 0.965000   -5.658234   -8.038281
 0.970000   -5.877945   -79.514844
 0.975000   -6.453383   -118.970312
 0.980000   -7.067648   -64.603906
 0.985000   -7.099422   116.780469
 0.990000   -5.899844   383.412500
 0.995000   -3.265297   610.903906
 1.000000   0.209195   778.892969
3 N Z A of ION SPECIES
 6.000000   6.000000   12.010700
 1.000000   1.000000   2.000000
 1.000000   1.000000   2.000000
