201 psinorm ne(10^20/m^3) dne/dpsiN
 0.000000   0.552287   -0.669450
 0.005000   0.548957   -0.662428
 0.010000   0.545662   -0.655445
 0.015000   0.542403   -0.648539
 0.020000   0.539177   -0.641711
 0.025000   0.535985   -0.634958
 0.030000   0.532827   -0.628280
 0.035000   0.529703   -0.621676
 0.040000   0.526611   -0.615145
 0.045000   0.523551   -0.608685
 0.050000   0.520524   -0.602296
 0.055000   0.517528   -0.595978
 0.060000   0.514564   -0.589728
 0.065000   0.511631   -0.583547
 0.070000   0.508729   -0.577432
 0.075000   0.505857   -0.571384
 0.080000   0.503015   -0.565402
 0.085000   0.500203   -0.559484
 0.090000   0.497420   -0.553630
 0.095000   0.494666   -0.547839
 0.100000   0.491942   -0.542109
 0.105000   0.489245   -0.536442
 0.110000   0.486577   -0.530834
 0.115000   0.483937   -0.525287
 0.120000   0.481324   -0.519798
 0.125000   0.478739   -0.514367
 0.130000   0.476181   -0.508994
 0.135000   0.473649   -0.503677
 0.140000   0.471144   -0.498416
 0.145000   0.468665   -0.493211
 0.150000   0.466212   -0.488060
 0.155000   0.463784   -0.482962
 0.160000   0.461382   -0.477918
 0.165000   0.459005   -0.472925
 0.170000   0.456653   -0.467985
 0.175000   0.454325   -0.463095
 0.180000   0.452022   -0.458256
 0.185000   0.449743   -0.453467
 0.190000   0.447487   -0.448726
 0.195000   0.445255   -0.444034
 0.200000   0.443047   -0.439390
 0.205000   0.440861   -0.434792
 0.210000   0.438699   -0.430242
 0.215000   0.436559   -0.425737
 0.220000   0.434442   -0.421277
 0.225000   0.432346   -0.416863
 0.230000   0.430273   -0.412492
 0.235000   0.428221   -0.408165
 0.240000   0.426191   -0.403881
 0.245000   0.424183   -0.399639
 0.250000   0.422195   -0.395440
 0.255000   0.420228   -0.391281
 0.260000   0.418282   -0.387164
 0.265000   0.416357   -0.383087
 0.270000   0.414451   -0.379050
 0.275000   0.412566   -0.375051
 0.280000   0.410701   -0.371092
 0.285000   0.408855   -0.367171
 0.290000   0.407029   -0.363288
 0.295000   0.405222   -0.359442
 0.300000   0.403435   -0.355632
 0.305000   0.401666   -0.351859
 0.310000   0.399916   -0.348122
 0.315000   0.398185   -0.344420
 0.320000   0.396472   -0.340754
 0.325000   0.394777   -0.337121
 0.330000   0.393101   -0.333523
 0.335000   0.391442   -0.329958
 0.340000   0.389801   -0.326426
 0.345000   0.388178   -0.322928
 0.350000   0.386572   -0.319461
 0.355000   0.384983   -0.316026
 0.360000   0.383411   -0.312623
 0.365000   0.381857   -0.309250
 0.370000   0.380319   -0.305909
 0.375000   0.378798   -0.302597
 0.380000   0.377293   -0.299316
 0.385000   0.375805   -0.296064
 0.390000   0.374332   -0.292841
 0.395000   0.372876   -0.289646
 0.400000   0.371436   -0.286480
 0.405000   0.370011   -0.283342
 0.410000   0.368602   -0.280232
 0.415000   0.367209   -0.277148
 0.420000   0.365831   -0.274092
 0.425000   0.364468   -0.271062
 0.430000   0.363120   -0.268058
 0.435000   0.361788   -0.265080
 0.440000   0.360470   -0.262128
 0.445000   0.359166   -0.259201
 0.450000   0.357878   -0.256298
 0.455000   0.356603   -0.253420
 0.460000   0.355343   -0.250566
 0.465000   0.354098   -0.247736
 0.470000   0.352866   -0.244929
 0.475000   0.351648   -0.242146
 0.480000   0.350445   -0.239386
 0.485000   0.349254   -0.236648
 0.490000   0.348078   -0.233932
 0.495000   0.346915   -0.231239
 0.500000   0.345766   -0.228567
 0.505000   0.344629   -0.225916
 0.510000   0.343506   -0.223287
 0.515000   0.342397   -0.220678
 0.520000   0.341300   -0.218090
 0.525000   0.340216   -0.215522
 0.530000   0.339144   -0.212974
 0.535000   0.338086   -0.210446
 0.540000   0.337040   -0.207937
 0.545000   0.336007   -0.205448
 0.550000   0.334986   -0.202977
 0.555000   0.333977   -0.200525
 0.560000   0.332980   -0.198091
 0.565000   0.331996   -0.195676
 0.570000   0.331024   -0.193278
 0.575000   0.330063   -0.190898
 0.580000   0.329115   -0.188535
 0.585000   0.328178   -0.186190
 0.590000   0.327253   -0.183861
 0.595000   0.326339   -0.181549
 0.600000   0.325437   -0.179253
 0.605000   0.324547   -0.176974
 0.610000   0.323667   -0.174710
 0.615000   0.322800   -0.172462
 0.620000   0.321943   -0.170229
 0.625000   0.321097   -0.168012
 0.630000   0.320263   -0.165809
 0.635000   0.319439   -0.163621
 0.640000   0.318627   -0.161447
 0.645000   0.317825   -0.159287
 0.650000   0.317034   -0.157141
 0.655000   0.316253   -0.155009
 0.660000   0.315484   -0.152889
 0.665000   0.314724   -0.150783
 0.670000   0.313976   -0.148689
 0.675000   0.313237   -0.146606
 0.680000   0.312510   -0.144536
 0.685000   0.311792   -0.142476
 0.690000   0.311085   -0.140426
 0.695000   0.310388   -0.138386
 0.700000   0.309701   -0.136355
 0.705000   0.309024   -0.134332
 0.710000   0.308358   -0.132315
 0.715000   0.307701   -0.130303
 0.720000   0.307055   -0.128294
 0.725000   0.306418   -0.126287
 0.730000   0.305792   -0.124279
 0.735000   0.305175   -0.122267
 0.740000   0.304569   -0.120246
 0.745000   0.303973   -0.118213
 0.750000   0.303387   -0.116163
 0.755000   0.302811   -0.114087
 0.760000   0.302246   -0.111979
 0.765000   0.301692   -0.109827
 0.770000   0.301148   -0.107620
 0.775000   0.300615   -0.105344
 0.780000   0.300094   -0.102978
 0.785000   0.299586   -0.100503
 0.790000   0.299089   -0.097890
 0.795000   0.298607   -0.095107
 0.800000   0.298138   -0.092116
 0.805000   0.297686   -0.088870
 0.810000   0.297250   -0.085312
 0.815000   0.296832   -0.081376
 0.820000   0.296436   -0.076983
 0.825000   0.296063   -0.072042
 0.830000   0.295715   -0.066445
 0.835000   0.295398   -0.060070
 0.840000   0.295115   -0.052779
 0.845000   0.294870   -0.044422
 0.850000   0.294671   -0.034839
 0.855000   0.294522   -0.023867
 0.860000   0.294432   -0.011358
 0.865000   0.294408   0.002799
 0.870000   0.294460   0.018644
 0.875000   0.294595   0.036084
 0.880000   0.294821   0.054811
 0.885000   0.295143   0.074169
 0.890000   0.295562   0.092971
 0.895000   0.296073   0.109227
 0.900000   0.296655   0.119771
 0.905000   0.297270   0.119752
 0.910000   0.297852   0.101999
 0.915000   0.298290   0.056269
 0.920000   0.298415   -0.031445
 0.925000   0.297976   -0.179246
 0.930000   0.296622   -0.408608
 0.935000   0.293890   -0.741583
 0.940000   0.289207   -1.194658
 0.945000   0.281943   -1.768617
 0.950000   0.271520   -2.436025
 0.955000   0.257583   -3.132081
 0.960000   0.240200   -3.758229
 0.965000   0.220001   -4.205484
 0.970000   0.198145   -4.392359
 0.975000   0.176077   -4.297535
 0.980000   0.155169   -3.965936
 0.985000   0.136418   -3.484882
 0.990000   0.120321   -2.947851
 0.995000   0.106939   -2.427277
 1.000000   0.096048   -1.929265
201 psinorm te(KeV) dte/dpsiN
 0.000000   4.247599   -5.070733
 0.005000   4.222288   -5.053758
 0.010000   4.197061   -5.036754
 0.015000   4.171920   -5.019694
 0.020000   4.146864   -5.002580
 0.025000   4.121894   -4.985411
 0.030000   4.097010   -4.968190
 0.035000   4.072212   -4.950917
 0.040000   4.047501   -4.933594
 0.045000   4.022876   -4.916222
 0.050000   3.998339   -4.898801
 0.055000   3.973888   -4.881333
 0.060000   3.949525   -4.863819
 0.065000   3.925250   -4.846261
 0.070000   3.901063   -4.828658
 0.075000   3.876964   -4.811013
 0.080000   3.852953   -4.793326
 0.085000   3.829030   -4.775599
 0.090000   3.805197   -4.757833
 0.095000   3.781452   -4.740028
 0.100000   3.757796   -4.722185
 0.105000   3.734230   -4.704307
 0.110000   3.710753   -4.686393
 0.115000   3.687366   -4.668446
 0.120000   3.664069   -4.650465
 0.125000   3.640862   -4.632453
 0.130000   3.617744   -4.614409
 0.135000   3.594717   -4.596336
 0.140000   3.571781   -4.578234
 0.145000   3.548935   -4.560104
 0.150000   3.526180   -4.541948
 0.155000   3.503516   -4.523765
 0.160000   3.480942   -4.505558
 0.165000   3.458460   -4.487328
 0.170000   3.436069   -4.469074
 0.175000   3.413769   -4.450799
 0.180000   3.391561   -4.432503
 0.185000   3.369444   -4.414188
 0.190000   3.347419   -4.395854
 0.195000   3.325486   -4.377502
 0.200000   3.303644   -4.359133
 0.205000   3.281894   -4.340749
 0.210000   3.260237   -4.322350
 0.215000   3.238671   -4.303937
 0.220000   3.217197   -4.285511
 0.225000   3.195816   -4.267074
 0.230000   3.174527   -4.248625
 0.235000   3.153330   -4.230166
 0.240000   3.132225   -4.211698
 0.245000   3.111213   -4.193222
 0.250000   3.090293   -4.174739
 0.255000   3.069465   -4.156250
 0.260000   3.048730   -4.137755
 0.265000   3.028088   -4.119255
 0.270000   3.007538   -4.100752
 0.275000   2.987080   -4.082246
 0.280000   2.966715   -4.063738
 0.285000   2.946443   -4.045230
 0.290000   2.926263   -4.026721
 0.295000   2.906175   -4.008213
 0.300000   2.886181   -3.989707
 0.305000   2.866278   -3.971203
 0.310000   2.846469   -3.952703
 0.315000   2.826751   -3.934206
 0.320000   2.807127   -3.915715
 0.325000   2.787594   -3.897230
 0.330000   2.768154   -3.878752
 0.335000   2.748807   -3.860281
 0.340000   2.729551   -3.841818
 0.345000   2.710389   -3.823364
 0.350000   2.691318   -3.804921
 0.355000   2.672339   -3.786488
 0.360000   2.653453   -3.768067
 0.365000   2.634659   -3.749658
 0.370000   2.615956   -3.731262
 0.375000   2.597346   -3.712880
 0.380000   2.578828   -3.694513
 0.385000   2.560401   -3.676161
 0.390000   2.542066   -3.657826
 0.395000   2.523823   -3.639507
 0.400000   2.505671   -3.621206
 0.405000   2.487611   -3.602923
 0.410000   2.469642   -3.584659
 0.415000   2.451764   -3.566416
 0.420000   2.433978   -3.548192
 0.425000   2.416282   -3.529990
 0.430000   2.398678   -3.511810
 0.435000   2.381164   -3.493653
 0.440000   2.363741   -3.475518
 0.445000   2.346409   -3.457408
 0.450000   2.329167   -3.439323
 0.455000   2.312016   -3.421263
 0.460000   2.294954   -3.403228
 0.465000   2.277983   -3.385221
 0.470000   2.261102   -3.367241
 0.475000   2.244311   -3.349289
 0.480000   2.227609   -3.331365
 0.485000   2.210997   -3.313471
 0.490000   2.194475   -3.295606
 0.495000   2.178041   -3.277772
 0.500000   2.161697   -3.259969
 0.505000   2.145441   -3.242197
 0.510000   2.129275   -3.224458
 0.515000   2.113197   -3.206752
 0.520000   2.097207   -3.189079
 0.525000   2.081306   -3.171440
 0.530000   2.065493   -3.153836
 0.535000   2.049768   -3.136267
 0.540000   2.034130   -3.118734
 0.545000   2.018580   -3.101237
 0.550000   2.003118   -3.083776
 0.555000   1.987743   -3.066353
 0.560000   1.972454   -3.048968
 0.565000   1.957253   -3.031622
 0.570000   1.942138   -3.014314
 0.575000   1.927110   -2.997046
 0.580000   1.912168   -2.979817
 0.585000   1.897312   -2.962629
 0.590000   1.882541   -2.945482
 0.595000   1.867857   -2.928376
 0.600000   1.853258   -2.911313
 0.605000   1.838744   -2.894291
 0.610000   1.824315   -2.877313
 0.615000   1.809971   -2.860377
 0.620000   1.795711   -2.843486
 0.625000   1.781536   -2.826639
 0.630000   1.767445   -2.809836
 0.635000   1.753437   -2.793078
 0.640000   1.739514   -2.776366
 0.645000   1.725674   -2.759700
 0.650000   1.711917   -2.743080
 0.655000   1.698243   -2.726507
 0.660000   1.684652   -2.709981
 0.665000   1.671143   -2.693503
 0.670000   1.657717   -2.677073
 0.675000   1.644372   -2.660691
 0.680000   1.631110   -2.644357
 0.685000   1.617929   -2.628073
 0.690000   1.604829   -2.611838
 0.695000   1.591810   -2.595653
 0.700000   1.578873   -2.579519
 0.705000   1.566015   -2.563434
 0.710000   1.553238   -2.547401
 0.715000   1.540541   -2.531419
 0.720000   1.527924   -2.515488
 0.725000   1.515386   -2.499610
 0.730000   1.502928   -2.483783
 0.735000   1.490548   -2.468009
 0.740000   1.478248   -2.452288
 0.745000   1.466026   -2.436620
 0.750000   1.453882   -2.421005
 0.755000   1.441816   -2.405444
 0.760000   1.429827   -2.389937
 0.765000   1.417916   -2.374484
 0.770000   1.406082   -2.359086
 0.775000   1.394325   -2.343742
 0.780000   1.382645   -2.328454
 0.785000   1.371041   -2.313221
 0.790000   1.359513   -2.298043
 0.795000   1.348060   -2.282922
 0.800000   1.336683   -2.267856
 0.805000   1.325382   -2.252847
 0.810000   1.314155   -2.237894
 0.815000   1.303003   -2.222998
 0.820000   1.291925   -2.208159
 0.825000   1.280921   -2.193377
 0.830000   1.269991   -2.178652
 0.835000   1.259135   -2.163985
 0.840000   1.248351   -2.149376
 0.845000   1.237641   -2.134825
 0.850000   1.227003   -2.120332
 0.855000   1.216438   -2.105897
 0.860000   1.205944   -2.091521
 0.865000   1.195522   -2.077203
 0.870000   1.185172   -2.062944
 0.875000   1.174893   -2.048743
 0.880000   1.164685   -2.034599
 0.885000   1.154547   -2.020511
 0.890000   1.144480   -2.006473
 0.895000   1.134482   -1.992475
 0.900000   1.124555   -1.978492
 0.905000   1.114697   -1.964474
 0.910000   1.104910   -1.950320
 0.915000   1.095194   -1.935836
 0.920000   1.085552   -1.920698
 0.925000   1.075987   -1.904507
 0.930000   1.066507   -1.887311
 0.935000   1.057114   -1.871949
 0.940000   1.047787   -1.872497
 0.945000   1.038389   -1.942032
 0.950000   1.028367   -2.257658
 0.955000   1.015813   -3.359294
 0.960000   0.994774   -6.700815
 0.965000   0.948804   -15.215131
 0.970000   0.842623   -30.720139
 0.975000   0.641603   -44.590359
 0.980000   0.396719   -41.825711
 0.985000   0.223346   -25.803189
 0.990000   0.138687   -12.332870
 0.995000   0.100017   -5.874640
 1.000000   0.079941   -2.155925
201 psinorm ni(10^20/m^3) dni/dpsiN
 0.000000   0.360436   -0.816200
 0.005000   0.356653   -0.696746
 0.010000   0.353468   -0.596776
 0.015000   0.350686   -0.523635
 0.020000   0.348232   -0.462359
 0.025000   0.346062   -0.408971
 0.030000   0.344142   -0.362964
 0.035000   0.342432   -0.324290
 0.040000   0.340899   -0.291665
 0.045000   0.339516   -0.263982
 0.050000   0.338259   -0.240443
 0.055000   0.337111   -0.221158
 0.060000   0.336048   -0.205282
 0.065000   0.335058   -0.192287
 0.070000   0.334125   -0.182176
 0.075000   0.333237   -0.174258
 0.080000   0.332382   -0.168404
 0.085000   0.331553   -0.164350
 0.090000   0.330739   -0.161688
 0.095000   0.329936   -0.160178
 0.100000   0.329137   -0.160178
 0.105000   0.328334   -0.161413
 0.110000   0.327523   -0.163176
 0.115000   0.326702   -0.165479
 0.120000   0.325868   -0.168389
 0.125000   0.325018   -0.171824
 0.130000   0.324150   -0.175703
 0.135000   0.323261   -0.179919
 0.140000   0.322351   -0.184327
 0.145000   0.321418   -0.189000
 0.150000   0.320461   -0.193858
 0.155000   0.319479   -0.198620
 0.160000   0.318475   -0.203356
 0.165000   0.317446   -0.208058
 0.170000   0.316394   -0.212817
 0.175000   0.315318   -0.217533
 0.180000   0.314219   -0.221998
 0.185000   0.313098   -0.226295
 0.190000   0.311956   -0.230421
 0.195000   0.310793   -0.234358
 0.200000   0.309612   -0.238106
 0.205000   0.308412   -0.241654
 0.210000   0.307196   -0.244981
 0.215000   0.305963   -0.248086
 0.220000   0.304715   -0.250978
 0.225000   0.303453   -0.253658
 0.230000   0.302178   -0.256598
 0.235000   0.300887   -0.259264
 0.240000   0.299585   -0.261173
 0.245000   0.298275   -0.262857
 0.250000   0.296957   -0.264329
 0.255000   0.295632   -0.265592
 0.260000   0.294301   -0.266798
 0.265000   0.292964   -0.268151
 0.270000   0.291619   -0.269167
 0.275000   0.290272   -0.269671
 0.280000   0.288923   -0.270034
 0.285000   0.287572   -0.270269
 0.290000   0.286220   -0.270641
 0.295000   0.284865   -0.270988
 0.300000   0.283510   -0.270936
 0.305000   0.282156   -0.270656
 0.310000   0.280804   -0.270277
 0.315000   0.279453   -0.269983
 0.320000   0.278104   -0.269650
 0.325000   0.276757   -0.268989
 0.330000   0.275414   -0.268126
 0.335000   0.274076   -0.267165
 0.340000   0.272742   -0.266293
 0.345000   0.271413   -0.265299
 0.350000   0.270089   -0.263997
 0.355000   0.268773   -0.262617
 0.360000   0.267463   -0.261249
 0.365000   0.266160   -0.259868
 0.370000   0.264864   -0.258324
 0.375000   0.263577   -0.256650
 0.380000   0.262298   -0.254942
 0.385000   0.261027   -0.253240
 0.390000   0.259766   -0.251420
 0.395000   0.258513   -0.249441
 0.400000   0.257271   -0.247408
 0.405000   0.256039   -0.245385
 0.410000   0.254817   -0.243273
 0.415000   0.253606   -0.241002
 0.420000   0.252407   -0.238657
 0.425000   0.251220   -0.236318
 0.430000   0.250044   -0.233907
 0.435000   0.248881   -0.231341
 0.440000   0.247731   -0.228708
 0.445000   0.246594   -0.226111
 0.450000   0.245470   -0.223471
 0.455000   0.244359   -0.220699
 0.460000   0.243263   -0.217884
 0.465000   0.242180   -0.215105
 0.470000   0.241111   -0.212276
 0.475000   0.240057   -0.209313
 0.480000   0.239018   -0.206297
 0.485000   0.237994   -0.203295
 0.490000   0.236985   -0.200216
 0.495000   0.235992   -0.196990
 0.500000   0.235016   -0.193709
 0.505000   0.234055   -0.190431
 0.510000   0.233111   -0.187072
 0.515000   0.232184   -0.183580
 0.520000   0.231275   -0.180052
 0.525000   0.230384   -0.176524
 0.530000   0.229510   -0.172921
 0.535000   0.228655   -0.169214
 0.540000   0.227818   -0.165486
 0.545000   0.227000   -0.161760
 0.550000   0.226200   -0.157955
 0.555000   0.225420   -0.154041
 0.560000   0.224660   -0.150091
 0.565000   0.223919   -0.146123
 0.570000   0.223199   -0.142068
 0.575000   0.222499   -0.137911
 0.580000   0.221820   -0.133720
 0.585000   0.221162   -0.129516
 0.590000   0.220525   -0.125248
 0.595000   0.219909   -0.120924
 0.600000   0.219315   -0.116609
 0.605000   0.218743   -0.112316
 0.610000   0.218192   -0.107999
 0.615000   0.217663   -0.103633
 0.620000   0.217156   -0.099221
 0.625000   0.216671   -0.094744
 0.630000   0.216208   -0.090182
 0.635000   0.215769   -0.085529
 0.640000   0.215353   -0.080807
 0.645000   0.214961   -0.076015
 0.650000   0.214593   -0.071116
 0.655000   0.214250   -0.066171
 0.660000   0.213931   -0.061266
 0.665000   0.213637   -0.056387
 0.670000   0.213367   -0.051546
 0.675000   0.213122   -0.046788
 0.680000   0.212899   -0.042054
 0.685000   0.212701   -0.037140
 0.690000   0.212528   -0.031841
 0.695000   0.212383   -0.026115
 0.700000   0.212267   -0.019980
 0.705000   0.212183   -0.013437
 0.710000   0.212133   -0.006305
 0.715000   0.212120   0.001262
 0.720000   0.212145   0.008728
 0.725000   0.212207   0.016017
 0.730000   0.212305   0.023164
 0.735000   0.212439   0.030051
 0.740000   0.212606   0.036648
 0.745000   0.212805   0.042591
 0.750000   0.213032   0.047413
 0.755000   0.213279   0.051110
 0.760000   0.213543   0.053713
 0.765000   0.213816   0.055211
 0.770000   0.214095   0.055454
 0.775000   0.214371   0.054444
 0.780000   0.214639   0.052831
 0.785000   0.214899   0.051045
 0.790000   0.215150   0.049149
 0.795000   0.215391   0.047336
 0.800000   0.215623   0.045685
 0.805000   0.215848   0.044391
 0.810000   0.216067   0.044004
 0.815000   0.216288   0.044680
 0.820000   0.216514   0.046229
 0.825000   0.216750   0.048628
 0.830000   0.217000   0.051809
 0.835000   0.217268   0.055704
 0.840000   0.217557   0.060426
 0.845000   0.217872   0.066184
 0.850000   0.218219   0.073141
 0.855000   0.218604   0.081482
 0.860000   0.219034   0.091348
 0.865000   0.219517   0.102918
 0.870000   0.220063   0.116459
 0.875000   0.220682   0.132072
 0.880000   0.221384   0.149508
 0.885000   0.222177   0.168112
 0.890000   0.223065   0.186652
 0.895000   0.224043   0.203452
 0.900000   0.225099   0.215288
 0.905000   0.226196   0.217296
 0.910000   0.227272   0.202738
 0.915000   0.228224   0.161519
 0.920000   0.228888   0.079993
 0.925000   0.229024   -0.057499
 0.930000   0.228313   -0.270908
 0.935000   0.226315   -0.580162
 0.940000   0.222511   -0.995388
 0.945000   0.216361   -1.508464
 0.950000   0.207426   -2.079877
 0.955000   0.195562   -2.625692
 0.960000   0.181169   -3.041822
 0.965000   0.165144   -3.237086
 0.970000   0.148799   -3.168178
 0.975000   0.133462   -2.878900
 0.980000   0.120010   -2.479862
 0.985000   0.108663   -2.085785
 0.990000   0.099152   -1.764106
 0.995000   0.091022   -1.516266
 1.000000   0.083989   -1.297015
201 psinorm ti(KeV) dti/dpsiN
 0.000000   5.850649   0.002758
 0.005000   5.849766   -0.356054
 0.010000   5.847088   -0.718771
 0.015000   5.842578   -1.088835
 0.020000   5.836200   -1.465273
 0.025000   5.827925   -1.847019
 0.030000   5.817730   -2.232970
 0.035000   5.805595   -2.622039
 0.040000   5.791509   -3.012958
 0.045000   5.775466   -3.404797
 0.050000   5.757461   -3.796785
 0.055000   5.737498   -4.187844
 0.060000   5.715583   -4.576889
 0.065000   5.691729   -4.962649
 0.070000   5.665956   -5.343045
 0.075000   5.638299   -5.716832
 0.080000   5.608788   -6.083923
 0.085000   5.577459   -6.443674
 0.090000   5.544351   -6.795331
 0.095000   5.509506   -7.138170
 0.100000   5.472970   -7.470979
 0.105000   5.434796   -7.792736
 0.110000   5.395042   -8.102662
 0.115000   5.353770   -8.399776
 0.120000   5.311045   -8.683781
 0.125000   5.266932   -8.955193
 0.130000   5.221493   -9.215520
 0.135000   5.174777   -9.465507
 0.140000   5.126838   -9.702945
 0.145000   5.077747   -9.925597
 0.150000   5.027582   -10.132709
 0.155000   4.976420   -10.323576
 0.160000   4.924346   -10.497535
 0.165000   4.871445   -10.652983
 0.170000   4.817816   -10.788238
 0.175000   4.763562   -10.902812
 0.180000   4.708788   -10.996493
 0.185000   4.653598   -11.069108
 0.190000   4.598097   -11.119756
 0.195000   4.542400   -11.147643
 0.200000   4.486620   -11.155907
 0.205000   4.430841   -11.147374
 0.210000   4.375147   -11.122776
 0.215000   4.319613   -11.084018
 0.220000   4.264306   -11.032521
 0.225000   4.209288   -10.970194
 0.230000   4.154605   -10.899763
 0.235000   4.100290   -10.821713
 0.240000   4.046387   -10.735518
 0.245000   3.992935   -10.641577
 0.250000   3.939972   -10.540195
 0.255000   3.887533   -10.430912
 0.260000   3.835662   -10.308444
 0.265000   3.784449   -10.169838
 0.270000   3.733964   -10.016953
 0.275000   3.684279   -9.850282
 0.280000   3.635461   -9.670370
 0.285000   3.587575   -9.476093
 0.290000   3.540700   -9.269533
 0.295000   3.494880   -9.053653
 0.300000   3.450164   -8.827588
 0.305000   3.406604   -8.590892
 0.310000   3.364255   -8.343748
 0.315000   3.323167   -8.084676
 0.320000   3.283408   -7.827449
 0.325000   3.244892   -7.583543
 0.330000   3.207573   -7.349018
 0.335000   3.171402   -7.124075
 0.340000   3.136332   -6.908768
 0.345000   3.102314   -6.705991
 0.350000   3.069272   -6.514738
 0.355000   3.037167   -6.330155
 0.360000   3.005971   -6.150997
 0.365000   2.975657   -5.976311
 0.370000   2.946207   -5.804853
 0.375000   2.917609   -5.639981
 0.380000   2.889808   -5.475234
 0.385000   2.862856   -5.300085
 0.390000   2.836807   -5.115308
 0.395000   2.811703   -4.921923
 0.400000   2.787588   -4.720727
 0.405000   2.764496   -4.511604
 0.410000   2.742471   -4.295638
 0.415000   2.721539   -4.078902
 0.420000   2.701682   -3.866656
 0.425000   2.682873   -3.660919
 0.430000   2.665073   -3.463401
 0.435000   2.648239   -3.273003
 0.440000   2.632343   -3.091563
 0.445000   2.617323   -2.924464
 0.450000   2.603099   -2.771776
 0.455000   2.589605   -2.631944
 0.460000   2.576779   -2.505104
 0.465000   2.564554   -2.390513
 0.470000   2.552874   -2.288986
 0.475000   2.541665   -2.202471
 0.480000   2.530849   -2.129902
 0.485000   2.520366   -2.069508
 0.490000   2.510154   -2.020394
 0.495000   2.500162   -1.981200
 0.500000   2.490342   -1.949337
 0.505000   2.480668   -1.922679
 0.510000   2.471115   -1.901530
 0.515000   2.461653   -1.886889
 0.520000   2.452247   -1.879387
 0.525000   2.442859   -1.879483
 0.530000   2.433452   -1.887547
 0.535000   2.423984   -1.903851
 0.540000   2.414413   -1.928081
 0.545000   2.404703   -1.959754
 0.550000   2.394816   -1.998641
 0.555000   2.384716   -2.044616
 0.560000   2.374370   -2.098135
 0.565000   2.363735   -2.158150
 0.570000   2.352788   -2.223435
 0.575000   2.341501   -2.294022
 0.580000   2.329848   -2.369346
 0.585000   2.317807   -2.448817
 0.590000   2.305360   -2.532690
 0.595000   2.292480   -2.618790
 0.600000   2.279172   -2.705226
 0.605000   2.265428   -2.792379
 0.610000   2.251248   -2.879345
 0.615000   2.236635   -2.965149
 0.620000   2.221596   -3.049012
 0.625000   2.206145   -3.129080
 0.630000   2.190306   -3.204028
 0.635000   2.174104   -3.273717
 0.640000   2.157568   -3.337382
 0.645000   2.140730   -3.394326
 0.650000   2.123625   -3.442845
 0.655000   2.106302   -3.483087
 0.660000   2.088794   -3.516859
 0.665000   2.071133   -3.544989
 0.670000   2.053344   -3.568635
 0.675000   2.035447   -3.588916
 0.680000   2.017455   -3.607397
 0.685000   1.999373   -3.624663
 0.690000   1.981209   -3.638313
 0.695000   1.962990   -3.645462
 0.700000   1.944754   -3.644662
 0.705000   1.926543   -3.635383
 0.710000   1.908400   -3.619077
 0.715000   1.890353   -3.596754
 0.720000   1.872433   -3.567497
 0.725000   1.854678   -3.531196
 0.730000   1.837121   -3.488131
 0.735000   1.819796   -3.438236
 0.740000   1.802738   -3.382187
 0.745000   1.785974   -3.319774
 0.750000   1.769541   -3.250355
 0.755000   1.753471   -3.175641
 0.760000   1.737784   -3.097645
 0.765000   1.722494   -3.017231
 0.770000   1.707612   -2.935474
 0.775000   1.693140   -2.851093
 0.780000   1.679101   -2.760187
 0.785000   1.665538   -2.662565
 0.790000   1.652475   -2.560518
 0.795000   1.639933   -2.455410
 0.800000   1.627921   -2.348350
 0.805000   1.616449   -2.240041
 0.810000   1.605521   -2.133820
 0.815000   1.595111   -2.033607
 0.820000   1.585185   -1.941259
 0.825000   1.575698   -1.858384
 0.830000   1.566601   -1.786078
 0.835000   1.557838   -1.725516
 0.840000   1.549346   -1.676985
 0.845000   1.541068   -1.639942
 0.850000   1.532946   -1.615040
 0.855000   1.524917   -1.604024
 0.860000   1.516906   -1.609572
 0.865000   1.508822   -1.637243
 0.870000   1.500534   -1.687220
 0.875000   1.491949   -1.758361
 0.880000   1.482950   -1.854865
 0.885000   1.473401   -1.980427
 0.890000   1.463146   -2.139840
 0.895000   1.452002   -2.348112
 0.900000   1.439665   -2.606213
 0.905000   1.425940   -2.917416
 0.910000   1.410490   -3.304871
 0.915000   1.392891   -3.786376
 0.920000   1.372627   -4.380354
 0.925000   1.349088   -5.146050
 0.930000   1.321166   -6.069363
 0.935000   1.288394   -7.102718
 0.940000   1.250139   -8.253198
 0.945000   1.205862   -9.487963
 0.950000   1.155259   -10.748329
 0.955000   1.098379   -12.000480
 0.960000   1.035255   -13.099731
 0.965000   0.967382   -13.896055
 0.970000   0.896294   -14.366791
 0.975000   0.823714   -14.474300
 0.980000   0.751551   -14.197139
 0.985000   0.681742   -13.565887
 0.990000   0.615892   -12.600618
 0.995000   0.555736   -11.354375
 1.000000   0.502348   -10.000730
201 psinorm nb(10^20/m^3) dnb/dpsiN
 0.000000   0.094855   0.146745
 0.005000   0.095312   0.035822
 0.010000   0.095214   -0.055651
 0.015000   0.094755   -0.120361
 0.020000   0.094010   -0.173277
 0.025000   0.093022   -0.218377
 0.030000   0.091826   -0.256173
 0.035000   0.090461   -0.286715
 0.040000   0.088959   -0.311292
 0.045000   0.087348   -0.331015
 0.050000   0.085649   -0.346688
 0.055000   0.083881   -0.358207
 0.060000   0.082067   -0.366423
 0.065000   0.080217   -0.371871
 0.070000   0.078348   -0.374557
 0.075000   0.076471   -0.375176
 0.080000   0.074596   -0.373858
 0.085000   0.072733   -0.370870
 0.090000   0.070888   -0.366627
 0.095000   0.069066   -0.361369
 0.100000   0.067274   -0.354745
 0.105000   0.065519   -0.347021
 0.110000   0.063804   -0.338894
 0.115000   0.062130   -0.330356
 0.120000   0.060500   -0.321341
 0.125000   0.058916   -0.311932
 0.130000   0.057381   -0.302214
 0.135000   0.055894   -0.292287
 0.140000   0.054458   -0.282288
 0.145000   0.053071   -0.272142
 0.150000   0.051737   -0.261931
 0.155000   0.050452   -0.251937
 0.160000   0.049217   -0.242086
 0.165000   0.048031   -0.232385
 0.170000   0.046893   -0.222744
 0.175000   0.045804   -0.213264
 0.180000   0.044761   -0.204150
 0.185000   0.043762   -0.195322
 0.190000   0.042807   -0.186781
 0.195000   0.041895   -0.178545
 0.200000   0.041022   -0.170621
 0.205000   0.040188   -0.163018
 0.210000   0.039392   -0.155751
 0.215000   0.038631   -0.148818
 0.220000   0.037904   -0.142206
 0.225000   0.037209   -0.135902
 0.230000   0.036545   -0.129423
 0.235000   0.035915   -0.123296
 0.240000   0.035312   -0.118007
 0.245000   0.034734   -0.113021
 0.250000   0.034181   -0.108327
 0.255000   0.033651   -0.103914
 0.260000   0.033142   -0.099642
 0.265000   0.032655   -0.095312
 0.270000   0.032189   -0.091401
 0.275000   0.031741   -0.088082
 0.280000   0.031308   -0.084980
 0.285000   0.030891   -0.082078
 0.290000   0.030488   -0.079118
 0.295000   0.030100   -0.076259
 0.300000   0.029725   -0.073863
 0.305000   0.029361   -0.071753
 0.310000   0.029007   -0.069788
 0.315000   0.028663   -0.067779
 0.320000   0.028330   -0.065836
 0.325000   0.028005   -0.064237
 0.330000   0.027687   -0.062847
 0.335000   0.027376   -0.061556
 0.340000   0.027072   -0.060174
 0.345000   0.026775   -0.058909
 0.350000   0.026483   -0.057948
 0.355000   0.026195   -0.057064
 0.360000   0.025912   -0.056165
 0.365000   0.025634   -0.055276
 0.370000   0.025359   -0.054545
 0.375000   0.025088   -0.053932
 0.380000   0.024820   -0.053333
 0.385000   0.024555   -0.052699
 0.390000   0.024293   -0.052147
 0.395000   0.024033   -0.051715
 0.400000   0.023776   -0.051292
 0.405000   0.023520   -0.050805
 0.410000   0.023268   -0.050348
 0.415000   0.023017   -0.049992
 0.420000   0.022768   -0.049645
 0.425000   0.022520   -0.049226
 0.430000   0.022276   -0.048810
 0.435000   0.022032   -0.048479
 0.440000   0.021791   -0.048149
 0.445000   0.021551   -0.047734
 0.450000   0.021313   -0.047313
 0.455000   0.021078   -0.046973
 0.460000   0.020844   -0.046628
 0.465000   0.020611   -0.046201
 0.470000   0.020382   -0.045778
 0.475000   0.020154   -0.045439
 0.480000   0.019927   -0.045091
 0.485000   0.019703   -0.044663
 0.490000   0.019481   -0.044245
 0.495000   0.019260   -0.043906
 0.500000   0.019042   -0.043554
 0.505000   0.018825   -0.043132
 0.510000   0.018610   -0.042728
 0.515000   0.018397   -0.042397
 0.520000   0.018186   -0.042045
 0.525000   0.017977   -0.041641
 0.530000   0.017770   -0.041263
 0.535000   0.017564   -0.040944
 0.540000   0.017360   -0.040603
 0.545000   0.017158   -0.040214
 0.550000   0.016958   -0.039858
 0.555000   0.016760   -0.039562
 0.560000   0.016563   -0.039250
 0.565000   0.016367   -0.038904
 0.570000   0.016174   -0.038595
 0.575000   0.015981   -0.038342
 0.580000   0.015790   -0.038079
 0.585000   0.015601   -0.037796
 0.590000   0.015412   -0.037548
 0.595000   0.015225   -0.037349
 0.600000   0.015039   -0.037148
 0.605000   0.014854   -0.036934
 0.610000   0.014669   -0.036758
 0.615000   0.014486   -0.036634
 0.620000   0.014303   -0.036522
 0.625000   0.014121   -0.036417
 0.630000   0.013939   -0.036343
 0.635000   0.013757   -0.036307
 0.640000   0.013576   -0.036288
 0.645000   0.013394   -0.036293
 0.650000   0.013213   -0.036330
 0.655000   0.013031   -0.036387
 0.660000   0.012849   -0.036459
 0.665000   0.012667   -0.036559
 0.670000   0.012484   -0.036692
 0.675000   0.012300   -0.036834
 0.680000   0.012115   -0.036975
 0.685000   0.011930   -0.037127
 0.690000   0.011744   -0.037323
 0.695000   0.011557   -0.037534
 0.700000   0.011369   -0.037728
 0.705000   0.011179   -0.037932
 0.710000   0.010989   -0.038156
 0.715000   0.010798   -0.038421
 0.720000   0.010605   -0.038688
 0.725000   0.010411   -0.038931
 0.730000   0.010216   -0.039182
 0.735000   0.010019   -0.039454
 0.740000   0.009821   -0.039761
 0.745000   0.009622   -0.040057
 0.750000   0.009421   -0.040323
 0.755000   0.009218   -0.040587
 0.760000   0.009015   -0.040848
 0.765000   0.008810   -0.041133
 0.770000   0.008603   -0.041400
 0.775000   0.008396   -0.041619
 0.780000   0.008187   -0.041826
 0.785000   0.007978   -0.042021
 0.790000   0.007767   -0.042210
 0.795000   0.007555   -0.042390
 0.800000   0.007343   -0.042541
 0.805000   0.007130   -0.042663
 0.810000   0.006916   -0.042764
 0.815000   0.006702   -0.042843
 0.820000   0.006488   -0.042897
 0.825000   0.006273   -0.042914
 0.830000   0.006059   -0.042891
 0.835000   0.005845   -0.042829
 0.840000   0.005631   -0.042728
 0.845000   0.005417   -0.042585
 0.850000   0.005205   -0.042398
 0.855000   0.004993   -0.042166
 0.860000   0.004783   -0.041868
 0.865000   0.004575   -0.041557
 0.870000   0.004368   -0.041299
 0.875000   0.004162   -0.041073
 0.880000   0.003957   -0.040862
 0.885000   0.003753   -0.040657
 0.890000   0.003550   -0.040447
 0.895000   0.003349   -0.040222
 0.900000   0.003148   -0.039967
 0.905000   0.002949   -0.039670
 0.910000   0.002751   -0.039320
 0.915000   0.002556   -0.038879
 0.920000   0.002363   -0.038313
 0.925000   0.002173   -0.037639
 0.930000   0.001986   -0.036893
 0.935000   0.001804   -0.036139
 0.940000   0.001625   -0.035472
 0.945000   0.001449   -0.035007
 0.950000   0.001275   -0.034755
 0.955000   0.001101   -0.034353
 0.960000   0.000931   -0.033157
 0.965000   0.000770   -0.030632
 0.970000   0.000625   -0.026749
 0.975000   0.000502   -0.022097
 0.980000   0.000404   -0.018074
 0.985000   0.000322   -0.015399
 0.990000   0.000250   -0.013326
 0.995000   0.000188   -0.012375
 1.000000   0.000126   -0.012490
201 psinorm pb(KPa) dpb/dpsiN
 0.000000   39.001631   43.660246
 0.005000   39.109608   -0.469297
 0.010000   38.996938   -37.148405
 0.015000   38.738124   -62.860703
 0.020000   38.368331   -83.522296
 0.025000   37.902901   -101.291357
 0.030000   37.355417   -116.092162
 0.035000   36.741979   -127.903781
 0.040000   36.076379   -137.221051
 0.045000   35.369769   -144.535510
 0.050000   34.631024   -150.257486
 0.055000   33.867194   -154.316345
 0.060000   33.087861   -156.987284
 0.065000   32.297321   -158.553578
 0.070000   31.502325   -159.029889
 0.075000   30.707022   -158.693876
 0.080000   29.915386   -157.613571
 0.085000   29.130886   -155.895516
 0.090000   28.356431   -153.705846
 0.095000   27.593828   -151.144168
 0.100000   26.844989   -148.061378
 0.105000   26.113214   -144.539848
 0.110000   25.399591   -140.880204
 0.115000   24.704412   -137.108991
 0.120000   24.028501   -133.188069
 0.125000   23.372531   -129.136991
 0.130000   22.737131   -124.979191
 0.135000   22.122740   -120.755302
 0.140000   21.529578   -116.546724
 0.145000   20.957272   -112.302201
 0.150000   20.406556   -108.024450
 0.155000   19.877028   -103.840564
 0.160000   19.368150   -99.732057
 0.165000   18.879707   -95.695929
 0.170000   18.411191   -91.694069
 0.175000   17.962767   -87.768879
 0.180000   17.533502   -84.007214
 0.185000   17.122694   -80.369012
 0.190000   16.729812   -76.846022
 0.195000   16.354234   -73.451398
 0.200000   15.995298   -70.189196
 0.205000   15.652342   -67.062595
 0.210000   15.324672   -64.076323
 0.215000   15.011579   -61.229825
 0.220000   14.712374   -58.516869
 0.225000   14.426410   -55.925568
 0.230000   14.153118   -53.272638
 0.235000   13.893684   -50.773465
 0.240000   13.645384   -48.611371
 0.245000   13.407570   -46.574297
 0.250000   13.179641   -44.656650
 0.255000   12.961004   -42.854877
 0.260000   12.751092   -41.113821
 0.265000   12.549866   -39.356507
 0.270000   12.357527   -37.766529
 0.275000   12.172200   -36.411581
 0.280000   11.993411   -35.145999
 0.285000   11.820740   -33.959388
 0.290000   11.653817   -32.752122
 0.295000   11.493219   -31.586732
 0.300000   11.337950   -30.602093
 0.305000   11.187198   -29.728994
 0.310000   11.040660   -28.915208
 0.315000   10.898046   -28.086388
 0.320000   10.759796   -27.285614
 0.325000   10.625190   -26.619295
 0.330000   10.493603   -26.035683
 0.335000   10.364833   -25.491959
 0.340000   10.238683   -24.916813
 0.345000   10.115665   -24.389536
 0.350000   9.994788   -23.979592
 0.355000   9.875869   -23.601233
 0.360000   9.758776   -23.219799
 0.365000   9.643671   -22.845145
 0.370000   9.530324   -22.531460
 0.375000   9.418356   -22.263843
 0.380000   9.307686   -22.003209
 0.385000   9.198324   -21.733024
 0.390000   9.090356   -21.496868
 0.395000   8.983356   -21.306131
 0.400000   8.877294   -21.117966
 0.405000   8.772176   -20.909282
 0.410000   8.668201   -20.713209
 0.415000   8.565044   -20.552216
 0.420000   8.462679   -20.395762
 0.425000   8.361086   -20.216007
 0.430000   8.260519   -20.037841
 0.435000   8.160708   -19.887045
 0.440000   8.061649   -19.736817
 0.445000   7.963340   -19.558078
 0.450000   7.866068   -19.376589
 0.455000   7.769574   -19.220243
 0.460000   7.673865   -19.060909
 0.465000   7.578965   -18.876437
 0.470000   7.485101   -18.696151
 0.475000   7.392003   -18.543344
 0.480000   7.299668   -18.388108
 0.485000   7.208122   -18.208117
 0.490000   7.117587   -18.031823
 0.495000   7.027804   -17.881714
 0.500000   6.938769   -17.727610
 0.505000   6.850528   -17.552444
 0.510000   6.763245   -17.383216
 0.515000   6.676696   -17.236703
 0.520000   6.590878   -17.083835
 0.525000   6.505857   -16.916937
 0.530000   6.421709   -16.758361
 0.535000   6.338274   -16.615014
 0.540000   6.255558   -16.462722
 0.545000   6.173646   -16.294042
 0.550000   6.092618   -16.137160
 0.555000   6.012275   -16.000820
 0.560000   5.932610   -15.858168
 0.565000   5.853693   -15.701807
 0.570000   5.775592   -15.556466
 0.575000   5.698129   -15.429971
 0.580000   5.621292   -15.299737
 0.585000   5.545131   -15.162013
 0.590000   5.469672   -15.036039
 0.595000   5.394771   -14.925218
 0.600000   5.320420   -14.812285
 0.605000   5.246648   -14.693963
 0.610000   5.173480   -14.588270
 0.615000   5.100765   -14.500787
 0.620000   5.028472   -14.419196
 0.625000   4.956573   -14.339126
 0.630000   4.885081   -14.269205
 0.635000   4.813881   -14.213151
 0.640000   4.742949   -14.162159
 0.645000   4.672260   -14.119781
 0.650000   4.601752   -14.088919
 0.655000   4.531370   -14.066061
 0.660000   4.461091   -14.048361
 0.665000   4.390887   -14.039794
 0.670000   4.320693   -14.041704
 0.675000   4.250470   -14.045780
 0.680000   4.180235   -14.048889
 0.685000   4.109981   -14.053455
 0.690000   4.039701   -14.071227
 0.695000   3.969269   -14.094550
 0.700000   3.898755   -14.112678
 0.705000   3.828142   -14.134648
 0.710000   3.757409   -14.163254
 0.715000   3.686509   -14.205245
 0.720000   3.615356   -14.248332
 0.725000   3.544026   -14.285119
 0.730000   3.472505   -14.324497
 0.735000   3.400781   -14.370828
 0.740000   3.328797   -14.428701
 0.745000   3.256494   -14.483345
 0.750000   3.183963   -14.528827
 0.755000   3.111206   -14.573496
 0.760000   3.038228   -14.616814
 0.765000   2.965038   -14.667146
 0.770000   2.891557   -14.710769
 0.775000   2.817930   -14.737792
 0.780000   2.744179   -14.760455
 0.785000   2.670325   -14.778925
 0.790000   2.596390   -14.795100
 0.795000   2.522374   -14.808342
 0.800000   2.448306   -14.812664
 0.805000   2.374248   -14.807436
 0.810000   2.300232   -14.795063
 0.815000   2.226297   -14.774652
 0.820000   2.152485   -14.744680
 0.825000   2.078850   -14.700250
 0.830000   2.005483   -14.640872
 0.835000   1.932442   -14.569185
 0.840000   1.859791   -14.483894
 0.845000   1.787603   -14.384105
 0.850000   1.715950   -14.269377
 0.855000   1.644909   -14.139504
 0.860000   1.574555   -13.984498
 0.865000   1.505064   -13.819036
 0.870000   1.436365   -13.663866
 0.875000   1.368425   -13.511083
 0.880000   1.301254   -13.355558
 0.885000   1.234870   -13.194855
 0.890000   1.169305   -13.026123
 0.895000   1.104608   -12.846268
 0.900000   1.040843   -12.651252
 0.905000   0.978096   -12.436651
 0.910000   0.916476   -12.198792
 0.915000   0.856108   -11.919385
 0.920000   0.797282   -11.590123
 0.925000   0.740207   -11.223249
 0.930000   0.685050   -10.824248
 0.935000   0.631964   -10.409605
 0.940000   0.580954   -10.016979
 0.945000   0.531794   -9.710541
 0.950000   0.483848   -9.573796
 0.955000   0.436056   -9.642271
 0.960000   0.387426   -9.893640
 0.965000   0.337120   -10.290838
 0.970000   0.284517   -10.782943
 0.975000   0.229291   -11.237847
 0.980000   0.172139   -10.965648
 0.985000   0.119634   -9.049602
 0.990000   0.081643   -6.086703
 0.995000   0.058767   -4.012635
 1.000000   0.041516   -2.887672
201 psinorm ptot(KPa) dptot/dpsiN
 0.000000   111.888747   -123.274028
 0.005000   111.187621   -157.175998
 0.010000   110.316987   -185.462564
 0.015000   109.332996   -205.316434
 0.020000   108.263822   -221.253384
 0.025000   107.120462   -235.059350
 0.030000   105.913229   -246.609379
 0.035000   104.654368   -255.874911
 0.040000   103.354480   -263.225344
 0.045000   102.022115   -269.044850
 0.050000   100.664031   -273.665573
 0.055000   99.285459   -277.020064
 0.060000   97.893830   -279.298433
 0.065000   96.492475   -280.726298
 0.070000   95.086567   -281.305223
 0.075000   93.679422   -281.240525
 0.080000   92.274162   -280.585953
 0.085000   90.873563   -279.418238
 0.090000   89.479980   -277.860353
 0.095000   88.094959   -275.984461
 0.100000   86.720135   -273.663821
 0.105000   85.358321   -270.948563
 0.110000   84.010650   -268.071420
 0.115000   82.677607   -265.053192
 0.120000   81.360118   -261.858616
 0.125000   80.059021   -258.501807
 0.130000   78.775100   -255.006042
 0.135000   77.508960   -251.406065
 0.140000   76.261039   -247.758556
 0.145000   75.031375   -244.005594
 0.150000   73.820983   -240.138932
 0.155000   72.629986   -236.259266
 0.160000   71.458390   -232.350924
 0.165000   70.306476   -228.402567
 0.170000   69.174365   -224.374774
 0.175000   68.062729   -220.300775
 0.180000   66.971357   -216.251963
 0.185000   65.900209   -212.195423
 0.190000   64.849403   -208.119920
 0.195000   63.819010   -204.035341
 0.200000   62.809049   -199.964030
 0.205000   61.819369   -195.925186
 0.210000   60.849797   -191.927958
 0.215000   59.900090   -187.983491
 0.220000   58.969963   -184.095343
 0.225000   58.059136   -180.263367
 0.230000   57.167329   -176.350827
 0.235000   56.295628   -172.541261
 0.240000   55.441916   -168.985046
 0.245000   54.605778   -165.509499
 0.250000   53.786821   -162.112731
 0.255000   52.984650   -158.790521
 0.260000   52.198916   -155.472009
 0.265000   51.429930   -152.079228
 0.270000   50.678124   -148.777379
 0.275000   49.942157   -145.628187
 0.280000   49.221842   -142.513107
 0.285000   48.517025   -139.418662
 0.290000   47.827655   -136.271400
 0.295000   47.154311   -133.140113
 0.300000   46.496254   -130.139687
 0.305000   45.852915   -127.209988
 0.310000   45.224154   -124.308169
 0.315000   44.609833   -121.363667
 0.320000   44.010518   -118.478331
 0.325000   43.425050   -115.797141
 0.330000   42.852546   -113.255929
 0.335000   42.292490   -110.817656
 0.340000   41.744370   -108.419701
 0.345000   41.208293   -106.143064
 0.350000   40.682939   -104.042484
 0.355000   40.167868   -102.020656
 0.360000   39.662732   -100.041093
 0.365000   39.167457   -98.107433
 0.370000   38.681658   -96.260712
 0.375000   38.204850   -94.502281
 0.380000   37.736635   -92.768536
 0.385000   37.277165   -90.998064
 0.390000   36.826655   -89.232949
 0.395000   36.384836   -87.487805
 0.400000   35.951777   -85.728665
 0.405000   35.527549   -83.935225
 0.410000   35.112424   -82.141315
 0.415000   34.706136   -80.392712
 0.420000   34.308497   -78.685043
 0.425000   33.919285   -77.001943
 0.430000   33.538478   -75.371427
 0.435000   33.165571   -73.810315
 0.440000   32.800375   -72.302489
 0.445000   32.442546   -70.844660
 0.450000   32.091928   -69.458290
 0.455000   31.747963   -68.159915
 0.460000   31.410329   -66.924512
 0.465000   31.078718   -65.728995
 0.470000   30.753039   -64.601456
 0.475000   30.432704   -63.568685
 0.480000   30.117352   -62.598731
 0.485000   29.806716   -61.663708
 0.490000   29.500715   -60.783940
 0.495000   29.198877   -59.972773
 0.500000   28.900987   -59.192747
 0.505000   28.606949   -58.420002
 0.510000   28.316787   -57.679017
 0.515000   28.030159   -56.988082
 0.520000   27.746906   -56.323954
 0.525000   27.466920   -55.681717
 0.530000   27.190089   -55.081759
 0.535000   26.916102   -54.530416
 0.540000   26.644785   -54.005072
 0.545000   26.376051   -53.496909
 0.550000   26.109816   -53.029711
 0.555000   25.845754   -52.610315
 0.560000   25.583713   -52.216135
 0.565000   25.323593   -51.836118
 0.570000   25.065352   -51.487507
 0.575000   24.808718   -51.177491
 0.580000   24.553577   -50.883791
 0.585000   24.299880   -50.601045
 0.590000   24.047566   -50.347491
 0.595000   23.796405   -50.118433
 0.600000   23.546382   -49.891894
 0.605000   23.297486   -49.666610
 0.610000   23.049716   -49.455541
 0.615000   22.802931   -49.260024
 0.620000   22.557116   -49.065372
 0.625000   22.312277   -48.860012
 0.630000   22.068516   -48.647246
 0.635000   21.825804   -48.430407
 0.640000   21.584212   -48.198982
 0.645000   21.343815   -47.954179
 0.650000   21.104670   -47.691930
 0.655000   20.866895   -47.411395
 0.660000   20.630556   -47.119048
 0.665000   20.395705   -46.821580
 0.670000   20.162340   -46.525009
 0.675000   19.930455   -46.226514
 0.680000   19.700075   -45.927114
 0.685000   19.471184   -45.625906
 0.690000   19.243816   -45.320528
 0.695000   19.017978   -44.992241
 0.700000   18.793893   -44.626242
 0.705000   18.571716   -44.229887
 0.710000   18.351594   -43.807011
 0.715000   18.133646   -43.372293
 0.720000   17.917872   -42.923941
 0.725000   17.704406   -42.455976
 0.730000   17.493312   -41.976873
 0.735000   17.284638   -41.493233
 0.740000   17.078379   -41.012189
 0.745000   16.874516   -40.526487
 0.750000   16.673115   -40.037985
 0.755000   16.474136   -39.559879
 0.760000   16.277516   -39.096846
 0.765000   16.083167   -38.659264
 0.770000   15.890923   -38.239594
 0.775000   15.700772   -37.821964
 0.780000   15.512704   -37.388347
 0.785000   15.326888   -36.927635
 0.790000   15.143427   -36.447926
 0.795000   14.962409   -35.948528
 0.800000   14.783942   -35.425123
 0.805000   14.608158   -34.874541
 0.810000   14.435196   -34.298635
 0.815000   14.265171   -33.706658
 0.820000   14.098130   -33.106808
 0.825000   13.934103   -32.499156
 0.830000   13.773138   -31.886893
 0.835000   13.615234   -31.276286
 0.840000   13.460375   -30.662397
 0.845000   13.308610   -30.035560
 0.850000   13.160020   -29.391929
 0.855000   13.014691   -28.731750
 0.860000   12.872702   -28.050545
 0.865000   12.734186   -27.379410
 0.870000   12.598908   -26.735914
 0.875000   12.466826   -26.111175
 0.880000   12.337797   -25.531052
 0.885000   12.211516   -25.038042
 0.890000   12.087416   -24.701076
 0.895000   11.964505   -24.652514
 0.900000   11.840891   -25.023590
 0.905000   11.714269   -26.015683
 0.910000   11.580734   -27.980290
 0.915000   11.434466   -31.343065
 0.920000   11.267303   -36.652530
 0.925000   11.067941   -44.700062
 0.930000   10.820303   -56.046966
 0.935000   10.507471   -71.033114
 0.940000   10.109972   -89.842830
 0.945000   9.609043   -111.937867
 0.950000   8.990593   -136.062577
 0.955000   8.248417   -160.926104
 0.960000   7.381332   -186.764601
 0.965000   6.380771   -216.841338
 0.970000   5.212919   -248.750363
 0.975000   3.893268   -253.969502
 0.980000   2.673224   -204.863857
 0.985000   1.844629   -131.142620
 0.990000   1.361797   -78.070556
 0.995000   1.063924   -50.527070
 1.000000   0.856527   -32.431637
201 psinorm omeg(kRad/s) domeg/dpsiN
 0.000000   59.606199   0.024285
 0.005000   59.605804   -0.182224
 0.010000   59.604377   -0.429051
 0.015000   59.601513   -0.764361
 0.020000   59.596733   -1.201958
 0.025000   59.589494   -1.752557
 0.030000   59.579207   -2.423781
 0.035000   59.565256   -3.218993
 0.040000   59.547017   -4.130595
 0.045000   59.523950   -5.149010
 0.050000   59.495527   -6.266198
 0.055000   59.461288   -7.467258
 0.060000   59.420855   -8.734303
 0.065000   59.373945   -10.046686
 0.070000   59.320388   -11.352852
 0.075000   59.260417   -12.643124
 0.080000   59.193957   -13.943469
 0.085000   59.120982   -15.243836
 0.090000   59.041518   -16.540739
 0.095000   58.955574   -17.837506
 0.100000   58.863143   -19.106773
 0.105000   58.764507   -20.350716
 0.110000   58.659636   -21.591421
 0.115000   58.548593   -22.809927
 0.120000   58.431537   -24.003932
 0.125000   58.308553   -25.194273
 0.130000   58.179594   -26.400991
 0.135000   58.044543   -27.658660
 0.140000   57.903007   -28.978003
 0.145000   57.754763   -30.332689
 0.150000   57.599681   -31.717005
 0.155000   57.437593   -33.139171
 0.160000   57.268289   -34.610767
 0.165000   57.091486   -36.131422
 0.170000   56.906975   -37.672929
 0.175000   56.714756   -39.212275
 0.180000   56.514852   -40.743750
 0.185000   56.307319   -42.260692
 0.190000   56.092245   -43.757471
 0.195000   55.869744   -45.222266
 0.200000   55.640022   -46.627002
 0.205000   55.403474   -47.931085
 0.210000   55.160711   -49.092875
 0.215000   54.912545   -50.076039
 0.220000   54.659951   -50.830319
 0.225000   54.404242   -51.281670
 0.230000   54.147134   -51.502627
 0.235000   53.889216   -51.566254
 0.240000   53.631472   -51.441084
 0.245000   53.374805   -51.145423
 0.250000   53.120018   -50.676810
 0.255000   52.868037   -49.973001
 0.260000   52.620288   -49.193483
 0.265000   52.376102   -48.457120
 0.270000   52.135716   -47.690678
 0.275000   51.899195   -46.928710
 0.280000   51.666429   -46.200876
 0.285000   51.437186   -45.518947
 0.290000   51.211240   -45.010044
 0.295000   50.987086   -44.719972
 0.300000   50.764040   -44.550278
 0.305000   50.541583   -44.461780
 0.310000   50.319422   -44.404300
 0.315000   50.097540   -44.354260
 0.320000   49.875880   -44.280264
 0.325000   49.654738   -44.163671
 0.330000   49.434243   -44.019578
 0.335000   49.214542   -43.844049
 0.340000   48.995803   -43.632563
 0.345000   48.778216   -43.395300
 0.350000   48.561850   -43.108752
 0.355000   48.347129   -42.749783
 0.360000   48.134352   -42.332651
 0.365000   47.923802   -41.858122
 0.370000   47.715770   -41.325237
 0.375000   47.510550   -40.730056
 0.380000   47.308470   -40.067056
 0.385000   47.109879   -39.340950
 0.390000   46.915060   -38.560022
 0.395000   46.724279   -37.728367
 0.400000   46.537777   -36.851391
 0.405000   46.355765   -35.920676
 0.410000   46.178570   -34.976300
 0.415000   46.006002   -34.114690
 0.420000   45.837423   -33.393974
 0.425000   45.672062   -32.832307
 0.430000   45.509100   -32.429172
 0.435000   45.347771   -32.222034
 0.440000   45.186880   -32.184037
 0.445000   45.025930   -32.168906
 0.450000   44.865191   -32.121238
 0.455000   44.704718   -32.046869
 0.460000   44.544722   -31.916428
 0.465000   44.385554   -31.752055
 0.470000   44.227201   -31.519459
 0.475000   44.070359   -31.079601
 0.480000   43.916405   -30.425246
 0.485000   43.766107   -29.619917
 0.490000   43.620206   -28.671036
 0.495000   43.479396   -27.595177
 0.500000   43.344254   -26.383588
 0.505000   43.215560   -25.044760
 0.510000   43.093807   -23.665361
 0.515000   42.978907   -22.337274
 0.520000   42.870434   -21.120384
 0.525000   42.767703   -20.060041
 0.530000   42.669834   -19.194824
 0.535000   42.575755   -18.528416
 0.540000   42.484549   -18.044517
 0.545000   42.395309   -17.746441
 0.550000   42.307085   -17.644962
 0.555000   42.218860   -17.763260
 0.560000   42.129452   -18.160065
 0.565000   42.037259   -18.818250
 0.570000   41.941270   -19.729617
 0.575000   41.839963   -20.963878
 0.580000   41.731631   -22.558186
 0.585000   41.614381   -24.551340
 0.590000   41.486118   -27.019172
 0.595000   41.344189   -29.903391
 0.600000   41.187084   -33.141014
 0.605000   41.012779   -36.767802
 0.610000   40.819406   -40.743027
 0.615000   40.605349   -45.005280
 0.620000   40.369353   -49.423773
 0.625000   40.111111   -53.879971
 0.630000   39.830553   -58.310307
 0.635000   39.528008   -62.623976
 0.640000   39.204314   -66.724440
 0.645000   38.860764   -70.527419
 0.650000   38.499039   -73.777054
 0.655000   38.122993   -76.563562
 0.660000   37.733404   -79.157571
 0.665000   37.331418   -81.550429
 0.670000   36.917899   -83.836334
 0.675000   36.493054   -86.150003
 0.680000   36.056399   -88.628816
 0.685000   35.606766   -91.504312
 0.690000   35.141356   -94.735902
 0.695000   34.659407   -97.984381
 0.700000   34.161513   -101.033356
 0.705000   33.649074   -103.754504
 0.710000   33.123967   -106.162122
 0.715000   32.587452   -108.301263
 0.720000   32.040955   -110.118936
 0.725000   31.486263   -111.578764
 0.730000   30.925167   -112.661115
 0.735000   30.359652   -113.327844
 0.740000   29.791889   -113.590445
 0.745000   29.223747   -113.417451
 0.750000   28.657714   -112.780823
 0.755000   28.095939   -111.846576
 0.760000   27.539248   -110.790707
 0.765000   26.988032   -109.655536
 0.770000   26.442693   -108.535730
 0.775000   25.902675   -107.245628
 0.780000   25.370237   -105.069934
 0.785000   24.851975   -101.750993
 0.790000   24.352727   -97.483273
 0.795000   23.877143   -92.338100
 0.800000   23.429346   -86.486002
 0.805000   23.012283   -80.093355
 0.810000   22.628412   -73.321741
 0.815000   22.279065   -66.569025
 0.820000   21.962722   -60.264043
 0.825000   21.676425   -54.673210
 0.830000   21.415990   -50.035339
 0.835000   21.176071   -46.575577
 0.840000   20.950234   -44.417677
 0.845000   20.731895   -43.693289
 0.850000   20.513301   -44.604164
 0.855000   20.285853   -47.312619
 0.860000   20.040175   -51.998650
 0.865000   19.765867   -59.000967
 0.870000   19.450165   -68.433704
 0.875000   19.081529   -80.272940
 0.880000   18.647436   -94.599837
 0.885000   18.135531   -111.299747
 0.890000   17.534439   -130.078894
 0.895000   16.834742   -150.926402
 0.900000   16.025175   -172.516243
 0.905000   15.109580   -193.172026
 0.910000   14.093454   -212.024657
 0.915000   12.989333   -227.626024
 0.920000   11.817194   -238.522716
 0.925000   10.604106   -243.715007
 0.930000   9.380044   -241.611787
 0.935000   8.187988   -231.312796
 0.940000   7.066916   -213.706023
 0.945000   6.050928   -190.166408
 0.950000   5.165252   -162.758774
 0.955000   4.423340   -133.603589
 0.960000   3.829216   -105.396545
 0.965000   3.369375   -80.599918
 0.970000   3.023217   -60.248088
 0.975000   2.766894   -44.708423
 0.980000   2.576133   -33.801303
 0.985000   2.428881   -26.823106
 0.990000   2.307902   -23.015746
 0.995000   2.198723   -21.602139
 1.000000   2.091880   -21.135095
201 psinorm omegp(kRad/s) domegp/dpsiN
 0.000000   0.008574   144.901098
 0.005000   0.586843   86.406546
 0.010000   0.872640   53.891475
 0.015000   1.125758   49.339773
 0.020000   1.366037   47.147076
 0.025000   1.597229   45.126767
 0.030000   1.817305   42.813115
 0.035000   2.025360   40.791715
 0.040000   2.225222   39.169613
 0.045000   2.417056   37.753714
 0.050000   2.602759   36.814747
 0.055000   2.785204   36.511144
 0.060000   2.967871   36.792693
 0.065000   3.153131   37.317272
 0.070000   3.341044   37.788539
 0.075000   3.531016   38.007903
 0.080000   3.721123   37.865825
 0.085000   3.909674   37.254300
 0.090000   4.093666   36.003622
 0.095000   4.269710   34.268021
 0.100000   4.436346   32.162469
 0.105000   4.591335   29.897645
 0.110000   4.735322   27.543903
 0.115000   4.866774   25.102520
 0.120000   4.986347   22.851944
 0.125000   5.095294   21.109221
 0.130000   5.197440   19.719787
 0.135000   5.292491   18.457068
 0.140000   5.382010   17.284756
 0.145000   5.465339   16.085339
 0.150000   5.542864   14.707566
 0.155000   5.612415   13.276436
 0.160000   5.675628   11.850140
 0.165000   5.730916   10.402224
 0.170000   5.779650   8.999757
 0.175000   5.820914   7.538319
 0.180000   5.855034   6.131803
 0.185000   5.882232   4.654556
 0.190000   5.901579   3.239280
 0.195000   5.914624   1.839244
 0.200000   5.919972   0.445414
 0.205000   5.919079   -0.821260
 0.210000   5.911759   -2.066587
 0.215000   5.898413   -3.099818
 0.220000   5.880761   -4.137520
 0.225000   5.857038   -5.271359
 0.230000   5.828047   -6.388069
 0.235000   5.793157   -7.705107
 0.240000   5.750996   -9.060085
 0.245000   5.702556   -10.495332
 0.250000   5.646043   -12.105835
 0.255000   5.581498   -13.618163
 0.260000   5.509861   -15.149158
 0.265000   5.430006   -16.662437
 0.270000   5.343237   -17.990773
 0.275000   5.250098   -19.320343
 0.280000   5.150033   -20.596586
 0.285000   5.044132   -21.790693
 0.290000   4.932126   -23.084044
 0.295000   4.813292   -24.384621
 0.300000   4.688280   -25.719349
 0.305000   4.556099   -27.232961
 0.310000   4.415951   -28.784128
 0.315000   4.268257   -30.413960
 0.320000   4.111811   -32.258296
 0.325000   3.945674   -34.067847
 0.330000   3.771133   -35.697684
 0.335000   3.588697   -37.170733
 0.340000   3.399425   -38.310142
 0.345000   3.205596   -39.085768
 0.350000   3.008568   -39.455713
 0.355000   2.811039   -39.403876
 0.360000   2.614529   -39.184873
 0.365000   2.419190   -38.940331
 0.370000   2.225125   -38.665868
 0.375000   2.032532   -38.420255
 0.380000   1.840923   -38.340268
 0.385000   1.649129   -38.589835
 0.390000   1.455025   -39.136085
 0.395000   1.257768   -39.836843
 0.400000   1.056656   -40.596373
 0.405000   0.851804   -41.279611
 0.410000   0.643860   -42.008384
 0.415000   0.431720   -43.185926
 0.420000   0.212001   -45.192759
 0.425000   -0.020207   -48.213270
 0.430000   -0.270132   -52.246841
 0.435000   -0.542676   -57.334688
 0.440000   -0.843479   -63.763432
 0.445000   -1.180310   -70.409770
 0.450000   -1.547577   -76.277664
 0.455000   -1.943087   -81.557905
 0.460000   -2.363156   -85.837896
 0.465000   -2.801465   -88.764861
 0.470000   -3.250804   -89.819075
 0.475000   -3.699656   -88.439052
 0.480000   -4.135195   -84.810158
 0.485000   -4.547758   -79.451481
 0.490000   -4.929710   -72.778683
 0.495000   -5.275545   -64.771476
 0.500000   -5.577424   -55.870143
 0.505000   -5.834246   -47.582252
 0.510000   -6.053247   -40.374759
 0.515000   -6.237994   -34.024852
 0.520000   -6.393495   -28.779184
 0.525000   -6.525786   -24.717876
 0.530000   -6.640674   -22.022460
 0.535000   -6.746010   -20.534356
 0.540000   -6.846018   -19.760768
 0.545000   -6.943618   -19.324491
 0.550000   -7.039263   -18.969294
 0.555000   -7.133311   -18.806172
 0.560000   -7.227324   -18.645774
 0.565000   -7.319768   -18.087462
 0.570000   -7.408199   -17.109422
 0.575000   -7.490863   -15.831693
 0.580000   -7.566516   -14.196091
 0.585000   -7.632824   -12.164013
 0.590000   -7.688156   -9.819085
 0.595000   -7.731014   -7.319287
 0.600000   -7.761349   -4.786262
 0.605000   -7.778877   -2.305628
 0.610000   -7.784405   -0.066648
 0.615000   -7.779544   1.881982
 0.620000   -7.765585   3.535905
 0.625000   -7.744185   4.863614
 0.630000   -7.716949   5.855960
 0.635000   -7.685625   6.617006
 0.640000   -7.650779   7.240908
 0.645000   -7.613216   7.729906
 0.650000   -7.573480   8.168659
 0.655000   -7.531529   8.624920
 0.660000   -7.487231   9.081056
 0.665000   -7.440719   9.474407
 0.670000   -7.392487   9.822137
 0.675000   -7.342497   10.167727
 0.680000   -7.290809   10.527850
 0.685000   -7.237219   10.955555
 0.690000   -7.181254   11.560583
 0.695000   -7.121613   12.417275
 0.700000   -7.057081   13.580224
 0.705000   -6.985811   15.035714
 0.710000   -6.906724   16.546267
 0.715000   -6.820348   17.930532
 0.720000   -6.727419   19.062955
 0.725000   -6.629719   19.808280
 0.730000   -6.529336   20.092218
 0.735000   -6.428796   19.679670
 0.740000   -6.332539   18.428307
 0.745000   -6.244513   16.546356
 0.750000   -6.167076   14.253965
 0.755000   -6.101974   11.699649
 0.760000   -6.050079   9.047848
 0.765000   -6.011495   6.595352
 0.770000   -5.984126   4.558840
 0.775000   -5.965907   2.875864
 0.780000   -5.955367   1.472612
 0.785000   -5.951181   0.259398
 0.790000   -5.952773   -0.989299
 0.795000   -5.961074   -2.559742
 0.800000   -5.978370   -4.527602
 0.805000   -6.006350   -6.870912
 0.810000   -6.047080   -9.598939
 0.815000   -6.102339   -12.653163
 0.820000   -6.173611   -15.818013
 0.825000   -6.260519   -18.670817
 0.830000   -6.360319   -21.054000
 0.835000   -6.471059   -22.977191
 0.840000   -6.590091   -24.226646
 0.845000   -6.713326   -24.698644
 0.850000   -6.837078   -24.476905
 0.855000   -6.958095   -23.651903
 0.860000   -7.073597   -22.354329
 0.865000   -7.181638   -20.832781
 0.870000   -7.281925   -19.459228
 0.875000   -7.376230   -18.301950
 0.880000   -7.464944   -17.345771
 0.885000   -7.549688   -16.752336
 0.890000   -7.632467   -16.583849
 0.895000   -7.715526   -16.706497
 0.900000   -7.799532   -16.986023
 0.905000   -7.885387   -17.298793
 0.910000   -7.972520   -17.326430
 0.915000   -8.058651   -17.381983
 0.920000   -8.146340   -17.676439
 0.925000   -8.235415   -17.553213
 0.930000   -8.321872   -16.846966
 0.935000   -8.403885   -16.968059
 0.940000   -8.491553   -18.670127
 0.945000   -8.590586   -19.651659
 0.950000   -8.688069   -18.874042
 0.955000   -8.779327   -16.045374
 0.960000   -8.848523   -5.984445
 0.965000   -8.839171   21.715329
 0.970000   -8.631370   82.454628
 0.975000   -8.014625   191.436594
 0.980000   -6.717004   352.390779
 0.985000   -4.490717   541.254102
 0.990000   -1.304463   696.918215
 0.995000   2.478465   729.750040
 1.000000   5.993037   676.078916
201 psinorm omgvb(kRad/s) domgvb/dpsiN
 0.000000   59.614773   144.925383
 0.005000   60.192647   86.224322
 0.010000   60.477016   53.462423
 0.015000   60.727272   48.575412
 0.020000   60.962770   45.945118
 0.025000   61.186723   43.374210
 0.030000   61.396512   40.389334
 0.035000   61.590616   37.572722
 0.040000   61.772240   35.039017
 0.045000   61.941006   32.604704
 0.050000   62.098287   30.548549
 0.055000   62.246492   29.043886
 0.060000   62.388726   28.058390
 0.065000   62.527076   27.270586
 0.070000   62.661431   26.435687
 0.075000   62.791432   25.364779
 0.080000   62.915079   23.922356
 0.085000   63.030656   22.010464
 0.090000   63.135184   19.462883
 0.095000   63.225285   16.430515
 0.100000   63.299489   13.055696
 0.105000   63.355842   9.546929
 0.110000   63.394958   5.952482
 0.115000   63.415367   2.292593
 0.120000   63.417884   -1.151987
 0.125000   63.403847   -4.085052
 0.130000   63.377034   -6.681205
 0.135000   63.337035   -9.201592
 0.140000   63.285018   -11.693247
 0.145000   63.220102   -14.247351
 0.150000   63.142544   -17.009439
 0.155000   63.050008   -19.862735
 0.160000   62.943917   -22.760627
 0.165000   62.822402   -25.729198
 0.170000   62.686625   -28.673172
 0.175000   62.535670   -31.673957
 0.180000   62.369885   -34.611948
 0.185000   62.189550   -37.606136
 0.190000   61.993824   -40.518192
 0.195000   61.784368   -43.383022
 0.200000   61.559994   -46.181587
 0.205000   61.322553   -48.752345
 0.210000   61.072470   -51.159462
 0.215000   60.810958   -53.175857
 0.220000   60.540712   -54.967839
 0.225000   60.261280   -56.553029
 0.230000   59.975182   -57.890696
 0.235000   59.682373   -59.271361
 0.240000   59.382468   -60.501169
 0.245000   59.077361   -61.640755
 0.250000   58.766060   -62.782646
 0.255000   58.449534   -63.591164
 0.260000   58.130149   -64.342641
 0.265000   57.806108   -65.119557
 0.270000   57.478953   -65.681451
 0.275000   57.149294   -66.249053
 0.280000   56.816463   -66.797462
 0.285000   56.481319   -67.309640
 0.290000   56.143366   -68.094088
 0.295000   55.800378   -69.104593
 0.300000   55.452320   -70.269627
 0.305000   55.097682   -71.694741
 0.310000   54.735373   -73.188429
 0.315000   54.365798   -74.768219
 0.320000   53.987691   -76.538560
 0.325000   53.600412   -78.231518
 0.330000   53.205376   -79.717262
 0.335000   52.803239   -81.014782
 0.340000   52.395228   -81.942705
 0.345000   51.983812   -82.481068
 0.350000   51.570417   -82.564465
 0.355000   51.158168   -82.153659
 0.360000   50.748880   -81.517524
 0.365000   50.342992   -80.798453
 0.370000   49.940896   -79.991104
 0.375000   49.543081   -79.150311
 0.380000   49.149393   -78.407324
 0.385000   48.759008   -77.930785
 0.390000   48.370085   -77.696107
 0.395000   47.982047   -77.565210
 0.400000   47.594433   -77.447763
 0.405000   47.207569   -77.200288
 0.410000   46.822430   -76.984684
 0.415000   46.437723   -77.300616
 0.420000   46.049424   -78.586732
 0.425000   45.651855   -81.045577
 0.430000   45.238968   -84.676013
 0.435000   44.805095   -89.556722
 0.440000   44.343401   -95.947470
 0.445000   43.845620   -102.578676
 0.450000   43.317614   -108.398902
 0.455000   42.761631   -113.604774
 0.460000   42.181566   -117.754324
 0.465000   41.584088   -120.516916
 0.470000   40.976397   -121.338534
 0.475000   40.370703   -119.518653
 0.480000   39.781211   -115.235405
 0.485000   39.218349   -109.071398
 0.490000   38.690497   -101.449719
 0.495000   38.203852   -92.366653
 0.500000   37.766830   -82.253732
 0.505000   37.381314   -72.627012
 0.510000   37.040560   -64.040120
 0.515000   36.740913   -56.362126
 0.520000   36.476939   -49.899568
 0.525000   36.241917   -44.777917
 0.530000   36.029160   -41.217284
 0.535000   35.829745   -39.062772
 0.540000   35.638532   -37.805284
 0.545000   35.451692   -37.070932
 0.550000   35.267823   -36.614256
 0.555000   35.085549   -36.569432
 0.560000   34.902128   -36.805839
 0.565000   34.717491   -36.905712
 0.570000   34.533071   -36.839039
 0.575000   34.349100   -36.795571
 0.580000   34.165115   -36.754276
 0.585000   33.981558   -36.715353
 0.590000   33.797962   -36.838257
 0.595000   33.613175   -37.222678
 0.600000   33.425735   -37.927276
 0.605000   33.233902   -39.073430
 0.610000   33.035001   -40.809674
 0.615000   32.825805   -43.123297
 0.620000   32.603768   -45.887868
 0.625000   32.366927   -49.016357
 0.630000   32.113604   -52.454347
 0.635000   31.842383   -56.006970
 0.640000   31.553535   -59.483532
 0.645000   31.247548   -62.797512
 0.650000   30.925559   -65.608395
 0.655000   30.591464   -67.938642
 0.660000   30.246173   -70.076515
 0.665000   29.890699   -72.076022
 0.670000   29.525413   -74.014198
 0.675000   29.150557   -75.982276
 0.680000   28.765590   -78.100966
 0.685000   28.369547   -80.548757
 0.690000   27.960102   -83.175319
 0.695000   27.537794   -85.567106
 0.700000   27.104431   -87.453132
 0.705000   26.663263   -88.718790
 0.710000   26.217243   -89.615854
 0.715000   25.767104   -90.370731
 0.720000   25.313536   -91.055981
 0.725000   24.856544   -91.770484
 0.730000   24.395831   -92.568896
 0.735000   23.930855   -93.648174
 0.740000   23.459350   -95.162138
 0.745000   22.979234   -96.871095
 0.750000   22.490639   -98.526858
 0.755000   21.993966   -100.146927
 0.760000   21.489169   -101.742859
 0.765000   20.976537   -103.060183
 0.770000   20.458567   -103.976890
 0.775000   19.936768   -104.369765
 0.780000   19.414870   -103.597322
 0.785000   18.900795   -101.491595
 0.790000   18.399954   -98.472573
 0.795000   17.916069   -94.897841
 0.800000   17.450975   -91.013603
 0.805000   17.005933   -86.964267
 0.810000   16.581333   -82.920680
 0.815000   16.176726   -79.222188
 0.820000   15.789111   -76.082055
 0.825000   15.415906   -73.344027
 0.830000   15.055671   -71.089339
 0.835000   14.705012   -69.552767
 0.840000   14.360143   -68.644324
 0.845000   14.018569   -68.391933
 0.850000   13.676224   -69.081069
 0.855000   13.327758   -70.964522
 0.860000   12.966578   -74.352979
 0.865000   12.584229   -79.833748
 0.870000   12.168241   -87.892931
 0.875000   11.705299   -98.574890
 0.880000   11.182492   -111.945608
 0.885000   10.585843   -128.052083
 0.890000   9.901971   -146.662743
 0.895000   9.119216   -167.632899
 0.900000   8.225642   -189.502266
 0.905000   7.224193   -210.470819
 0.910000   6.120934   -229.351086
 0.915000   4.930682   -245.008007
 0.920000   3.670854   -256.199155
 0.925000   2.368691   -261.268220
 0.930000   1.058172   -258.458753
 0.935000   -0.215897   -248.280855
 0.940000   -1.424637   -232.376150
 0.945000   -2.539658   -209.818067
 0.950000   -3.522817   -181.632816
 0.955000   -4.355987   -149.648963
 0.960000   -5.019307   -111.380991
 0.965000   -5.469796   -58.884590
 0.970000   -5.608153   22.206540
 0.975000   -5.247731   146.728171
 0.980000   -4.140871   318.589476
 0.985000   -2.061836   514.430997
 0.990000   1.003439   673.902469
 0.995000   4.677188   708.147900
 1.000000   8.084918   654.943820
201 psinorm omgpp(kRad/s) domgpp/dpsiN
 0.000000   -0.058324   -29.084225
 0.005000   -0.235151   -41.646390
 0.010000   -0.474788   -48.344907
 0.015000   -0.718600   -49.112928
 0.020000   -0.965917   -49.735327
 0.025000   -1.215953   -50.199678
 0.030000   -1.467914   -50.521499
 0.035000   -1.721168   -50.700302
 0.040000   -1.974917   -50.722999
 0.045000   -2.228398   -50.592394
 0.050000   -2.480841   -50.296344
 0.055000   -2.731361   -49.826357
 0.060000   -2.979105   -49.206035
 0.065000   -3.223422   -48.394659
 0.070000   -3.463051   -47.371439
 0.075000   -3.697136   -46.194427
 0.080000   -3.924995   -44.882678
 0.085000   -4.145963   -43.447604
 0.090000   -4.359471   -42.039545
 0.095000   -4.566358   -40.582024
 0.100000   -4.765292   -38.939104
 0.105000   -4.955749   -37.193020
 0.110000   -5.137222   -35.331171
 0.115000   -5.309061   -33.324092
 0.120000   -5.470463   -31.482339
 0.125000   -5.623884   -29.853019
 0.130000   -5.768993   -28.173765
 0.135000   -5.905622   -26.431123
 0.140000   -6.033304   -24.564550
 0.145000   -6.151268   -22.610212
 0.150000   -6.259406   -20.494957
 0.155000   -6.356217   -18.244579
 0.160000   -6.441852   -15.960468
 0.165000   -6.515822   -13.578976
 0.170000   -6.577642   -11.103919
 0.175000   -6.626861   -8.426180
 0.180000   -6.661904   -5.735269
 0.185000   -6.684214   -3.185651
 0.190000   -6.693760   -0.648464
 0.195000   -6.690698   1.831715
 0.200000   -6.675443   4.208016
 0.205000   -6.648618   6.615228
 0.210000   -6.609291   8.501521
 0.215000   -6.563603   9.831943
 0.220000   -6.510971   11.181523
 0.225000   -6.451788   12.414982
 0.230000   -6.386821   13.504797
 0.235000   -6.316740   14.351501
 0.240000   -6.243306   15.044549
 0.245000   -6.166294   15.907455
 0.250000   -6.084232   16.999021
 0.255000   -5.996304   18.264731
 0.260000   -5.901585   19.697822
 0.265000   -5.799326   21.215963
 0.270000   -5.689425   22.868217
 0.275000   -5.570644   24.500314
 0.280000   -5.444422   25.896351
 0.285000   -5.311680   27.138788
 0.290000   -5.173034   28.256439
 0.295000   -5.029116   29.454424
 0.300000   -4.878490   30.827112
 0.305000   -4.720845   31.917063
 0.310000   -4.559319   32.484786
 0.315000   -4.395997   32.516905
 0.320000   -4.234150   31.944762
 0.325000   -4.076549   30.972471
 0.330000   -3.924425   29.561912
 0.335000   -3.780930   27.914536
 0.340000   -3.645280   26.531577
 0.345000   -3.515614   25.377705
 0.350000   -3.391503   24.318791
 0.355000   -3.272426   23.187480
 0.360000   -3.159628   21.898604
 0.365000   -3.053440   21.341196
 0.370000   -2.946216   21.287251
 0.375000   -2.840568   21.081508
 0.380000   -2.735401   21.107203
 0.385000   -2.629496   21.333459
 0.390000   -2.522066   21.888912
 0.395000   -2.410607   22.950522
 0.400000   -2.292561   23.776197
 0.405000   -2.172845   23.967455
 0.410000   -2.052887   23.859372
 0.415000   -1.934251   23.473975
 0.420000   -1.818147   23.094156
 0.425000   -1.703309   22.045128
 0.430000   -1.597696   20.459731
 0.435000   -1.498712   19.095625
 0.440000   -1.406739   17.665087
 0.445000   -1.322061   16.189620
 0.450000   -1.244843   14.970485
 0.455000   -1.172356   13.317134
 0.460000   -1.111672   11.341738
 0.465000   -1.058939   9.758789
 0.470000   -1.014084   8.190496
 0.475000   -0.977034   6.634650
 0.480000   -0.947738   5.055355
 0.485000   -0.926481   3.440876
 0.490000   -0.913329   2.053289
 0.495000   -0.905948   0.995914
 0.500000   -0.903370   0.091334
 0.505000   -0.905034   -0.730749
 0.510000   -0.910677   -1.495601
 0.515000   -0.919990   -2.371973
 0.520000   -0.934397   -3.402784
 0.525000   -0.954018   -4.423630
 0.530000   -0.978633   -5.410104
 0.535000   -1.008119   -6.370974
 0.540000   -1.042343   -7.339810
 0.545000   -1.081517   -8.307884
 0.550000   -1.125422   -9.215078
 0.555000   -1.173668   -10.073645
 0.560000   -1.226158   -10.903271
 0.565000   -1.282701   -11.691389
 0.570000   -1.343072   -12.514156
 0.575000   -1.407842   -13.249290
 0.580000   -1.475565   -13.741304
 0.585000   -1.545255   -14.131602
 0.590000   -1.616881   -14.461936
 0.595000   -1.689875   -14.677459
 0.600000   -1.763656   -14.822656
 0.605000   -1.838101   -14.822096
 0.610000   -1.911877   -14.629245
 0.615000   -1.984394   -14.405587
 0.620000   -2.055932   -14.173990
 0.625000   -2.126134   -13.867128
 0.630000   -2.194604   -13.494658
 0.635000   -2.261080   -13.016409
 0.640000   -2.324768   -12.380482
 0.645000   -2.384885   -11.657589
 0.650000   -2.441344   -10.889630
 0.655000   -2.493781   -10.063205
 0.660000   -2.541976   -9.214049
 0.665000   -2.585922   -8.472396
 0.670000   -2.626700   -7.901322
 0.675000   -2.664935   -7.474173
 0.680000   -2.701441   -7.284051
 0.685000   -2.737776   -7.389767
 0.690000   -2.775339   -7.857765
 0.695000   -2.816353   -8.879484
 0.700000   -2.864134   -9.091864
 0.705000   -2.907272   -8.576077
 0.710000   -2.949895   -8.403706
 0.715000   -2.991309   -8.065832
 0.720000   -3.030553   -7.605337
 0.725000   -3.067362   -7.670377
 0.730000   -3.107257   -6.299171
 0.735000   -3.130354   -3.672685
 0.740000   -3.143984   -1.623295
 0.745000   -3.146587   0.716690
 0.750000   -3.136817   3.298170
 0.755000   -3.113605   6.191784
 0.760000   -3.074899   9.605015
 0.765000   -3.017555   12.853901
 0.770000   -2.946360   15.489277
 0.775000   -2.862662   17.810386
 0.780000   -2.768256   19.731524
 0.785000   -2.665347   21.979881
 0.790000   -2.548457   22.975262
 0.795000   -2.435595   22.360398
 0.800000   -2.324853   21.803716
 0.805000   -2.217557   20.893454
 0.810000   -2.115919   19.560027
 0.815000   -2.021957   17.975346
 0.820000   -1.936165   15.793307
 0.825000   -1.864024   13.708853
 0.830000   -1.799077   12.433585
 0.835000   -1.739688   11.334341
 0.840000   -1.685733   10.212243
 0.845000   -1.637566   9.012935
 0.850000   -1.595604   7.544066
 0.855000   -1.562125   5.710284
 0.860000   -1.538501   3.625299
 0.865000   -1.525872   1.234925
 0.870000   -1.526152   -1.584981
 0.875000   -1.541722   -5.502709
 0.880000   -1.581179   -10.355010
 0.885000   -1.645272   -14.834201
 0.890000   -1.729521   -19.378559
 0.895000   -1.839058   -24.952181
 0.900000   -1.979043   -31.777092
 0.905000   -2.156829   -42.349197
 0.910000   -2.402535   -57.222783
 0.915000   -2.729056   -71.615706
 0.920000   -3.118692   -87.586526
 0.925000   -3.604922   -109.141194
 0.930000   -4.210104   -135.927366
 0.935000   -4.964195   -174.577229
 0.940000   -5.955876   -229.249694
 0.945000   -7.256692   -286.193658
 0.950000   -8.817813   -352.794792
 0.955000   -10.784640   -439.497610
 0.960000   -13.212789   -529.218037
 0.965000   -16.076820   -604.974565
 0.970000   -19.262534   -630.836463
 0.975000   -22.385185   -532.380325
 0.980000   -24.586338   -314.208040
 0.985000   -25.527266   -31.718085
 0.990000   -24.903518   280.303298
 0.995000   -22.724233   553.133527
 1.000000   -19.372183   787.686241
201 psinorm omgeb(kRad/s) domgeb/dpsiN
 0.000000   59.556449   115.841158
 0.005000   59.957497   44.577933
 0.010000   60.002228   5.117516
 0.015000   60.008672   -0.537516
 0.020000   59.996853   -3.790209
 0.025000   59.970770   -6.825468
 0.030000   59.928598   -10.132165
 0.035000   59.869448   -13.127580
 0.040000   59.797323   -15.683981
 0.045000   59.712608   -17.987690
 0.050000   59.617446   -19.747794
 0.055000   59.515130   -20.782471
 0.060000   59.409621   -21.147645
 0.065000   59.303654   -21.124074
 0.070000   59.198380   -20.935752
 0.075000   59.094296   -20.829648
 0.080000   58.990084   -20.960322
 0.085000   58.884693   -21.437140
 0.090000   58.775712   -22.576663
 0.095000   58.658927   -24.151508
 0.100000   58.534197   -25.883409
 0.105000   58.400092   -27.646091
 0.110000   58.257736   -29.378689
 0.115000   58.106306   -31.031498
 0.120000   57.947422   -32.634326
 0.125000   57.779962   -33.938071
 0.130000   57.608041   -34.854969
 0.135000   57.431413   -35.632715
 0.140000   57.251714   -36.257798
 0.145000   57.068835   -36.857562
 0.150000   56.883138   -37.504397
 0.155000   56.693791   -38.107314
 0.160000   56.502065   -38.721095
 0.165000   56.306580   -39.308173
 0.170000   56.108983   -39.777091
 0.175000   55.908809   -40.100136
 0.180000   55.707982   -40.347217
 0.185000   55.505337   -40.791787
 0.190000   55.300064   -41.166655
 0.195000   55.093670   -41.551307
 0.200000   54.884551   -41.973572
 0.205000   54.673934   -42.137118
 0.210000   54.463180   -42.657940
 0.215000   54.247355   -43.343914
 0.220000   54.029741   -43.786316
 0.225000   53.809492   -44.138047
 0.230000   53.588360   -44.385898
 0.235000   53.365633   -44.919860
 0.240000   53.139161   -45.456621
 0.245000   52.911067   -45.733300
 0.250000   52.681828   -45.783625
 0.255000   52.453230   -45.326433
 0.260000   52.228564   -44.644818
 0.265000   52.006782   -43.903594
 0.270000   51.789528   -42.813234
 0.275000   51.578650   -41.748740
 0.280000   51.372041   -40.901112
 0.285000   51.169639   -40.170852
 0.290000   50.970332   -39.837648
 0.295000   50.771262   -39.650168
 0.300000   50.573831   -39.442515
 0.305000   50.376837   -39.777678
 0.310000   50.176054   -40.703643
 0.315000   49.969801   -42.251314
 0.320000   49.753541   -44.593798
 0.325000   49.523863   -47.259047
 0.330000   49.280950   -50.155350
 0.335000   49.022309   -53.100246
 0.340000   48.749948   -55.411128
 0.345000   48.468198   -57.103363
 0.350000   48.178914   -58.245674
 0.355000   47.885741   -58.966179
 0.360000   47.589252   -59.618920
 0.365000   47.289552   -59.457257
 0.370000   46.994680   -58.703853
 0.375000   46.702513   -58.068804
 0.380000   46.413992   -57.300121
 0.385000   46.129512   -56.597326
 0.390000   45.848018   -55.807195
 0.395000   45.571440   -54.614688
 0.400000   45.301872   -53.671567
 0.405000   45.034725   -53.232833
 0.410000   44.769543   -53.125312
 0.415000   44.503472   -53.826641
 0.420000   44.231277   -55.492576
 0.425000   43.948546   -59.000450
 0.430000   43.641272   -64.216282
 0.435000   43.306383   -70.461097
 0.440000   42.936661   -78.282382
 0.445000   42.523559   -86.389056
 0.450000   42.072771   -93.428417
 0.455000   41.589275   -100.287640
 0.460000   41.069894   -106.412586
 0.465000   40.525149   -110.758128
 0.470000   39.962313   -113.148038
 0.475000   39.393669   -112.884003
 0.480000   38.833473   -110.180050
 0.485000   38.291868   -105.630522
 0.490000   37.777168   -99.396430
 0.495000   37.297904   -91.370739
 0.500000   36.863460   -82.162398
 0.505000   36.476280   -73.357761
 0.510000   36.129883   -65.535721
 0.515000   35.820923   -58.734099
 0.520000   35.542542   -53.302352
 0.525000   35.287899   -49.201547
 0.530000   35.050526   -46.627389
 0.535000   34.821625   -45.433746
 0.540000   34.596189   -45.145094
 0.545000   34.370174   -45.378816
 0.550000   34.142401   -45.829334
 0.555000   33.911881   -46.643076
 0.560000   33.675970   -47.709110
 0.565000   33.434790   -48.597101
 0.570000   33.189999   -49.353195
 0.575000   32.941258   -50.044861
 0.580000   32.689550   -50.495581
 0.585000   32.436302   -50.846955
 0.590000   32.181081   -51.300193
 0.595000   31.923300   -51.900138
 0.600000   31.662079   -52.749932
 0.605000   31.395801   -53.895526
 0.610000   31.123124   -55.438919
 0.615000   30.841412   -57.528884
 0.620000   30.547835   -60.061858
 0.625000   30.240793   -62.883485
 0.630000   29.919001   -65.949005
 0.635000   29.581303   -69.023379
 0.640000   29.228767   -71.864014
 0.645000   28.862663   -74.455102
 0.650000   28.484216   -76.498025
 0.655000   28.097683   -78.001848
 0.660000   27.704197   -79.290565
 0.665000   27.304777   -80.548418
 0.670000   26.898713   -81.915520
 0.675000   26.485622   -83.456449
 0.680000   26.064149   -85.385017
 0.685000   25.631772   -87.938524
 0.690000   25.184763   -91.033085
 0.695000   24.721441   -94.446589
 0.700000   24.240297   -96.544996
 0.705000   23.755991   -97.294867
 0.710000   23.267349   -98.019561
 0.715000   22.775795   -98.436564
 0.720000   22.282983   -98.661318
 0.725000   21.789182   -99.440861
 0.730000   21.288575   -98.868068
 0.735000   20.800501   -97.320859
 0.740000   20.315366   -96.785433
 0.745000   19.832647   -96.154405
 0.750000   19.353822   -95.228688
 0.755000   18.880360   -93.955143
 0.760000   18.414270   -92.137844
 0.765000   17.958982   -90.206282
 0.770000   17.512208   -88.487613
 0.775000   17.074106   -86.559379
 0.780000   16.646614   -83.865798
 0.785000   16.235448   -79.511715
 0.790000   15.851497   -75.497311
 0.795000   15.480475   -72.537443
 0.800000   15.126122   -69.209887
 0.805000   14.788376   -66.070812
 0.810000   14.465414   -63.360653
 0.815000   14.154769   -61.246842
 0.820000   13.852946   -60.288748
 0.825000   13.551882   -59.635173
 0.830000   13.256594   -58.655754
 0.835000   12.965324   -58.218426
 0.840000   12.674410   -58.432081
 0.845000   12.381003   -59.378998
 0.850000   12.080620   -61.537003
 0.855000   11.765633   -65.254239
 0.860000   11.428077   -70.727679
 0.865000   11.058356   -78.598823
 0.870000   10.642089   -89.477912
 0.875000   10.163577   -104.077598
 0.880000   9.601313   -122.300618
 0.885000   8.940571   -142.886283
 0.890000   8.172450   -166.041302
 0.895000   7.280158   -192.585080
 0.900000   6.246600   -221.279358
 0.905000   5.067365   -252.820016
 0.910000   3.718399   -286.573870
 0.915000   2.201626   -316.623713
 0.920000   0.552162   -343.785681
 0.925000   -1.236231   -370.409414
 0.930000   -3.151932   -394.386119
 0.935000   -5.180092   -422.858083
 0.940000   -7.380513   -461.625844
 0.945000   -9.796351   -496.011725
 0.950000   -12.340630   -534.427609
 0.955000   -15.140627   -589.146572
 0.960000   -18.232096   -640.599027
 0.965000   -21.546617   -663.859154
 0.970000   -24.870687   -608.629923
 0.975000   -27.632916   -385.652154
 0.980000   -28.727209   4.381436
 0.985000   -27.589102   482.712912
 0.990000   -23.900080   954.205766
 0.995000   -18.047044   1261.281427
 1.000000   -11.287265   1442.630061
201 psinorm er(kV/m) der/dpsiN
 0.000000   0.722150   1179.053687
 0.005000   5.434453   705.867527
 0.010000   7.780826   414.062636
 0.015000   9.575080   332.707224
 0.020000   11.107898   287.648020
 0.025000   12.451560   255.276036
 0.030000   13.660658   231.890178
 0.035000   14.770462   213.927516
 0.040000   15.799933   199.306784
 0.045000   16.763529   186.000208
 0.050000   17.659935   174.532598
 0.055000   18.508855   164.135517
 0.060000   19.301291   157.109974
 0.065000   20.079955   151.695304
 0.070000   20.818244   142.604286
 0.075000   21.505998   136.997422
 0.080000   22.188218   134.247027
 0.085000   22.848468   125.122417
 0.090000   23.439442   121.445159
 0.095000   24.062920   117.948417
 0.100000   24.618926   111.353984
 0.105000   25.176460   108.217190
 0.110000   25.701098   101.803258
 0.115000   26.194492   99.035659
 0.120000   26.691455   93.726773
 0.125000   27.131760   90.550464
 0.130000   27.596959   86.672374
 0.135000   27.998484   83.101123
 0.140000   28.427971   80.574726
 0.145000   28.804231   76.324130
 0.150000   29.191212   74.984183
 0.155000   29.554073   69.988429
 0.160000   29.891096   69.282901
 0.165000   30.246902   64.052412
 0.170000   30.531620   64.187628
 0.175000   30.888778   58.825828
 0.180000   31.119878   55.836184
 0.185000   31.447140   58.070903
 0.190000   31.700588   50.952695
 0.195000   31.956667   53.256746
 0.200000   32.233155   46.403726
 0.205000   32.420704   45.586260
 0.210000   32.689018   45.827415
 0.215000   32.878978   39.310469
 0.220000   33.082122   42.912253
 0.225000   33.308101   35.432709
 0.230000   33.436449   33.688198
 0.235000   33.644983   37.036734
 0.240000   33.806817   29.110329
 0.245000   33.936086   30.722342
 0.250000   34.114040   28.467274
 0.255000   34.220759   24.112149
 0.260000   34.355162   29.173509
 0.265000   34.512494   22.860277
 0.270000   34.583764   21.140217
 0.275000   34.723896   27.358900
 0.280000   34.857353   20.273071
 0.285000   34.926627   19.731804
 0.290000   35.054671   23.733117
 0.295000   35.163958   17.250523
 0.300000   35.227177   17.088652
 0.305000   35.334845   19.258146
 0.310000   35.419758   12.951103
 0.315000   35.464356   11.746196
 0.320000   35.537220   11.838984
 0.325000   35.582745   4.899783
 0.330000   35.586218   2.512096
 0.335000   35.607866   1.985861
 0.340000   35.606077   -4.334434
 0.345000   35.564522   -6.250822
 0.350000   35.543568   -5.301078
 0.355000   35.511511   -10.190603
 0.360000   35.441662   -11.782992
 0.365000   35.393681   -9.501910
 0.370000   35.346643   -13.051709
 0.375000   35.263164   -14.107521
 0.380000   35.205568   -11.445807
 0.385000   35.148706   -13.781460
 0.390000   35.067753   -15.099696
 0.395000   34.997709   -13.199527
 0.400000   34.935758   -13.691643
 0.405000   34.860793   -15.568016
 0.410000   34.780078   -15.527483
 0.415000   34.705518   -16.083445
 0.420000   34.619243   -19.593512
 0.425000   34.509583   -23.097932
 0.430000   34.388264   -26.646588
 0.435000   34.243117   -33.613960
 0.440000   34.052125   -41.059648
 0.445000   33.832521   -47.144763
 0.450000   33.580677   -53.942431
 0.455000   33.293096   -61.009104
 0.460000   32.970586   -66.457618
 0.465000   32.628520   -70.326329
 0.470000   32.267323   -73.850020
 0.475000   31.890020   -74.626796
 0.480000   31.521055   -72.515906
 0.485000   31.164861   -70.030901
 0.490000   30.820746   -66.087342
 0.495000   30.503987   -59.758863
 0.500000   30.223157   -52.679005
 0.505000   29.977197   -46.604268
 0.510000   29.757114   -40.737294
 0.515000   29.569824   -35.025506
 0.520000   29.406859   -31.477677
 0.525000   29.255048   -28.786009
 0.530000   29.118999   -26.527684
 0.535000   28.989771   -25.875116
 0.540000   28.860248   -26.524437
 0.545000   28.724526   -27.028369
 0.550000   28.589964   -27.192267
 0.555000   28.452604   -28.744195
 0.560000   28.302522   -30.204528
 0.565000   28.150558   -30.689985
 0.570000   27.995623   -31.634325
 0.575000   27.834215   -33.084311
 0.580000   27.664779   -33.651048
 0.585000   27.497705   -33.626581
 0.590000   27.328514   -34.850303
 0.595000   27.149202   -35.917398
 0.600000   26.969340   -36.291389
 0.605000   26.786288   -37.399992
 0.610000   26.595340   -39.700597
 0.615000   26.389282   -41.653321
 0.620000   26.178807   -43.302050
 0.625000   25.956261   -46.457975
 0.630000   25.714227   -49.801752
 0.635000   25.458244   -52.166810
 0.640000   25.192559   -54.372956
 0.645000   24.914514   -57.866945
 0.650000   24.613889   -59.965771
 0.655000   24.314857   -60.480391
 0.660000   24.009085   -62.124147
 0.665000   23.693615   -64.194329
 0.670000   23.367142   -65.317881
 0.675000   23.040436   -66.150077
 0.680000   22.705641   -68.779194
 0.685000   22.352644   -71.640923
 0.690000   21.989232   -73.865148
 0.695000   21.613993   -76.719174
 0.700000   21.222040   -79.883457
 0.705000   20.815158   -80.819947
 0.710000   20.413841   -80.613042
 0.715000   20.009028   -81.542852
 0.720000   19.598412   -82.787201
 0.725000   19.181156   -83.398141
 0.730000   18.764431   -82.326038
 0.735000   18.357895   -81.862821
 0.740000   17.945803   -82.118166
 0.745000   17.536714   -81.141946
 0.750000   17.134383   -80.080102
 0.755000   16.735913   -80.136811
 0.760000   16.333015   -78.920437
 0.765000   15.946708   -76.496218
 0.770000   15.568053   -75.204681
 0.775000   15.194662   -74.494487
 0.780000   14.823108   -72.224654
 0.785000   14.472415   -67.795723
 0.790000   14.145151   -64.677684
 0.795000   13.825638   -62.719635
 0.800000   13.517954   -59.714286
 0.805000   13.228495   -56.628489
 0.810000   12.951670   -54.692875
 0.815000   12.681567   -53.246946
 0.820000   12.419200   -52.276696
 0.825000   12.158800   -51.606085
 0.830000   11.903139   -51.218425
 0.835000   11.646615   -51.135104
 0.840000   11.391788   -51.181070
 0.845000   11.134805   -52.082415
 0.850000   10.870964   -54.441896
 0.855000   10.590386   -58.035910
 0.860000   10.290605   -62.876155
 0.865000   9.961624   -70.055182
 0.870000   9.590053   -80.184233
 0.875000   9.159782   -93.563735
 0.880000   8.654416   -109.963065
 0.885000   8.060151   -128.559790
 0.890000   7.368818   -149.545016
 0.895000   6.564701   -173.566436
 0.900000   5.633154   -199.456887
 0.905000   4.570132   -227.899370
 0.910000   3.354160   -258.209177
 0.915000   1.988040   -285.249945
 0.920000   0.501660   -309.877015
 0.925000   -1.110730   -335.044412
 0.930000   -2.848784   -357.270616
 0.935000   -4.683436   -382.784468
 0.940000   -6.676628   -419.119389
 0.945000   -8.874630   -457.485010
 0.950000   -11.251479   -493.911109
 0.955000   -13.813741   -540.051931
 0.960000   -16.651998   -598.283509
 0.965000   -19.796576   -649.825618
 0.970000   -23.150254   -596.029606
 0.975000   -25.756872   -365.834450
 0.980000   -26.808599   -9.560039
 0.985000   -25.852472   425.182511
 0.990000   -22.556773   876.783312
 0.995000   -17.084639   1182.396499
 1.000000   -10.732808   1358.335831
201 psinorm ommvb() dommvb/dpsiN
 0.000000   -31.432825   25693.151233
 0.005000   75.434415   17053.744716
 0.010000   139.104622   11666.245945
 0.015000   192.096874   9680.486681
 0.020000   235.909489   8453.457892
 0.025000   276.631453   7437.444765
 0.030000   310.283936   6338.914552
 0.035000   340.020599   5499.738739
 0.040000   365.281324   4701.971886
 0.045000   387.040317   4162.317656
 0.050000   406.904500   3645.089562
 0.055000   423.491213   3089.858495
 0.060000   437.803085   2662.185277
 0.065000   450.113066   2284.279525
 0.070000   460.645881   1936.411196
 0.075000   469.477178   1592.378161
 0.080000   476.569662   1339.007160
 0.085000   482.867249   1105.704677
 0.090000   487.626709   784.374692
 0.095000   490.710996   576.263469
 0.100000   493.389344   416.864472
 0.105000   494.879641   196.284971
 0.110000   495.352193   -28.286963
 0.115000   494.596771   -284.050871
 0.120000   492.511685   -414.493472
 0.125000   490.451837   -494.128218
 0.130000   487.570402   -650.571878
 0.135000   483.946118   -776.311980
 0.140000   479.807283   -888.190063
 0.145000   475.064217   -1029.128602
 0.150000   469.515997   -1161.466369
 0.155000   463.449554   -1264.984655
 0.160000   456.866150   -1358.977879
 0.165000   449.859775   -1433.565294
 0.170000   442.530497   -1499.727682
 0.175000   434.862498   -1556.191704
 0.180000   426.968580   -1597.111700
 0.185000   418.891381   -1637.528237
 0.190000   410.593298   -1672.172896
 0.195000   402.169652   -1691.978603
 0.200000   393.673512   -1703.925355
 0.205000   385.130398   -1855.606023
 0.210000   375.117451   -1871.592341
 0.215000   366.414475   -1706.110767
 0.220000   358.056344   -1665.807815
 0.225000   349.756397   -1640.233816
 0.230000   341.654006   -1596.737849
 0.235000   333.789018   -1545.532049
 0.240000   326.198685   -1494.079338
 0.245000   318.848225   -1645.221966
 0.250000   309.746465   -1593.191979
 0.255000   302.916305   -1320.310226
 0.260000   296.543363   -1244.972174
 0.265000   290.466583   -1186.766635
 0.270000   284.675697   -1128.287131
 0.275000   279.183712   -1235.912640
 0.280000   272.316570   -1182.676842
 0.285000   267.356944   -938.168973
 0.290000   262.934881   -859.091738
 0.295000   258.766026   -807.878048
 0.300000   254.856100   -859.391332
 0.305000   250.172113   -857.863611
 0.310000   246.277464   -685.767210
 0.315000   243.314441   -571.629093
 0.320000   240.561173   -529.385730
 0.325000   238.020584   -590.345511
 0.330000   234.657718   -564.942046
 0.335000   232.371163   -404.683189
 0.340000   230.610886   -336.360940
 0.345000   229.007554   -325.839292
 0.350000   227.352493   -361.054666
 0.355000   225.397007   -290.514328
 0.360000   224.447350   -177.075518
 0.365000   223.626252   -150.780345
 0.370000   222.939547   -186.091279
 0.375000   221.765339   -160.403596
 0.380000   221.335511   -65.056311
 0.385000   221.114776   -34.593349
 0.390000   220.989577   -43.742809
 0.395000   220.677348   -41.314122
 0.400000   220.576436   5.995139
 0.405000   220.737299   36.251586
 0.410000   220.938952   19.191259
 0.415000   220.929212   9.040005
 0.420000   221.029352   42.157315
 0.425000   221.350785   62.009082
 0.430000   221.649443   33.232873
 0.435000   221.683114   3.832692
 0.440000   221.687770   19.002562
 0.445000   221.873139   31.379346
 0.450000   222.001563   -8.007662
 0.455000   221.793063   -48.342930
 0.460000   221.518134   -26.893122
 0.465000   221.524132   -0.021611
 0.470000   221.517918   -34.363583
 0.475000   221.180496   -57.745799
 0.480000   220.940460   -22.693945
 0.485000   220.953556   4.537014
 0.490000   220.985830   -26.811611
 0.495000   220.685440   -37.058972
 0.500000   220.615240   10.898063
 0.505000   220.794421   39.287470
 0.510000   221.008115   4.892349
 0.515000   220.843344   -3.929655
 0.520000   220.968818   48.245611
 0.525000   221.325800   74.646797
 0.530000   221.715286   27.097111
 0.535000   221.596771   7.909984
 0.540000   221.794386   53.053805
 0.545000   222.127310   67.187560
 0.550000   222.466262   27.043354
 0.555000   222.397743   24.223910
 0.560000   222.708501   71.467173
 0.565000   223.112415   81.158022
 0.570000   223.520081   45.357291
 0.575000   223.565988   48.228175
 0.580000   224.002363   100.823640
 0.585000   224.574224   118.616440
 0.590000   225.188527   95.046304
 0.595000   225.524687   95.776354
 0.600000   226.146291   141.166456
 0.605000   226.936352   165.083375
 0.610000   227.797124   164.224744
 0.615000   228.578599   186.784166
 0.620000   229.664966   234.632576
 0.625000   230.924925   261.284945
 0.630000   232.277815   279.732880
 0.635000   233.722254   306.946589
 0.640000   235.347281   346.423109
 0.645000   237.186485   382.481242
 0.650000   239.172094   415.403698
 0.655000   241.340522   465.616205
 0.660000   243.828256   506.484635
 0.665000   246.405368   530.393589
 0.670000   249.132192   561.063049
 0.675000   252.015999   615.529208
 0.680000   255.287484   655.584457
 0.685000   258.571843   669.050349
 0.690000   261.977987   700.057787
 0.695000   265.572421   741.561376
 0.700000   269.393601   823.669188
 0.705000   273.809113   873.351932
 0.710000   278.127120   889.146387
 0.715000   282.700577   942.341437
 0.720000   287.550535   1014.562250
 0.725000   292.846199   1109.355113
 0.730000   298.644086   1158.829110
 0.735000   304.434490   1191.613693
 0.740000   310.560223   1260.315735
 0.745000   317.037648   1344.591321
 0.750000   324.006136   1455.869470
 0.755000   331.596342   1507.002350
 0.760000   339.076159   1535.036953
 0.765000   346.946712   1612.493550
 0.770000   355.201095   1685.270729
 0.775000   363.799419   1789.826482
 0.780000   373.099360   1873.452410
 0.785000   382.533943   1927.803161
 0.790000   392.377391   2020.954641
 0.795000   402.743490   2129.427376
 0.800000   413.671665   2242.871269
 0.805000   425.172203   2365.938461
 0.810000   437.331050   2468.897976
 0.815000   449.861182   2562.607960
 0.820000   462.957129   2676.886557
 0.825000   476.630048   2795.541065
 0.830000   490.912540   2920.766259
 0.835000   505.837710   3040.963601
 0.840000   521.322176   3115.938121
 0.845000   536.997092   3230.778958
 0.850000   553.629966   3398.281933
 0.855000   570.979911   3546.891614
 0.860000   589.098882   3738.867748
 0.865000   608.368588   4022.913914
 0.870000   629.328021   4389.803688
 0.875000   652.266625   4794.938024
 0.880000   677.277401   5144.308797
 0.885000   703.709713   5556.538915
 0.890000   732.842790   6117.645827
 0.895000   764.886172   6683.843502
 0.900000   799.681225   7256.005875
 0.905000   837.446230   7877.384236
 0.910000   878.455068   8522.765623
 0.915000   922.673887   9134.716036
 0.920000   969.802228   9715.538564
 0.925000   1019.829272   10397.678046
 0.930000   1073.779008   11474.739761
 0.935000   1134.576670   13488.428100
 0.940000   1208.663289   17492.764986
 0.945000   1309.504320   25467.946330
 0.950000   1463.342753   39651.275369
 0.955000   1706.017073   61452.172980
 0.960000   2077.864483   93127.196465
 0.965000   2637.289038   136781.177938
 0.970000   3445.676262   186005.494205
 0.975000   4497.343980   201336.886966
 0.980000   5459.045132   111766.143740
 0.985000   5615.005417   -75681.708435
 0.990000   4702.228047   -185513.458559
 0.995000   3759.870832   96010.784185
 1.000000   5662.335889   664975.238715
201 psinorm ommpp() dommpp/dpsiN
 0.000000   90.989274   -25577.310074
 0.005000   -15.476918   -17009.166783
 0.010000   -79.102394   -11661.128428
 0.015000   -132.088202   -9681.024197
 0.020000   -175.912636   -8457.248102
 0.025000   -216.660683   -7444.270233
 0.030000   -250.355338   -6349.046717
 0.035000   -280.151150   -5512.866318
 0.040000   -305.484001   -4717.655868
 0.045000   -327.327709   -4180.305346
 0.050000   -347.287055   -3664.837356
 0.055000   -363.976083   -3110.640966
 0.060000   -378.393464   -2683.332922
 0.065000   -390.809412   -2305.403598
 0.070000   -401.447500   -1957.346947
 0.075000   -410.382881   -1613.207808
 0.080000   -417.579578   -1359.967482
 0.085000   -423.982556   -1127.141817
 0.090000   -428.850996   -806.951355
 0.095000   -432.052070   -600.414977
 0.100000   -434.855146   -442.747881
 0.105000   -436.479548   -223.931062
 0.110000   -437.094457   -1.091726
 0.115000   -436.490466   253.019372
 0.120000   -434.564263   381.859146
 0.125000   -432.671874   460.190146
 0.130000   -429.962362   615.716909
 0.135000   -426.514705   740.679265
 0.140000   -422.555569   851.932266
 0.145000   -417.995383   992.271039
 0.150000   -412.632859   1123.961972
 0.155000   -406.755763   1226.877341
 0.160000   -400.364085   1320.256784
 0.165000   -393.553195   1394.257120
 0.170000   -386.421514   1459.950591
 0.175000   -378.953689   1516.091568
 0.180000   -371.260598   1556.764483
 0.185000   -363.386044   1596.736450
 0.190000   -355.293234   1631.006241
 0.195000   -347.075982   1650.427296
 0.200000   -338.788961   1661.951783
 0.205000   -330.456464   1813.468905
 0.210000   -320.654272   1828.934401
 0.215000   -312.167120   1662.766854
 0.220000   -304.026603   1622.021499
 0.225000   -295.946905   1596.095770
 0.230000   -288.065646   1552.351950
 0.235000   -280.423385   1500.612189
 0.240000   -273.059524   1448.622717
 0.245000   -265.937158   1599.488666
 0.250000   -257.064637   1547.408354
 0.255000   -250.463075   1274.983793
 0.260000   -244.314799   1200.327356
 0.265000   -238.459801   1142.863041
 0.270000   -232.886169   1085.473897
 0.275000   -227.605062   1194.163900
 0.280000   -220.944530   1141.775730
 0.285000   -216.187305   897.998121
 0.290000   -211.964548   819.254089
 0.295000   -207.994764   768.227880
 0.300000   -204.282270   819.948817
 0.305000   -199.795276   818.085933
 0.310000   -196.101410   645.063567
 0.315000   -193.344640   529.377778
 0.320000   -190.807633   484.791932
 0.325000   -188.496721   543.086464
 0.330000   -185.376768   514.786696
 0.335000   -183.348854   351.582942
 0.340000   -181.860938   280.949811
 0.345000   -180.539356   268.735929
 0.350000   -179.173579   302.808992
 0.355000   -177.511266   231.548149
 0.360000   -176.858098   117.456598
 0.365000   -176.336700   91.323087
 0.370000   -175.944867   127.387426
 0.375000   -175.062826   102.334793
 0.380000   -174.921519   7.756190
 0.385000   -174.985264   -22.003977
 0.390000   -175.141559   -12.064386
 0.395000   -175.105908   -13.300565
 0.400000   -175.274564   -59.666706
 0.405000   -175.702575   -89.484419
 0.410000   -176.169408   -72.316570
 0.415000   -176.425740   -62.866646
 0.420000   -176.798075   -97.649891
 0.425000   -177.402239   -121.009532
 0.430000   -178.008170   -97.449156
 0.435000   -178.376731   -74.293789
 0.440000   -178.751108   -97.284944
 0.445000   -179.349580   -117.768402
 0.450000   -179.928792   -85.420755
 0.455000   -180.203788   -51.944710
 0.460000   -180.448239   -79.519464
 0.465000   -180.998982   -110.736517
 0.470000   -181.555604   -78.784455
 0.475000   -181.786827   -55.138204
 0.480000   -182.106986   -87.486105
 0.485000   -182.661688   -110.167536
 0.490000   -183.208662   -72.584819
 0.495000   -183.387536   -54.311767
 0.500000   -183.751780   -93.060461
 0.505000   -184.318141   -112.645231
 0.510000   -184.878232   -70.428069
 0.515000   -185.022422   -54.804443
 0.520000   -185.426276   -101.547963
 0.525000   -186.037901   -123.848344
 0.530000   -186.664760   -73.724499
 0.535000   -186.775146   -53.343730
 0.540000   -187.198197   -98.198900
 0.545000   -187.757135   -112.566376
 0.550000   -188.323861   -72.872688
 0.555000   -188.485862   -70.866986
 0.560000   -189.032531   -119.176283
 0.565000   -189.677625   -129.755123
 0.570000   -190.330082   -94.710486
 0.575000   -190.624730   -98.273036
 0.580000   -191.312812   -151.319221
 0.585000   -192.137922   -169.463395
 0.590000   -193.007446   -146.346497
 0.595000   -193.601387   -147.676491
 0.600000   -194.484211   -193.916389
 0.605000   -195.540551   -218.978901
 0.610000   -196.674000   -219.663663
 0.615000   -197.737187   -244.313050
 0.620000   -199.117131   -294.694434
 0.625000   -200.684132   -324.168429
 0.630000   -202.358815   -345.681885
 0.635000   -204.140951   -375.969968
 0.640000   -206.118515   -418.287122
 0.645000   -208.323822   -456.936344
 0.650000   -210.687878   -491.901723
 0.655000   -213.242839   -543.618053
 0.660000   -216.124059   -585.775200
 0.665000   -219.100591   -610.942007
 0.670000   -222.233479   -642.978569
 0.675000   -225.530377   -698.985657
 0.680000   -229.223335   -740.969474
 0.685000   -232.940072   -756.988873
 0.690000   -236.793224   -791.090872
 0.695000   -240.850980   -836.007966
 0.700000   -245.153304   -920.214184
 0.705000   -250.053122   -970.646799
 0.710000   -254.859772   -987.165948
 0.715000   -259.924782   -1040.778001
 0.720000   -265.267552   -1113.223568
 0.725000   -271.057017   -1208.795974
 0.730000   -277.355511   -1257.697178
 0.735000   -283.633989   -1288.934552
 0.740000   -290.244857   -1357.101168
 0.745000   -297.205001   -1440.745727
 0.750000   -304.652314   -1551.098157
 0.755000   -312.715982   -1600.957493
 0.760000   -320.661889   -1627.174798
 0.765000   -328.987730   -1702.699832
 0.770000   -337.688887   -1773.758343
 0.775000   -346.725314   -1876.385860
 0.780000   -356.452746   -1957.318208
 0.785000   -366.298496   -2007.314875
 0.790000   -376.525895   -2096.451952
 0.795000   -387.263015   -2201.964819
 0.800000   -398.545543   -2312.081156
 0.805000   -410.383827   -2432.009273
 0.810000   -422.865636   -2532.258628
 0.815000   -435.706413   -2623.854801
 0.820000   -449.104184   -2737.175305
 0.825000   -463.078166   -2855.176238
 0.830000   -477.655946   -2979.422013
 0.835000   -492.872386   -3099.182028
 0.840000   -508.647766   -3174.370202
 0.845000   -524.616088   -3290.157957
 0.850000   -541.549346   -3459.818936
 0.855000   -559.214278   -3612.145853
 0.860000   -577.670804   -3809.595427
 0.865000   -597.310232   -4101.512737
 0.870000   -618.685932   -4479.281600
 0.875000   -642.103048   -4899.015623
 0.880000   -667.676088   -5266.609415
 0.885000   -694.769142   -5699.425198
 0.890000   -724.670340   -6283.687129
 0.895000   -757.606013   -6876.428582
 0.900000   -793.434626   -7477.285233
 0.905000   -832.378866   -8130.204252
 0.910000   -874.736668   -8809.339492
 0.915000   -920.472261   -9451.339748
 0.920000   -969.250066   -10059.324245
 0.925000   -1021.065503   -10768.087459
 0.930000   -1076.930940   -11869.125880
 0.935000   -1139.756762   -13911.286183
 0.940000   -1216.043802   -17954.390829
 0.945000   -1319.300670   -25963.958055
 0.950000   -1475.683383   -40185.702978
 0.955000   -1721.157700   -62041.319552
 0.960000   -2096.096578   -93767.795493
 0.965000   -2658.835655   -137445.037092
 0.970000   -3470.546949   -186614.124127
 0.975000   -4524.976896   -201722.539120
 0.980000   -5487.772340   -111761.762304
 0.985000   -5642.594519   76164.421347
 0.990000   -4726.128127   186467.664325
 0.995000   -3777.917876   -94749.502758
 1.000000   -5673.623155   -663532.608654
201 psinorm omevb() domevb/dpsiN
 0.000000   27.255110   143.853765
 0.005000   27.824021   83.710566
 0.010000   28.092216   49.707638
 0.015000   28.321098   43.847538
 0.020000   28.530691   40.389744
 0.025000   28.724995   37.149361
 0.030000   28.902185   33.637529
 0.035000   29.061370   30.436975
 0.040000   29.206555   27.675443
 0.045000   29.338125   25.166622
 0.050000   29.458221   23.201431
 0.055000   29.570139   21.961706
 0.060000   29.677838   21.391531
 0.065000   29.784054   21.210158
 0.070000   29.889940   21.193601
 0.075000   29.995990   21.094903
 0.080000   30.100889   20.759512
 0.085000   30.203586   20.078072
 0.090000   30.301669   18.734031
 0.095000   30.390926   16.954781
 0.100000   30.471217   15.018599
 0.105000   30.541112   13.051766
 0.110000   30.601735   11.115159
 0.115000   30.652263   9.258489
 0.120000   30.694320   7.451960
 0.125000   30.726783   5.944681
 0.130000   30.753767   4.824425
 0.135000   30.775027   3.843506
 0.140000   30.792202   3.015443
 0.145000   30.805182   2.212901
 0.150000   30.814331   1.363499
 0.155000   30.818817   0.558233
 0.160000   30.819913   -0.257671
 0.165000   30.816240   -1.046636
 0.170000   30.809447   -1.717197
 0.175000   30.799068   -2.241635
 0.180000   30.787030   -2.689848
 0.185000   30.772170   -3.335284
 0.190000   30.753677   -3.910743
 0.195000   30.733062   -4.495702
 0.200000   30.708720   -5.117984
 0.205000   30.681882   -5.481248
 0.210000   30.653908   -6.201484
 0.215000   30.619867   -7.086558
 0.220000   30.583042   -7.727739
 0.225000   30.542590   -8.277921
 0.230000   30.500263   -8.723889
 0.235000   30.455351   -9.455625
 0.240000   30.405707   -10.189810
 0.245000   30.353453   -10.663558
 0.250000   30.299071   -10.910588
 0.255000   30.244347   -10.649731
 0.260000   30.192574   -10.164075
 0.265000   30.142706   -9.618425
 0.270000   30.096390   -8.723250
 0.275000   30.055474   -7.853543
 0.280000   30.017854   -7.200299
 0.285000   29.983471   -6.664014
 0.290000   29.951214   -6.524370
 0.295000   29.918227   -6.530026
 0.300000   29.885914   -6.515082
 0.305000   29.853076   -7.042518
 0.310000   29.815489   -8.160317
 0.315000   29.771473   -9.899375
 0.320000   29.716495   -12.432794
 0.325000   29.647145   -15.288519
 0.330000   29.563610   -18.374836
 0.335000   29.463397   -21.509276
 0.340000   29.348517   -24.009227
 0.345000   29.223305   -25.890050
 0.350000   29.089617   -27.220463
 0.355000   28.951100   -28.128579
 0.360000   28.808331   -28.968435
 0.365000   28.661416   -28.993386
 0.370000   28.518397   -28.426088
 0.375000   28.377155   -27.976633
 0.380000   28.238631   -27.393028
 0.385000   28.103225   -26.874789
 0.390000   27.969883   -26.268687
 0.395000   27.840538   -25.259679
 0.400000   27.717286   -24.499520
 0.405000   27.595542   -24.243208
 0.410000   27.474854   -24.317564
 0.415000   27.352367   -25.200220
 0.420000   27.222852   -27.046929
 0.425000   27.081898   -30.735017
 0.430000   26.915501   -36.130503
 0.435000   26.720592   -42.554403
 0.440000   26.489957   -50.554203
 0.445000   26.215050   -58.838818
 0.450000   25.901569   -66.055540
 0.455000   25.554495   -73.091541
 0.460000   25.170654   -79.392680
 0.465000   24.760568   -83.913823
 0.470000   24.331516   -86.478742
 0.475000   23.895781   -86.389117
 0.480000   23.467624   -83.858973
 0.485000   23.057191   -79.482649
 0.490000   22.672798   -73.421153
 0.495000   22.322980   -65.567446
 0.500000   22.017123   -56.530473
 0.505000   21.757675   -47.896588
 0.510000   21.538158   -40.244676
 0.515000   21.355228   -33.612558
 0.520000   21.202032   -28.349687
 0.525000   21.071731   -24.417127
 0.530000   20.957861   -22.010579
 0.535000   20.851625   -20.983909
 0.540000   20.748022   -20.861588
 0.545000   20.643010   -21.260996
 0.550000   20.535412   -21.876553
 0.555000   20.424244   -22.854684
 0.560000   20.306865   -24.084450
 0.565000   20.183400   -25.135515
 0.570000   20.055510   -26.054019
 0.575000   19.922859   -26.907428
 0.580000   19.786435   -27.519218
 0.585000   19.647667   -28.030985
 0.590000   19.506126   -28.643930
 0.595000   19.361228   -29.402890
 0.600000   19.212097   -30.410999
 0.605000   19.057118   -31.714197
 0.610000   18.894955   -33.414473
 0.615000   18.722973   -35.660584
 0.620000   18.538349   -38.348953
 0.625000   18.339484   -41.325201
 0.630000   18.125097   -44.544547
 0.635000   17.894038   -47.771920
 0.640000   17.647378   -50.764693
 0.645000   17.386391   -53.507014
 0.650000   17.112307   -55.700212
 0.655000   16.829389   -57.353286
 0.660000   16.538775   -58.790152
 0.665000   16.241488   -60.194954
 0.670000   15.936825   -61.707684
 0.675000   15.624411   -63.392777
 0.680000   15.302897   -65.463862
 0.685000   14.969772   -68.158018
 0.690000   14.621317   -71.391093
 0.695000   14.255861   -74.940644
 0.700000   13.871911   -77.172223
 0.705000   13.484139   -78.051894
 0.710000   13.091392   -78.902406
 0.715000   12.695115   -79.440502
 0.720000   12.296987   -79.780710
 0.725000   11.897308   -80.668953
 0.730000   11.490297   -80.196747
 0.735000   11.095340   -78.740354
 0.740000   10.702894   -78.283951
 0.745000   10.312501   -77.717697
 0.750000   9.925717   -76.839518
 0.755000   9.544106   -75.592661
 0.760000   9.169790   -73.776822
 0.765000   8.806337   -71.816209
 0.770000   8.451628   -70.031622
 0.775000   8.106021   -67.992972
 0.780000   7.771698   -65.135358
 0.785000   7.454668   -60.552769
 0.790000   7.166171   -56.232529
 0.795000   6.892342   -52.874361
 0.800000   6.637427   -49.038359
 0.805000   6.401959   -45.260227
 0.810000   6.184825   -41.756975
 0.815000   5.984389   -38.669631
 0.820000   5.798128   -36.528374
 0.825000   5.619105   -34.450616
 0.830000   5.453622   -31.773565
 0.835000   5.301370   -29.333751
 0.840000   5.160285   -27.213053
 0.845000   5.029239   -25.476474
 0.850000   4.905520   -24.602463
 0.855000   4.783214   -24.969935
 0.860000   4.655821   -26.854870
 0.865000   4.514666   -31.052308
 0.870000   4.345298   -38.438398
 0.875000   4.130282   -50.157785
 0.880000   3.843720   -66.786542
 0.885000   3.462416   -88.082380
 0.890000   2.962896   -115.755309
 0.895000   2.304863   -152.795685
 0.900000   1.434939   -201.031528
 0.905000   0.294548   -265.382251
 0.910000   -1.218883   -350.853784
 0.915000   -3.213990   -458.750822
 0.920000   -5.806392   -598.607913
 0.925000   -9.200069   -782.414777
 0.930000   -13.630539   -1017.384358
 0.935000   -19.373913   -1318.183125
 0.940000   -26.812371   -1697.303604
 0.945000   -36.346949   -2158.523330
 0.950000   -48.397604   -2789.004358
 0.955000   -64.236992   -3867.440576
 0.960000   -87.072010   -5983.511755
 0.965000   -124.072110   -9382.899754
 0.970000   -180.901007   -10375.231156
 0.975000   -227.824421   -1912.354970
 0.980000   -200.024557   10332.225329
 0.985000   -124.502168   12942.945593
 0.990000   -70.595101   8202.286476
 0.995000   -42.479303   4437.300661
 1.000000   -26.222094   2065.582885
201 psinorm omepp() domepp/dpsiN
 0.000000   32.301339   -28.012607
 0.005000   32.133475   -39.132633
 0.010000   31.910012   -44.590122
 0.015000   31.687574   -44.385054
 0.020000   31.466162   -44.179953
 0.025000   31.245775   -43.974830
 0.030000   31.026413   -43.769694
 0.035000   30.808078   -43.564555
 0.040000   30.590768   -43.359424
 0.045000   30.374484   -43.154311
 0.050000   30.159225   -42.949225
 0.055000   29.944991   -42.744177
 0.060000   29.731783   -42.539176
 0.065000   29.519600   -42.334231
 0.070000   29.308441   -42.129353
 0.075000   29.098306   -41.924551
 0.080000   28.889195   -41.719834
 0.085000   28.681108   -41.515212
 0.090000   28.474043   -41.310694
 0.095000   28.268001   -41.106290
 0.100000   28.062980   -40.902008
 0.105000   27.858981   -40.697857
 0.110000   27.656002   -40.493848
 0.115000   27.454042   -40.289988
 0.120000   27.253102   -40.086286
 0.125000   27.053179   -39.882752
 0.130000   26.854274   -39.679394
 0.135000   26.656385   -39.476221
 0.140000   26.459512   -39.273241
 0.145000   26.263653   -39.070463
 0.150000   26.068807   -38.867895
 0.155000   25.874974   -38.665546
 0.160000   25.682152   -38.463424
 0.165000   25.490340   -38.261537
 0.170000   25.299537   -38.059893
 0.175000   25.109741   -37.858501
 0.180000   24.920952   -37.657368
 0.185000   24.733167   -37.456503
 0.190000   24.546386   -37.255912
 0.195000   24.360608   -37.055605
 0.200000   24.175830   -36.855588
 0.205000   23.992052   -36.655869
 0.210000   23.809272   -36.456456
 0.215000   23.627488   -36.257356
 0.220000   23.446698   -36.058577
 0.225000   23.266902   -35.860125
 0.230000   23.088097   -35.662009
 0.235000   22.910282   -35.464235
 0.240000   22.733455   -35.266810
 0.245000   22.557614   -35.069742
 0.250000   22.382757   -34.873037
 0.255000   22.208883   -34.676702
 0.260000   22.035990   -34.480744
 0.265000   21.864076   -34.285169
 0.270000   21.693138   -34.089985
 0.275000   21.523176   -33.895197
 0.280000   21.354186   -33.700812
 0.285000   21.186168   -33.506838
 0.290000   21.019118   -33.313279
 0.295000   20.853035   -33.120142
 0.300000   20.687917   -32.927434
 0.305000   20.523761   -32.735160
 0.310000   20.360565   -32.543326
 0.315000   20.198327   -32.351939
 0.320000   20.037046   -32.161004
 0.325000   19.876717   -31.970527
 0.330000   19.717340   -31.780514
 0.335000   19.558912   -31.590971
 0.340000   19.401431   -31.401902
 0.345000   19.244893   -31.213314
 0.350000   19.089298   -31.025211
 0.355000   18.934641   -30.837600
 0.360000   18.780922   -30.650485
 0.365000   18.628136   -30.463872
 0.370000   18.476283   -30.277765
 0.375000   18.325359   -30.092171
 0.380000   18.175361   -29.907093
 0.385000   18.026288   -29.722537
 0.390000   17.878136   -29.538507
 0.395000   17.730903   -29.355009
 0.400000   17.584586   -29.172047
 0.405000   17.439182   -28.989625
 0.410000   17.294689   -28.807748
 0.415000   17.151105   -28.626421
 0.420000   17.008425   -28.445647
 0.425000   16.866648   -28.265432
 0.430000   16.725771   -28.085780
 0.435000   16.585790   -27.906694
 0.440000   16.446704   -27.728179
 0.445000   16.308509   -27.550238
 0.450000   16.171202   -27.372877
 0.455000   16.034780   -27.196098
 0.460000   15.899241   -27.019906
 0.465000   15.764581   -26.844304
 0.470000   15.630798   -26.669296
 0.475000   15.497888   -26.494886
 0.480000   15.365849   -26.321077
 0.485000   15.234677   -26.147873
 0.490000   15.104370   -25.975278
 0.495000   14.974924   -25.803293
 0.500000   14.846337   -25.631924
 0.505000   14.718605   -25.461174
 0.510000   14.591725   -25.291045
 0.515000   14.465695   -25.121540
 0.520000   14.340510   -24.952664
 0.525000   14.216168   -24.784420
 0.530000   14.092666   -24.616810
 0.535000   13.970000   -24.449837
 0.540000   13.848167   -24.283506
 0.545000   13.727165   -24.117819
 0.550000   13.606989   -23.952780
 0.555000   13.487637   -23.788393
 0.560000   13.369105   -23.624660
 0.565000   13.251390   -23.461586
 0.570000   13.134489   -23.299176
 0.575000   13.018399   -23.137433
 0.580000   12.903115   -22.976362
 0.585000   12.788635   -22.815970
 0.590000   12.674955   -22.656263
 0.595000   12.562072   -22.497248
 0.600000   12.449983   -22.338933
 0.605000   12.338683   -22.181329
 0.610000   12.228170   -22.024446
 0.615000   12.118439   -21.868299
 0.620000   12.009487   -21.712905
 0.625000   11.901310   -21.558283
 0.630000   11.793904   -21.404458
 0.635000   11.687265   -21.251459
 0.640000   11.581389   -21.099321
 0.645000   11.476272   -20.948088
 0.650000   11.371908   -20.797813
 0.655000   11.268294   -20.648562
 0.660000   11.165423   -20.500413
 0.665000   11.063290   -20.353464
 0.670000   10.961888   -20.207835
 0.675000   10.861211   -20.063673
 0.680000   10.761251   -19.921156
 0.685000   10.662000   -19.780505
 0.690000   10.563446   -19.641991
 0.695000   10.465580   -19.505945
 0.700000   10.368387   -19.372773
 0.705000   10.271852   -19.242973
 0.710000   10.175957   -19.117154
 0.715000   10.080680   -18.996062
 0.720000   9.985996   -18.880609
 0.725000   9.891874   -18.771908
 0.730000   9.798277   -18.671321
 0.735000   9.705161   -18.580505
 0.740000   9.612472   -18.501482
 0.745000   9.520146   -18.436709
 0.750000   9.428105   -18.389169
 0.755000   9.336255   -18.362482
 0.760000   9.244480   -18.361022
 0.765000   9.152644   -18.390073
 0.770000   9.060580   -18.455991
 0.775000   8.968084   -18.566407
 0.780000   8.874916   -18.730440
 0.785000   8.780780   -18.958946
 0.790000   8.685326   -19.264782
 0.795000   8.588132   -19.663083
 0.800000   8.488695   -20.171528
 0.805000   8.386417   -20.810585
 0.810000   8.280589   -21.603677
 0.815000   8.170380   -22.577211
 0.820000   8.054817   -23.760374
 0.825000   7.932776   -25.184558
 0.830000   7.802972   -26.882188
 0.835000   7.663955   -28.884676
 0.840000   7.514125   -31.219028
 0.845000   7.351764   -33.902524
 0.850000   7.175100   -36.934541
 0.855000   6.982419   -40.284303
 0.860000   6.772257   -43.872809
 0.865000   6.543691   -47.546515
 0.870000   6.296792   -51.039514
 0.875000   6.033296   -53.919813
 0.880000   5.757593   -55.514076
 0.885000   5.478155   -54.803904
 0.890000   5.209554   -50.285993
 0.895000   4.975295   -39.789394
 0.900000   4.811660   -20.247830
 0.905000   4.772817   12.562235
 0.910000   4.937283   64.279915
 0.915000   5.415616   142.127110
 0.920000   6.358554   254.822232
 0.925000   7.963838   412.005364
 0.930000   10.478608   622.998239
 0.935000   14.193821   895.325041
 0.940000   19.431858   1235.677760
 0.945000   26.550598   1662.511605
 0.950000   36.056974   2254.576749
 0.955000   49.096366   3278.294004
 0.960000   68.839914   5342.912727
 0.965000   102.525493   8719.040600
 0.970000   156.030320   9766.601233
 0.975000   200.191505   1526.702816
 0.980000   171.297348   -10327.843893
 0.985000   96.913066   -12460.232682
 0.990000   46.695021   -7248.080710
 0.995000   24.432259   -3176.019234
 1.000000   14.934829   -622.952824
201 psinorm kpol(km/s/T) dkpol/dpsiN
 0.000000   0.008461   147.293358
 0.005000   0.602044   90.140034
 0.010000   0.909861   58.621266
 0.015000   1.188257   54.670584
 0.020000   1.456567   52.986823
 0.025000   1.718125   51.388357
 0.030000   1.970451   49.395219
 0.035000   2.212077   47.623998
 0.040000   2.446691   46.224849
 0.045000   2.674326   45.018560
 0.050000   2.896876   44.302885
 0.055000   3.117355   44.264464
 0.060000   3.339521   44.874932
 0.065000   3.566104   45.763216
 0.070000   3.797153   46.584792
 0.075000   4.031952   47.117524
 0.080000   4.268328   47.236782
 0.085000   4.504320   46.804941
 0.090000   4.736378   45.612730
 0.095000   4.960447   43.833384
 0.100000   5.174711   41.600385
 0.105000   5.376451   39.144565
 0.110000   5.566157   36.547884
 0.115000   5.741930   33.819584
 0.120000   5.904353   31.289829
 0.125000   6.054828   29.327030
 0.130000   6.197623   27.763140
 0.135000   6.332459   26.345907
 0.140000   6.461082   25.015835
 0.145000   6.582618   23.634842
 0.150000   6.697431   22.030849
 0.155000   6.802926   20.350009
 0.160000   6.900931   18.653642
 0.165000   6.989463   16.915524
 0.170000   7.070086   15.220675
 0.175000   7.141669   13.442518
 0.180000   7.204511   11.712093
 0.185000   7.258790   9.884241
 0.190000   7.303354   8.119926
 0.195000   7.339990   6.358287
 0.200000   7.366936   4.592607
 0.205000   7.385916   2.973269
 0.210000   7.396669   1.373492
 0.215000   7.399651   0.023113
 0.220000   7.396900   -1.340674
 0.225000   7.386244   -2.829064
 0.230000   7.368610   -4.310109
 0.235000   7.343143   -6.052404
 0.240000   7.308086   -7.854705
 0.245000   7.264596   -9.770476
 0.250000   7.210381   -11.920189
 0.255000   7.145394   -13.961456
 0.260000   7.070766   -16.035847
 0.265000   6.985035   -18.099302
 0.270000   6.889773   -19.940681
 0.275000   6.785629   -21.790020
 0.280000   6.671873   -23.579144
 0.285000   6.549837   -25.275130
 0.290000   6.419122   -27.106718
 0.295000   6.278770   -28.957695
 0.300000   6.129545   -30.865915
 0.305000   5.970111   -33.016387
 0.310000   5.799381   -35.228469
 0.315000   5.617826   -37.556310
 0.320000   5.423818   -40.177806
 0.325000   5.216048   -42.770407
 0.330000   4.996114   -45.138796
 0.335000   4.764660   -47.307403
 0.340000   4.523040   -49.044590
 0.345000   4.274214   -50.305639
 0.350000   4.019983   -51.026549
 0.355000   3.763949   -51.184789
 0.360000   3.508135   -51.117572
 0.365000   3.252773   -51.011266
 0.370000   2.998023   -50.861621
 0.375000   2.744157   -50.748754
 0.380000   2.490535   -50.855836
 0.385000   2.235598   -51.407965
 0.390000   1.976456   -52.365679
 0.395000   1.711942   -53.536813
 0.400000   1.441088   -54.791849
 0.405000   1.164023   -55.948634
 0.410000   0.881601   -57.172704
 0.415000   0.592296   -59.017643
 0.420000   0.291425   -62.012794
 0.425000   -0.027832   -66.420826
 0.430000   -0.372784   -72.251520
 0.435000   -0.750347   -79.572931
 0.440000   -1.168513   -88.793415
 0.445000   -1.638281   -98.364969
 0.450000   -2.152163   -106.905957
 0.455000   -2.707341   -114.671357
 0.460000   -3.298876   -121.079644
 0.465000   -3.918137   -125.628253
 0.470000   -4.555159   -127.569789
 0.475000   -5.193835   -126.097101
 0.480000   -5.816130   -121.449328
 0.485000   -6.408328   -114.332053
 0.490000   -6.959450   -105.312531
 0.495000   -7.461454   -94.352745
 0.500000   -7.902978   -82.064231
 0.505000   -8.282096   -70.574194
 0.510000   -8.608720   -60.557351
 0.515000   -8.887669   -51.710239
 0.520000   -9.125822   -44.389640
 0.525000   -9.331566   -38.721026
 0.530000   -9.513032   -34.981098
 0.535000   -9.681377   -32.956986
 0.540000   -9.842602   -31.944767
 0.545000   -10.000825   -31.411626
 0.550000   -10.156718   -30.997493
 0.555000   -10.310799   -30.857039
 0.560000   -10.465289   -30.714728
 0.565000   -10.617947   -29.996497
 0.570000   -10.765254   -28.666652
 0.575000   -10.904613   -26.887282
 0.580000   -11.034126   -24.575729
 0.585000   -11.150371   -21.676450
 0.590000   -11.250891   -18.302534
 0.595000   -11.333396   -14.679572
 0.600000   -11.397687   -10.990013
 0.605000   -11.443296   -7.363108
 0.610000   -11.471318   -4.069386
 0.615000   -11.483990   -1.185440
 0.620000   -11.483172   1.272051
 0.625000   -11.471269   3.258138
 0.630000   -11.450591   4.761771
 0.635000   -11.423652   5.927528
 0.640000   -11.391316   6.889780
 0.645000   -11.354754   7.657873
 0.650000   -11.314737   8.357835
 0.655000   -11.271176   9.084519
 0.660000   -11.223892   9.811085
 0.665000   -11.173065   10.451943
 0.670000   -11.119372   11.027536
 0.675000   -11.062789   11.597916
 0.680000   -11.003393   12.193140
 0.685000   -10.940858   12.897509
 0.690000   -10.874418   13.873216
 0.695000   -10.802126   15.230759
 0.700000   -10.722110   17.063259
 0.705000   -10.631493   19.352824
 0.710000   -10.528582   21.734153
 0.715000   -10.414152   23.931747
 0.720000   -10.289265   25.758012
 0.725000   -10.156572   26.999994
 0.730000   -10.019265   27.535258
 0.735000   -9.881219   27.000091
 0.740000   -9.749264   25.174068
 0.745000   -9.629478   22.364726
 0.750000   -9.525617   18.902616
 0.755000   -9.440452   15.019487
 0.760000   -9.375422   10.968311
 0.765000   -9.330769   7.205647
 0.770000   -9.303365   4.068578
 0.775000   -9.290083   1.469790
 0.780000   -9.288667   -0.703547
 0.785000   -9.297119   -2.593210
 0.790000   -9.314599   -4.549398
 0.795000   -9.342613   -7.016376
 0.800000   -9.384763   -10.118783
 0.805000   -9.443800   -13.830854
 0.810000   -9.523072   -18.167252
 0.815000   -9.625473   -23.035159
 0.820000   -9.753423   -28.101388
 0.825000   -9.906487   -32.701132
 0.830000   -10.080435   -36.576494
 0.835000   -10.272252   -39.735867
 0.840000   -10.477793   -41.839180
 0.845000   -10.690644   -42.716572
 0.850000   -10.904959   -42.487664
 0.855000   -11.115520   -41.290578
 0.860000   -11.317865   -39.333581
 0.865000   -11.508856   -37.010571
 0.870000   -11.687970   -34.910212
 0.875000   -11.857958   -33.146091
 0.880000   -12.019431   -31.701994
 0.885000   -12.174978   -30.837851
 0.890000   -12.327810   -30.650899
 0.895000   -12.481487   -30.933900
 0.900000   -12.637149   -31.478074
 0.905000   -12.796268   -32.077522
 0.910000   -12.957924   -32.210455
 0.915000   -13.118372   -32.390336
 0.920000   -13.281827   -32.964333
 0.925000   -13.448016   -32.854521
 0.930000   -13.610373   -31.784513
 0.935000   -13.765861   -32.068585
 0.940000   -13.931059   -34.951773
 0.945000   -14.115379   -36.655112
 0.950000   -14.297610   -35.464119
 0.955000   -14.470020   -30.880643
 0.960000   -14.606416   -14.321047
 0.965000   -14.613230   31.519922
 0.970000   -14.291217   132.326739
 0.975000   -13.289963   313.636501
 0.980000   -11.154852   582.118628
 0.985000   -7.468777   898.211117
 0.990000   -2.172741   1160.306284
 0.995000   4.134286   1218.440316
 1.000000   10.011662   1132.510171
201 psinorm omghb() domghb/dpsiN
 0.000000   -0.000074   0.041442
 0.005000   0.000011   -0.007685
 0.010000   -0.000151   0.000179
 0.015000   0.000012   0.041433
 0.020000   0.000264   0.057038
 0.025000   0.000583   0.069999
 0.030000   0.000964   0.089664
 0.035000   0.001479   0.110770
 0.040000   0.002071   0.123230
 0.045000   0.002712   0.123196
 0.050000   0.003303   0.113420
 0.055000   0.003846   0.099445
 0.060000   0.004298   0.080016
 0.065000   0.004646   0.065094
 0.070000   0.004949   0.063067
 0.075000   0.005277   0.076897
 0.080000   0.005718   0.100583
 0.085000   0.006283   0.122202
 0.090000   0.006940   0.153992
 0.095000   0.007822   0.181811
 0.100000   0.008758   0.223911
 0.105000   0.010062   0.252895
 0.110000   0.011287   0.235421
 0.115000   0.012416   0.223920
 0.120000   0.013526   0.218024
 0.125000   0.014596   0.222043
 0.130000   0.015746   0.214380
 0.135000   0.016740   0.190751
 0.140000   0.017654   0.179022
 0.145000   0.018530   0.184797
 0.150000   0.019502   0.196208
 0.155000   0.020492   0.206322
 0.160000   0.021565   0.209736
 0.165000   0.022589   0.184643
 0.170000   0.023412   0.182937
 0.175000   0.024419   0.180549
 0.180000   0.025217   0.181847
 0.185000   0.026237   0.179694
 0.190000   0.027014   0.159515
 0.195000   0.027832   0.204530
 0.200000   0.029059   0.215813
 0.205000   0.029991   0.205721
 0.210000   0.031116   0.205284
 0.215000   0.032043   0.184087
 0.220000   0.032957   0.205398
 0.225000   0.034097   0.222577
 0.230000   0.035183   0.222844
 0.235000   0.036326   0.200176
 0.240000   0.037185   0.168217
 0.245000   0.038008   0.187462
 0.250000   0.039059   0.172552
 0.255000   0.039734   0.037326
 0.260000   0.039433   -0.029069
 0.265000   0.039443   -0.048960
 0.270000   0.038943   -0.069241
 0.275000   0.038750   -0.031898
 0.280000   0.038624   -0.064791
 0.285000   0.038103   -0.004372
 0.290000   0.038580   0.101954
 0.295000   0.039122   0.107611
 0.300000   0.039657   0.153854
 0.305000   0.040661   0.221578
 0.310000   0.041872   0.197762
 0.315000   0.042638   0.531613
 0.320000   0.047188   0.822181
 0.325000   0.050860   0.724259
 0.330000   0.054431   0.717541
 0.335000   0.058035   0.666365
 0.340000   0.061095   0.628865
 0.345000   0.064324   0.525362
 0.350000   0.066348   0.341267
 0.355000   0.067737   0.222643
 0.360000   0.068575   0.130602
 0.365000   0.069043   0.060051
 0.370000   0.069175   0.141907
 0.375000   0.070462   0.021682
 0.380000   0.069392   -0.199789
 0.385000   0.068464   -0.150104
 0.390000   0.067891   -0.083325
 0.395000   0.067631   -0.029998
 0.400000   0.067591   -0.055894
 0.405000   0.067072   -0.055742
 0.410000   0.067034   0.152351
 0.415000   0.068595   0.439284
 0.420000   0.071426   0.845539
 0.425000   0.077051   1.350085
 0.430000   0.084927   1.624578
 0.435000   0.093296   1.869948
 0.440000   0.103627   2.165156
 0.445000   0.114948   2.230522
 0.450000   0.125932   2.306167
 0.455000   0.138010   2.099837
 0.460000   0.146930   1.498231
 0.465000   0.152992   1.003396
 0.470000   0.156964   0.533018
 0.475000   0.158322   -0.082116
 0.480000   0.156143   -0.867440
 0.485000   0.149648   -1.520115
 0.490000   0.140942   -1.914156
 0.495000   0.130506   -2.213492
 0.500000   0.118807   -2.343833
 0.505000   0.107068   -2.279161
 0.510000   0.096016   -2.222419
 0.515000   0.084844   -1.844499
 0.520000   0.077571   -1.222877
 0.525000   0.072615   -0.819832
 0.530000   0.069372   -0.485937
 0.535000   0.067756   -0.187030
 0.540000   0.067502   0.077021
 0.545000   0.068526   0.217053
 0.550000   0.069672   0.257480
 0.555000   0.071101   0.345190
 0.560000   0.073124   0.338604
 0.565000   0.074487   0.291872
 0.570000   0.076043   0.311803
 0.575000   0.077605   0.270568
 0.580000   0.078749   0.200707
 0.585000   0.079612   0.212713
 0.590000   0.080876   0.209754
 0.595000   0.081709   0.238916
 0.600000   0.083265   0.370116
 0.605000   0.085410   0.506361
 0.610000   0.088329   0.668989
 0.615000   0.092100   0.838261
 0.620000   0.096711   0.936591
 0.625000   0.101466   1.022464
 0.630000   0.106936   1.085463
 0.635000   0.112321   1.022907
 0.640000   0.117165   0.943331
 0.645000   0.121754   0.864406
 0.650000   0.125809   0.720984
 0.655000   0.128964   0.587959
 0.660000   0.131689   0.496654
 0.665000   0.133931   0.437042
 0.670000   0.136059   0.509192
 0.675000   0.139022   0.728943
 0.680000   0.143348   0.990831
 0.685000   0.148931   1.078174
 0.690000   0.154130   1.005064
 0.695000   0.158981   0.894552
 0.700000   0.163076   0.696897
 0.705000   0.165950   0.703817
 0.710000   0.170114   0.467332
 0.715000   0.170624   -0.072011
 0.720000   0.169394   -0.095115
 0.725000   0.169673   0.059674
 0.730000   0.169991   0.021365
 0.735000   0.169886   0.075365
 0.740000   0.170744   -0.120059
 0.745000   0.168686   -0.464803
 0.750000   0.166096   -0.440729
 0.755000   0.164278   -0.306679
 0.760000   0.163029   -0.330360
 0.765000   0.160975   -0.576512
 0.770000   0.157264   -0.867648
 0.775000   0.152298   -0.865109
 0.780000   0.148613   -0.922943
 0.785000   0.143069   -1.105847
 0.790000   0.137555   -1.221412
 0.795000   0.130855   -1.423687
 0.800000   0.123318   -1.361020
 0.805000   0.117244   -0.804750
 0.810000   0.115270   -0.500315
 0.815000   0.112241   -0.525448
 0.820000   0.110016   -0.399388
 0.825000   0.108247   -0.324724
 0.830000   0.106769   -0.185888
 0.835000   0.106389   0.033007
 0.840000   0.107099   0.251560
 0.845000   0.108904   0.577975
 0.850000   0.112878   1.102104
 0.855000   0.119925   1.722766
 0.860000   0.130106   2.539576
 0.865000   0.145321   3.509085
 0.870000   0.165197   4.649578
 0.875000   0.191817   5.959620
 0.880000   0.224793   7.209308
 0.885000   0.263910   8.338611
 0.890000   0.308179   9.976397
 0.895000   0.363674   10.466328
 0.900000   0.412843   10.673969
 0.905000   0.470413   11.618721
 0.910000   0.529030   11.644908
 0.915000   0.586863   11.122782
 0.920000   0.640258   13.147343
 0.925000   0.718336   10.868218
 0.930000   0.748940   7.824639
 0.935000   0.796582   10.347291
 0.940000   0.852413   12.505965
 0.945000   0.921642   15.832337
 0.950000   1.010736   27.552936
 0.955000   1.197171   26.966630
 0.960000   1.280402   11.800824
 0.965000   1.315180   -8.638141
 0.970000   1.194021   -51.448584
 0.975000   0.800694   -113.570301
 0.980000   0.058318   -175.124306
 0.985000   -0.950549   -208.219628
 0.990000   -2.023878   -172.300345
 0.995000   -2.673553   -64.847546
 1.000000   -2.672354   65.327090
201 psinorm nz1(10^20/m^3) dnz1/dpsiN
 0.000000   0.016166   0.000001
 0.005000   0.016165   -0.000251
 0.010000   0.016163   -0.000503
 0.015000   0.016160   -0.000757
 0.020000   0.016156   -0.001012
 0.025000   0.016150   -0.001268
 0.030000   0.016143   -0.001524
 0.035000   0.016135   -0.001778
 0.040000   0.016125   -0.002031
 0.045000   0.016115   -0.002281
 0.050000   0.016103   -0.002528
 0.055000   0.016089   -0.002769
 0.060000   0.016075   -0.003004
 0.065000   0.016059   -0.003231
 0.070000   0.016043   -0.003450
 0.075000   0.016025   -0.003658
 0.080000   0.016006   -0.003857
 0.085000   0.015986   -0.004044
 0.090000   0.015966   -0.004219
 0.095000   0.015944   -0.004382
 0.100000   0.015922   -0.004531
 0.105000   0.015899   -0.004668
 0.110000   0.015875   -0.004794
 0.115000   0.015851   -0.004909
 0.120000   0.015826   -0.005011
 0.125000   0.015801   -0.005102
 0.130000   0.015775   -0.005179
 0.135000   0.015749   -0.005245
 0.140000   0.015723   -0.005300
 0.145000   0.015696   -0.005345
 0.150000   0.015669   -0.005378
 0.155000   0.015642   -0.005401
 0.160000   0.015615   -0.005413
 0.165000   0.015588   -0.005414
 0.170000   0.015561   -0.005404
 0.175000   0.015534   -0.005383
 0.180000   0.015507   -0.005351
 0.185000   0.015480   -0.005308
 0.190000   0.015454   -0.005254
 0.195000   0.015428   -0.005188
 0.200000   0.015402   -0.005110
 0.205000   0.015377   -0.005020
 0.210000   0.015352   -0.004918
 0.215000   0.015328   -0.004806
 0.220000   0.015304   -0.004682
 0.225000   0.015281   -0.004550
 0.230000   0.015258   -0.004412
 0.235000   0.015237   -0.004267
 0.240000   0.015216   -0.004117
 0.245000   0.015195   -0.003960
 0.250000   0.015176   -0.003797
 0.255000   0.015158   -0.003629
 0.260000   0.015140   -0.003454
 0.265000   0.015123   -0.003271
 0.270000   0.015107   -0.003080
 0.275000   0.015092   -0.002883
 0.280000   0.015078   -0.002680
 0.285000   0.015065   -0.002471
 0.290000   0.015054   -0.002255
 0.295000   0.015043   -0.002032
 0.300000   0.015033   -0.001805
 0.305000   0.015025   -0.001575
 0.310000   0.015017   -0.001343
 0.315000   0.015011   -0.001110
 0.320000   0.015006   -0.000878
 0.325000   0.015003   -0.000649
 0.330000   0.015000   -0.000425
 0.335000   0.014998   -0.000206
 0.340000   0.014998   0.000007
 0.345000   0.014998   0.000213
 0.350000   0.015000   0.000414
 0.355000   0.015003   0.000609
 0.360000   0.015006   0.000799
 0.365000   0.015011   0.000982
 0.370000   0.015016   0.001160
 0.375000   0.015022   0.001331
 0.380000   0.015029   0.001493
 0.385000   0.015037   0.001646
 0.390000   0.015046   0.001788
 0.395000   0.015055   0.001918
 0.400000   0.015065   0.002037
 0.405000   0.015075   0.002141
 0.410000   0.015086   0.002232
 0.415000   0.015098   0.002308
 0.420000   0.015109   0.002368
 0.425000   0.015121   0.002414
 0.430000   0.015133   0.002443
 0.435000   0.015146   0.002457
 0.440000   0.015158   0.002455
 0.445000   0.015170   0.002441
 0.450000   0.015182   0.002414
 0.455000   0.015194   0.002375
 0.460000   0.015206   0.002324
 0.465000   0.015218   0.002262
 0.470000   0.015229   0.002187
 0.475000   0.015240   0.002101
 0.480000   0.015250   0.002000
 0.485000   0.015260   0.001885
 0.490000   0.015269   0.001755
 0.495000   0.015277   0.001610
 0.500000   0.015285   0.001449
 0.505000   0.015292   0.001275
 0.510000   0.015298   0.001086
 0.515000   0.015302   0.000883
 0.520000   0.015306   0.000668
 0.525000   0.015309   0.000440
 0.530000   0.015311   0.000202
 0.535000   0.015311   -0.000048
 0.540000   0.015310   -0.000308
 0.545000   0.015308   -0.000579
 0.550000   0.015304   -0.000861
 0.555000   0.015299   -0.001154
 0.560000   0.015293   -0.001458
 0.565000   0.015285   -0.001775
 0.570000   0.015275   -0.002102
 0.575000   0.015264   -0.002441
 0.580000   0.015251   -0.002789
 0.585000   0.015236   -0.003146
 0.590000   0.015219   -0.003511
 0.595000   0.015201   -0.003879
 0.600000   0.015181   -0.004249
 0.605000   0.015158   -0.004620
 0.610000   0.015134   -0.004992
 0.615000   0.015108   -0.005366
 0.620000   0.015081   -0.005748
 0.625000   0.015051   -0.006142
 0.630000   0.015019   -0.006547
 0.635000   0.014985   -0.006964
 0.640000   0.014950   -0.007392
 0.645000   0.014912   -0.007830
 0.650000   0.014871   -0.008283
 0.655000   0.014829   -0.008742
 0.660000   0.014784   -0.009194
 0.665000   0.014737   -0.009640
 0.670000   0.014687   -0.010075
 0.675000   0.014636   -0.010497
 0.680000   0.014583   -0.010918
 0.685000   0.014527   -0.011368
 0.690000   0.014469   -0.011877
 0.695000   0.014408   -0.012456
 0.700000   0.014344   -0.013108
 0.705000   0.014277   -0.013827
 0.710000   0.014206   -0.014642
 0.715000   0.014131   -0.015524
 0.720000   0.014051   -0.016389
 0.725000   0.013967   -0.017229
 0.730000   0.013878   -0.018044
 0.735000   0.013786   -0.018810
 0.740000   0.013690   -0.019522
 0.745000   0.013591   -0.020125
 0.750000   0.013489   -0.020542
 0.755000   0.013386   -0.020768
 0.760000   0.013281   -0.020807
 0.765000   0.013178   -0.020651
 0.770000   0.013075   -0.020279
 0.775000   0.012975   -0.019695
 0.780000   0.012878   -0.018997
 0.785000   0.012785   -0.018255
 0.790000   0.012695   -0.017471
 0.795000   0.012610   -0.016676
 0.800000   0.012529   -0.015877
 0.805000   0.012451   -0.015100
 0.810000   0.012378   -0.014425
 0.815000   0.012307   -0.013869
 0.820000   0.012239   -0.013386
 0.825000   0.012173   -0.012959
 0.830000   0.012109   -0.012560
 0.835000   0.012048   -0.012157
 0.840000   0.011988   -0.011746
 0.845000   0.011930   -0.011337
 0.850000   0.011874   -0.010930
 0.855000   0.011821   -0.010530
 0.860000   0.011769   -0.010140
 0.865000   0.011719   -0.009760
 0.870000   0.011672   -0.009419
 0.875000   0.011625   -0.009153
 0.880000   0.011580   -0.008972
 0.885000   0.011535   -0.008881
 0.890000   0.011491   -0.008872
 0.895000   0.011447   -0.009000
 0.900000   0.011401   -0.009258
 0.905000   0.011354   -0.009646
 0.910000   0.011305   -0.010237
 0.915000   0.011252   -0.011062
 0.920000   0.011194   -0.012188
 0.925000   0.011130   -0.014018
 0.930000   0.011054   -0.016801
 0.935000   0.010962   -0.020880
 0.940000   0.010845   -0.027300
 0.945000   0.010689   -0.037524
 0.950000   0.010470   -0.053566
 0.955000   0.010153   -0.078673
 0.960000   0.009683   -0.113875
 0.965000   0.009015   -0.156294
 0.970000   0.008120   -0.199572
 0.975000   0.007019   -0.232756
 0.980000   0.005793   -0.244667
 0.985000   0.004572   -0.230616
 0.990000   0.003487   -0.195070
 0.995000   0.002621   -0.149773
 1.000000   0.001989   -0.103293
201 psinorm vtor1(km/s) dvtor1/dpsiN
 0.000000   104.103837   527.042936
 0.005000   106.147462   290.407070
 0.010000   107.007907   151.342291
 0.015000   107.660885   119.126125
 0.020000   108.199169   100.196308
 0.025000   108.662848   87.736052
 0.030000   109.076529   78.564870
 0.035000   109.448496   70.529586
 0.040000   109.781825   63.515656
 0.045000   110.083653   57.519163
 0.050000   110.357017   51.934314
 0.055000   110.602996   46.508716
 0.060000   110.822104   41.398405
 0.065000   111.016980   36.636183
 0.070000   111.188466   32.026850
 0.075000   111.337249   27.607848
 0.080000   111.464544   23.439257
 0.085000   111.571641   19.409740
 0.090000   111.658641   15.420105
 0.095000   111.725842   11.560933
 0.100000   111.774251   7.903910
 0.105000   111.804881   4.337346
 0.110000   111.817624   0.812014
 0.115000   111.813001   -2.578465
 0.120000   111.791840   -5.821378
 0.125000   111.754788   -9.099930
 0.130000   111.700840   -12.372011
 0.135000   111.631068   -15.602196
 0.140000   111.544818   -18.980083
 0.145000   111.441267   -22.435301
 0.150000   111.320465   -25.874223
 0.155000   111.182524   -29.336502
 0.160000   111.027100   -32.919726
 0.165000   110.853327   -36.601645
 0.170000   110.661084   -40.272283
 0.175000   110.450604   -43.919413
 0.180000   110.221890   -47.564990
 0.185000   109.974954   -51.162706
 0.190000   109.710263   -54.688852
 0.195000   109.428066   -58.167388
 0.200000   109.128589   -61.529134
 0.205000   108.812775   -64.664888
 0.210000   108.481940   -67.510203
 0.215000   108.137673   -70.018205
 0.220000   107.781758   -72.062385
 0.225000   107.417049   -73.477682
 0.230000   107.046981   -74.439849
 0.235000   106.672650   -75.087422
 0.240000   106.296107   -75.335549
 0.245000   105.919295   -75.223518
 0.250000   105.543872   -74.772619
 0.255000   105.171569   -73.838603
 0.260000   104.805486   -72.720704
 0.265000   104.444361   -71.687711
 0.270000   104.088608   -70.589276
 0.275000   103.738469   -69.471428
 0.280000   103.393894   -68.398399
 0.285000   103.054485   -67.416298
 0.290000   102.719731   -66.770784
 0.295000   102.386777   -66.544835
 0.300000   102.054283   -66.560705
 0.305000   101.721170   -66.738774
 0.310000   101.386895   -66.961708
 0.315000   101.051553   -67.183832
 0.320000   100.715057   -67.360284
 0.325000   100.377950   -67.455061
 0.330000   100.040506   -67.480899
 0.335000   99.703141   -67.427480
 0.340000   99.366231   -67.300874
 0.345000   99.030132   -67.119139
 0.350000   98.695040   -66.829220
 0.355000   98.361840   -66.385631
 0.360000   98.031184   -65.814223
 0.365000   97.703698   -65.118365
 0.370000   97.380000   -64.299159
 0.375000   97.060706   -63.348934
 0.380000   96.746511   -62.246463
 0.385000   96.438242   -61.005144
 0.390000   96.136459   -59.651081
 0.395000   95.841731   -58.182851
 0.400000   95.554631   -56.606993
 0.405000   95.275661   -54.915883
 0.410000   95.005472   -53.193736
 0.415000   94.743723   -51.627226
 0.420000   94.489200   -50.341879
 0.425000   94.240305   -49.383307
 0.430000   93.995367   -48.745220
 0.435000   93.752852   -48.504642
 0.440000   93.510320   -48.612690
 0.445000   93.266726   -48.767104
 0.450000   93.022649   -48.849164
 0.455000   92.778234   -48.874839
 0.460000   92.533901   -48.781213
 0.465000   92.290422   -48.613308
 0.470000   92.047768   -48.303304
 0.475000   91.807389   -47.556100
 0.480000   91.572207   -46.354743
 0.485000   91.343841   -44.837390
 0.490000   91.123833   -43.013156
 0.495000   90.913710   -40.909654
 0.500000   90.714736   -38.521939
 0.505000   90.528490   -35.860164
 0.510000   90.356135   -33.095404
 0.515000   90.197536   -30.435457
 0.520000   90.051780   -28.002198
 0.525000   89.917514   -25.884741
 0.530000   89.792933   -24.173120
 0.535000   89.675783   -22.875869
 0.540000   89.564174   -21.957089
 0.545000   89.456212   -21.427880
 0.550000   89.349895   -21.310130
 0.555000   89.243111   -21.656334
 0.560000   89.133332   -22.594026
 0.565000   89.017171   -24.082504
 0.570000   88.892507   -26.113558
 0.575000   88.756035   -28.836266
 0.580000   88.604144   -32.325140
 0.585000   88.432784   -36.672494
 0.590000   88.237419   -42.041658
 0.595000   88.012367   -48.308609
 0.600000   87.754333   -55.345091
 0.605000   87.458916   -63.228432
 0.610000   87.122049   -71.876012
 0.615000   86.740156   -81.158683
 0.620000   86.310462   -90.794995
 0.625000   85.832206   -100.540076
 0.630000   85.305061   -110.253172
 0.635000   84.729674   -119.736022
 0.640000   84.107701   -128.787145
 0.645000   83.441803   -137.220152
 0.650000   82.735499   -144.483371
 0.655000   81.996969   -150.767018
 0.660000   81.227829   -156.650305
 0.665000   80.430466   -162.115469
 0.670000   79.606674   -167.359807
 0.675000   78.756868   -172.676319
 0.680000   77.879911   -178.363337
 0.685000   76.973235   -184.918905
 0.690000   76.030722   -192.260466
 0.695000   75.050630   -199.655290
 0.700000   74.034169   -206.634608
 0.705000   72.984284   -212.918146
 0.710000   71.904988   -218.533292
 0.715000   70.798951   -223.579358
 0.720000   69.669194   -227.935981
 0.725000   68.519591   -231.521372
 0.730000   67.353981   -234.292609
 0.735000   66.176665   -236.161664
 0.740000   64.992364   -237.152199
 0.745000   63.805143   -237.190596
 0.750000   62.620458   -236.215039
 0.755000   61.442993   -234.584636
 0.760000   60.274612   -232.680299
 0.765000   59.116190   -230.597048
 0.770000   57.968641   -228.540491
 0.775000   56.830785   -226.103177
 0.780000   55.707609   -221.712126
 0.785000   54.613664   -214.795909
 0.790000   53.559650   -205.774424
 0.795000   52.555919   -194.796385
 0.800000   51.611686   -182.233145
 0.805000   50.733588   -168.446304
 0.810000   49.927223   -153.788371
 0.815000   49.195704   -139.135995
 0.820000   48.535863   -125.437352
 0.825000   47.941331   -113.285612
 0.830000   47.403007   -103.213548
 0.835000   46.909195   -95.727505
 0.840000   46.445732   -91.110393
 0.845000   45.998091   -89.663111
 0.850000   45.549101   -91.844142
 0.855000   45.079650   -98.025702
 0.860000   44.568844   -108.621250
 0.865000   43.993437   -124.398426
 0.870000   43.324860   -145.627590
 0.875000   42.537162   -172.272889
 0.880000   41.602131   -204.531886
 0.885000   40.491843   -242.166001
 0.890000   39.180471   -284.535121
 0.895000   37.646491   -331.629935
 0.900000   35.864172   -380.494812
 0.905000   33.841543   -427.380054
 0.910000   31.590371   -470.330055
 0.915000   29.138243   -506.082806
 0.920000   26.529543   -531.351452
 0.925000   23.824728   -543.855983
 0.930000   21.090983   -539.976763
 0.935000   18.424961   -517.636724
 0.940000   15.914616   -478.778879
 0.945000   13.637172   -426.453019
 0.950000   11.650086   -365.277026
 0.955000   9.984402   -300.012746
 0.960000   8.649958   -236.739980
 0.965000   7.617002   -181.034377
 0.970000   6.839615   -135.258667
 0.975000   6.264415   -100.274469
 0.980000   5.836870   -75.709325
 0.985000   5.507322   -59.998571
 0.990000   5.236884   -51.448697
 0.995000   4.992835   -48.315876
 1.000000   4.753725   -47.327919
201 psinorm vpol1(km/s) dvpol1/dpsiN
 0.000000   0.000061   5.634473
 0.005000   0.030538   6.556543
 0.010000   0.065626   7.459082
 0.015000   0.105129   8.301172
 0.020000   0.148638   9.049121
 0.025000   0.195620   9.675977
 0.030000   0.245397   10.152344
 0.035000   0.297144   10.528906
 0.040000   0.350687   10.869043
 0.045000   0.405834   11.189453
 0.050000   0.462581   11.532715
 0.055000   0.521161   11.943359
 0.060000   0.582015   12.454102
 0.065000   0.645702   13.014746
 0.070000   0.712162   13.551367
 0.075000   0.781216   14.033496
 0.080000   0.852497   14.427832
 0.085000   0.925494   14.691797
 0.090000   0.999415   14.772461
 0.095000   1.073219   14.685156
 0.100000   1.146267   14.473047
 0.105000   1.217949   14.154688
 0.110000   1.287813   13.756641
 0.115000   1.355516   13.291699
 0.120000   1.420730   12.835742
 0.125000   1.483873   12.471484
 0.130000   1.545445   12.177246
 0.135000   1.605646   11.909961
 0.140000   1.664545   11.640723
 0.145000   1.722053   11.328613
 0.150000   1.777831   10.954395
 0.155000   1.831597   10.533398
 0.160000   1.883165   10.082129
 0.165000   1.932418   9.608887
 0.170000   1.979254   9.120898
 0.175000   2.023627   8.610449
 0.180000   2.065358   8.073047
 0.185000   2.104357   7.516016
 0.190000   2.140519   6.939258
 0.195000   2.173750   6.350684
 0.200000   2.204025   5.761035
 0.205000   2.231360   5.181055
 0.210000   2.255836   4.630273
 0.215000   2.277663   4.105957
 0.220000   2.296896   3.578320
 0.225000   2.313446   3.026465
 0.230000   2.327160   2.434570
 0.235000   2.337792   1.788281
 0.240000   2.345043   1.080566
 0.245000   2.348598   0.320410
 0.250000   2.348247   -0.479492
 0.255000   2.343803   -1.305078
 0.260000   2.335196   -2.135840
 0.265000   2.322444   -2.949707
 0.270000   2.305699   -3.738574
 0.275000   2.285059   -4.507031
 0.280000   2.260629   -5.263281
 0.285000   2.232426   -6.021875
 0.290000   2.200410   -6.794336
 0.295000   2.164482   -7.597949
 0.300000   2.124431   -8.445996
 0.305000   2.080022   -9.342187
 0.310000   2.031009   -10.293115
 0.315000   1.977091   -11.303906
 0.320000   1.917970   -12.384180
 0.325000   1.853250   -13.490234
 0.330000   1.783067   -14.534180
 0.335000   1.707908   -15.473828
 0.340000   1.628329   -16.284277
 0.345000   1.545065   -16.936523
 0.350000   1.458964   -17.362061
 0.355000   1.371444   -17.592090
 0.360000   1.283043   -17.747705
 0.365000   1.193967   -17.862207
 0.370000   1.104421   -17.957471
 0.375000   1.014393   -18.074951
 0.380000   0.923671   -18.255957
 0.385000   0.831833   -18.592432
 0.390000   0.737747   -19.091699
 0.395000   0.640916   -19.663721
 0.400000   0.541110   -20.255957
 0.405000   0.438356   -20.821826
 0.410000   0.332892   -21.410937
 0.415000   0.224247   -22.226367
 0.420000   0.110628   -23.483838
 0.425000   -0.010591   -25.282959
 0.430000   -0.142202   -27.631787
 0.435000   -0.286909   -30.561768
 0.440000   -0.447819   -34.229102
 0.445000   -0.629200   -38.050732
 0.450000   -0.828327   -41.499609
 0.455000   -1.044196   -44.645215
 0.460000   -1.274779   -47.276416
 0.465000   -1.516960   -49.215381
 0.470000   -1.766933   -50.123682
 0.475000   -2.018197   -49.688965
 0.480000   -2.263822   -48.032227
 0.485000   -2.498520   -45.396826
 0.490000   -2.717791   -41.965869
 0.495000   -2.918178   -37.766211
 0.500000   -3.095453   -33.056787
 0.505000   -3.248746   -28.592187
 0.510000   -3.381375   -24.676123
 0.515000   -3.495507   -21.247314
 0.520000   -3.593848   -18.392334
 0.525000   -3.679431   -16.143652
 0.530000   -3.755284   -14.667578
 0.535000   -3.826106   -13.897070
 0.540000   -3.894255   -13.477686
 0.545000   -3.960883   -13.239648
 0.550000   -4.026651   -13.093359
 0.555000   -4.091817   -13.042725
 0.560000   -4.157079   -12.959912
 0.565000   -4.221416   -12.664648
 0.570000   -4.283725   -12.154736
 0.575000   -4.342963   -11.428027
 0.580000   -4.398005   -10.479199
 0.585000   -4.447755   -9.328809
 0.590000   -4.491293   -7.983398
 0.595000   -4.527589   -6.507129
 0.600000   -4.556365   -5.010742
 0.605000   -4.577697   -3.564404
 0.610000   -4.592009   -2.226172
 0.615000   -4.599958   -1.038940
 0.620000   -4.602398   -0.043018
 0.625000   -4.600389   0.757251
 0.630000   -4.594826   1.391113
 0.635000   -4.586478   1.887939
 0.640000   -4.575946   2.277832
 0.645000   -4.563699   2.601025
 0.650000   -4.549936   2.910254
 0.655000   -4.534597   3.219653
 0.660000   -4.517740   3.516235
 0.665000   -4.499434   3.795532
 0.670000   -4.479784   4.052539
 0.675000   -4.458909   4.290747
 0.680000   -4.436877   4.538184
 0.685000   -4.413527   4.845581
 0.690000   -4.388421   5.259790
 0.695000   -4.360929   5.812695
 0.700000   -4.330294   6.566479
 0.705000   -4.295264   7.514746
 0.710000   -4.255146   8.492310
 0.715000   -4.210341   9.387305
 0.720000   -4.161273   10.146973
 0.725000   -4.108872   10.674316
 0.730000   -4.054530   10.901611
 0.735000   -3.999855   10.693335
 0.740000   -3.947597   9.980103
 0.745000   -3.900054   8.865869
 0.750000   -3.858938   7.467810
 0.755000   -3.825376   5.906378
 0.760000   -3.799874   4.290454
 0.765000   -3.782472   2.781912
 0.770000   -3.772055   1.511092
 0.775000   -3.767361   0.475751
 0.780000   -3.767298   -0.376590
 0.785000   -3.771127   -1.132112
 0.790000   -3.778619   -1.925862
 0.795000   -3.790385   -2.895209
 0.800000   -3.807571   -4.117523
 0.805000   -3.831561   -5.618907
 0.810000   -3.863760   -7.373343
 0.815000   -3.905294   -9.300778
 0.820000   -3.956768   -11.312329
 0.825000   -4.018417   -13.175592
 0.830000   -4.088524   -14.723621
 0.835000   -4.165654   -15.937817
 0.840000   -4.247902   -16.741650
 0.845000   -4.333070   -17.088562
 0.850000   -4.418788   -16.941528
 0.855000   -4.502485   -16.363452
 0.860000   -4.582422   -15.520728
 0.865000   -4.657693   -14.566870
 0.870000   -4.728091   -13.628687
 0.875000   -4.793979   -12.802100
 0.880000   -4.856112   -12.178760
 0.885000   -4.915767   -11.813379
 0.890000   -4.974246   -11.681104
 0.895000   -5.032578   -11.736328
 0.900000   -5.091609   -11.936133
 0.905000   -5.151939   -12.194336
 0.910000   -5.213552   -12.426074
 0.915000   -5.276200   -12.645850
 0.920000   -5.340011   -12.867285
 0.925000   -5.404873   -13.076025
 0.930000   -5.470771   -13.318994
 0.935000   -5.538063   -13.859766
 0.940000   -5.609369   -15.042529
 0.945000   -5.688488   -16.590869
 0.950000   -5.775277   -17.589209
 0.955000   -5.864380   -16.394336
 0.960000   -5.939221   -9.708936
 0.965000   -5.961470   9.089648
 0.970000   -5.848324   50.623633
 0.975000   -5.455233   125.560742
 0.980000   -4.592717   237.088477
 0.985000   -3.084349   369.546289
 0.990000   -0.897254   479.048535
 0.995000   1.706137   502.606641
 1.000000   4.128813   466.463672
3 N Z A of ION SPECIES
 6.000000   6.000000   12.010700
 1.000000   1.000000   2.000000
 1.000000   1.000000   2.000000
