201 psinorm ne(10^20/m^3) dne/dpsiN
 0.000000   0.727324   -0.303181
 0.005000   0.725809   -0.302677
 0.010000   0.724297   -0.302172
 0.015000   0.722787   -0.301669
 0.020000   0.721280   -0.301166
 0.025000   0.719776   -0.300663
 0.030000   0.718274   -0.300161
 0.035000   0.716774   -0.299660
 0.040000   0.715277   -0.299159
 0.045000   0.713783   -0.298658
 0.050000   0.712291   -0.298158
 0.055000   0.710801   -0.297659
 0.060000   0.709314   -0.297160
 0.065000   0.707829   -0.296661
 0.070000   0.706347   -0.296164
 0.075000   0.704868   -0.295666
 0.080000   0.703391   -0.295169
 0.085000   0.701916   -0.294673
 0.090000   0.700444   -0.294177
 0.095000   0.698974   -0.293682
 0.100000   0.697507   -0.293187
 0.105000   0.696042   -0.292693
 0.110000   0.694580   -0.292200
 0.115000   0.693120   -0.291706
 0.120000   0.691663   -0.291214
 0.125000   0.690208   -0.290722
 0.130000   0.688756   -0.290230
 0.135000   0.687306   -0.289739
 0.140000   0.685859   -0.289249
 0.145000   0.684413   -0.288759
 0.150000   0.682971   -0.288269
 0.155000   0.681531   -0.287781
 0.160000   0.680093   -0.287292
 0.165000   0.678658   -0.286804
 0.170000   0.677225   -0.286317
 0.175000   0.675795   -0.285830
 0.180000   0.674367   -0.285344
 0.185000   0.672941   -0.284858
 0.190000   0.671518   -0.284373
 0.195000   0.670098   -0.283889
 0.200000   0.668679   -0.283404
 0.205000   0.667263   -0.282921
 0.210000   0.665850   -0.282438
 0.215000   0.664439   -0.281955
 0.220000   0.663031   -0.281473
 0.225000   0.661624   -0.280992
 0.230000   0.660221   -0.280511
 0.235000   0.658819   -0.280030
 0.240000   0.657420   -0.279551
 0.245000   0.656024   -0.279071
 0.250000   0.654630   -0.278592
 0.255000   0.653238   -0.278114
 0.260000   0.651848   -0.277636
 0.265000   0.650461   -0.277159
 0.270000   0.649077   -0.276683
 0.275000   0.647695   -0.276206
 0.280000   0.646315   -0.275731
 0.285000   0.644937   -0.275256
 0.290000   0.643562   -0.274781
 0.295000   0.642190   -0.274307
 0.300000   0.640819   -0.273834
 0.305000   0.639451   -0.273361
 0.310000   0.638086   -0.272888
 0.315000   0.636722   -0.272416
 0.320000   0.635361   -0.271945
 0.325000   0.634003   -0.271474
 0.330000   0.632647   -0.271004
 0.335000   0.631293   -0.270534
 0.340000   0.629941   -0.270065
 0.345000   0.628592   -0.269596
 0.350000   0.627245   -0.269128
 0.355000   0.625901   -0.268661
 0.360000   0.624559   -0.268194
 0.365000   0.623219   -0.267727
 0.370000   0.621881   -0.267261
 0.375000   0.620546   -0.266796
 0.380000   0.619214   -0.266331
 0.385000   0.617883   -0.265866
 0.390000   0.616555   -0.265402
 0.395000   0.615229   -0.264939
 0.400000   0.613905   -0.264476
 0.405000   0.612584   -0.264014
 0.410000   0.611265   -0.263552
 0.415000   0.609949   -0.263091
 0.420000   0.608634   -0.262630
 0.425000   0.607322   -0.262170
 0.430000   0.606013   -0.261711
 0.435000   0.604705   -0.261252
 0.440000   0.603400   -0.260793
 0.445000   0.602097   -0.260335
 0.450000   0.600797   -0.259878
 0.455000   0.599499   -0.259421
 0.460000   0.598203   -0.258964
 0.465000   0.596909   -0.258508
 0.470000   0.595618   -0.258053
 0.475000   0.594328   -0.257598
 0.480000   0.593042   -0.257144
 0.485000   0.591757   -0.256690
 0.490000   0.590475   -0.256237
 0.495000   0.589195   -0.255785
 0.500000   0.587917   -0.255332
 0.505000   0.586641   -0.254881
 0.510000   0.585368   -0.254430
 0.515000   0.584097   -0.253979
 0.520000   0.582828   -0.253529
 0.525000   0.581562   -0.253080
 0.530000   0.580297   -0.252631
 0.535000   0.579035   -0.252183
 0.540000   0.577776   -0.251735
 0.545000   0.576518   -0.251288
 0.550000   0.575263   -0.250841
 0.555000   0.574010   -0.250395
 0.560000   0.572759   -0.249949
 0.565000   0.571510   -0.249504
 0.570000   0.570264   -0.249059
 0.575000   0.569020   -0.248615
 0.580000   0.567778   -0.248172
 0.585000   0.566538   -0.247729
 0.590000   0.565300   -0.247286
 0.595000   0.564065   -0.246844
 0.600000   0.562832   -0.246403
 0.605000   0.561601   -0.245962
 0.610000   0.560372   -0.245521
 0.615000   0.559146   -0.245082
 0.620000   0.557921   -0.244642
 0.625000   0.556699   -0.244203
 0.630000   0.555479   -0.243765
 0.635000   0.554262   -0.243327
 0.640000   0.553046   -0.242890
 0.645000   0.551833   -0.242453
 0.650000   0.550622   -0.242016
 0.655000   0.549413   -0.241580
 0.660000   0.548206   -0.241144
 0.665000   0.547001   -0.240708
 0.670000   0.545799   -0.240272
 0.675000   0.544598   -0.239836
 0.680000   0.543400   -0.239400
 0.685000   0.542204   -0.238964
 0.690000   0.541011   -0.238527
 0.695000   0.539819   -0.238089
 0.700000   0.538630   -0.237649
 0.705000   0.537443   -0.237207
 0.710000   0.536258   -0.236761
 0.715000   0.535075   -0.236312
 0.720000   0.533895   -0.235856
 0.725000   0.532717   -0.235393
 0.730000   0.531541   -0.234919
 0.735000   0.530367   -0.234432
 0.740000   0.529196   -0.233927
 0.745000   0.528028   -0.233399
 0.750000   0.526862   -0.232840
 0.755000   0.525700   -0.232242
 0.760000   0.524540   -0.231592
 0.765000   0.523384   -0.230874
 0.770000   0.522231   -0.230070
 0.775000   0.521083   -0.229153
 0.780000   0.519940   -0.228089
 0.785000   0.518802   -0.226838
 0.790000   0.517671   -0.225345
 0.795000   0.516549   -0.223541
 0.800000   0.515436   -0.221338
 0.805000   0.514335   -0.218625
 0.810000   0.513250   -0.215263
 0.815000   0.512183   -0.211075
 0.820000   0.511139   -0.205841
 0.825000   0.510124   -0.199287
 0.830000   0.509146   -0.191077
 0.835000   0.508214   -0.180798
 0.840000   0.507338   -0.167950
 0.845000   0.506534   -0.151940
 0.850000   0.505819   -0.132070
 0.855000   0.505213   -0.107544
 0.860000   0.504743   -0.077485
 0.865000   0.504438   -0.040981
 0.870000   0.504333   0.002831
 0.875000   0.504467   0.054599
 0.880000   0.504879   0.114482
 0.885000   0.505612   0.181704
 0.890000   0.506696   0.253834
 0.895000   0.508150   0.325683
 0.900000   0.509953   0.387678
 0.905000   0.512027   0.423562
 0.910000   0.514189   0.407458
 0.915000   0.516101   0.300655
 0.920000   0.517195   0.049429
 0.925000   0.516596   -0.413313
 0.930000   0.513062   -1.157756
 0.935000   0.505018   -2.232846
 0.940000   0.490734   -3.626913
 0.945000   0.468749   -5.225872
 0.950000   0.438475   -6.800188
 0.955000   0.400747   -8.054538
 0.960000   0.357930   -8.737702
 0.965000   0.313370   -8.751781
 0.970000   0.270412   -8.183853
 0.975000   0.231531   -7.242508
 0.980000   0.197987   -6.155295
 0.985000   0.169978   -5.094732
 0.990000   0.147040   -4.156738
 0.995000   0.128411   -3.374929
 1.000000   0.113290   -2.673394
201 psinorm te(KeV) dte/dpsiN
 0.000000   3.948871   -2.213268
 0.005000   3.937735   -2.241077
 0.010000   3.926460   -2.268748
 0.015000   3.915047   -2.296142
 0.020000   3.903498   -2.323257
 0.025000   3.891815   -2.350091
 0.030000   3.879997   -2.376639
 0.035000   3.868048   -2.402901
 0.040000   3.855968   -2.428872
 0.045000   3.843760   -2.454552
 0.050000   3.831423   -2.479937
 0.055000   3.818960   -2.505025
 0.060000   3.806373   -2.529813
 0.065000   3.793662   -2.554300
 0.070000   3.780830   -2.578484
 0.075000   3.767877   -2.602362
 0.080000   3.754806   -2.625932
 0.085000   3.741618   -2.649191
 0.090000   3.728314   -2.672140
 0.095000   3.714896   -2.694774
 0.100000   3.701366   -2.717093
 0.105000   3.687726   -2.739095
 0.110000   3.673975   -2.760778
 0.115000   3.660118   -2.782141
 0.120000   3.646154   -2.803181
 0.125000   3.632086   -2.823898
 0.130000   3.617915   -2.844289
 0.135000   3.603643   -2.864354
 0.140000   3.589272   -2.884092
 0.145000   3.574802   -2.903500
 0.150000   3.560237   -2.922578
 0.155000   3.545576   -2.941325
 0.160000   3.530823   -2.959740
 0.165000   3.515979   -2.977821
 0.170000   3.501045   -2.995567
 0.175000   3.486023   -3.012979
 0.180000   3.470915   -3.030054
 0.185000   3.455723   -3.046792
 0.190000   3.440447   -3.063193
 0.195000   3.425091   -3.079256
 0.200000   3.409655   -3.094980
 0.205000   3.394141   -3.110365
 0.210000   3.378551   -3.125409
 0.215000   3.362887   -3.140114
 0.220000   3.347150   -3.154478
 0.225000   3.331342   -3.168502
 0.230000   3.315465   -3.182185
 0.235000   3.299520   -3.195526
 0.240000   3.283510   -3.208526
 0.245000   3.267435   -3.221185
 0.250000   3.251298   -3.233503
 0.255000   3.235100   -3.245480
 0.260000   3.218843   -3.257116
 0.265000   3.202529   -3.268411
 0.270000   3.186159   -3.279365
 0.275000   3.169735   -3.289980
 0.280000   3.153259   -3.300254
 0.285000   3.136733   -3.310189
 0.290000   3.120157   -3.319785
 0.295000   3.103535   -3.329043
 0.300000   3.086867   -3.337963
 0.305000   3.070155   -3.346546
 0.310000   3.053401   -3.354793
 0.315000   3.036607   -3.362704
 0.320000   3.019774   -3.370280
 0.325000   3.002904   -3.377522
 0.330000   2.985999   -3.384431
 0.335000   2.969060   -3.391009
 0.340000   2.952089   -3.397255
 0.345000   2.935088   -3.403171
 0.350000   2.918057   -3.408758
 0.355000   2.901000   -3.414018
 0.360000   2.883917   -3.418952
 0.365000   2.866810   -3.423560
 0.370000   2.849682   -3.427845
 0.375000   2.832532   -3.431807
 0.380000   2.815363   -3.435448
 0.385000   2.798178   -3.438770
 0.390000   2.780976   -3.441774
 0.395000   2.763760   -3.444461
 0.400000   2.746531   -3.446834
 0.405000   2.729291   -3.448893
 0.410000   2.712042   -3.450641
 0.415000   2.694785   -3.452080
 0.420000   2.677521   -3.453210
 0.425000   2.660253   -3.454034
 0.430000   2.642981   -3.454554
 0.435000   2.625707   -3.454772
 0.440000   2.608433   -3.454690
 0.445000   2.591160   -3.454309
 0.450000   2.573890   -3.453631
 0.455000   2.556624   -3.452660
 0.460000   2.539364   -3.451396
 0.465000   2.522110   -3.449842
 0.470000   2.504865   -3.448000
 0.475000   2.487630   -3.445873
 0.480000   2.470407   -3.443462
 0.485000   2.453196   -3.440770
 0.490000   2.435999   -3.437799
 0.495000   2.418818   -3.434552
 0.500000   2.401653   -3.431030
 0.505000   2.384507   -3.427237
 0.510000   2.367381   -3.423174
 0.515000   2.350276   -3.418845
 0.520000   2.333192   -3.414251
 0.525000   2.316133   -3.409395
 0.530000   2.299099   -3.404281
 0.535000   2.282090   -3.398909
 0.540000   2.265109   -3.393283
 0.545000   2.248157   -3.387406
 0.550000   2.231235   -3.381280
 0.555000   2.214345   -3.374907
 0.560000   2.197486   -3.368292
 0.565000   2.180662   -3.361435
 0.570000   2.163872   -3.354340
 0.575000   2.147118   -3.347010
 0.580000   2.130402   -3.339448
 0.585000   2.113724   -3.331656
 0.590000   2.097085   -3.323636
 0.595000   2.080487   -3.315393
 0.600000   2.063931   -3.306929
 0.605000   2.047418   -3.298246
 0.610000   2.030949   -3.289347
 0.615000   2.014525   -3.280236
 0.620000   1.998147   -3.270915
 0.625000   1.981816   -3.261387
 0.630000   1.965533   -3.251656
 0.635000   1.949299   -3.241723
 0.640000   1.933115   -3.231592
 0.645000   1.916983   -3.221267
 0.650000   1.900903   -3.210749
 0.655000   1.884876   -3.200042
 0.660000   1.868902   -3.189149
 0.665000   1.852984   -3.178072
 0.670000   1.837122   -3.166816
 0.675000   1.821316   -3.155382
 0.680000   1.805568   -3.143774
 0.685000   1.789878   -3.131996
 0.690000   1.774248   -3.120049
 0.695000   1.758678   -3.107937
 0.700000   1.743169   -3.095664
 0.705000   1.727721   -3.083231
 0.710000   1.712336   -3.070644
 0.715000   1.697015   -3.057904
 0.720000   1.681757   -3.045015
 0.725000   1.666564   -3.031981
 0.730000   1.651437   -3.018806
 0.735000   1.636376   -3.005493
 0.740000   1.621382   -2.992047
 0.745000   1.606456   -2.978473
 0.750000   1.591598   -2.964776
 0.755000   1.576808   -2.950963
 0.760000   1.562088   -2.937042
 0.765000   1.547438   -2.923022
 0.770000   1.532858   -2.908916
 0.775000   1.518349   -2.894737
 0.780000   1.503910   -2.880507
 0.785000   1.489544   -2.866249
 0.790000   1.475248   -2.851997
 0.795000   1.461024   -2.837794
 0.800000   1.446870   -2.823699
 0.805000   1.432787   -2.809787
 0.810000   1.418772   -2.796161
 0.815000   1.404825   -2.782958
 0.820000   1.390943   -2.770361
 0.825000   1.377121   -2.758616
 0.830000   1.363356   -2.748051
 0.835000   1.349641   -2.739106
 0.840000   1.335965   -2.732372
 0.845000   1.322317   -2.728639
 0.850000   1.308679   -2.728967
 0.855000   1.295027   -2.734770
 0.860000   1.281331   -2.747940
 0.865000   1.267548   -2.771003
 0.870000   1.253621   -2.807320
 0.875000   1.239475   -2.861359
 0.880000   1.225008   -2.939032
 0.885000   1.210085   -3.048130
 0.890000   1.194526   -3.198853
 0.895000   1.178096   -3.404437
 0.900000   1.160482   -3.681850
 0.905000   1.141278   -4.052467
 0.910000   1.119957   -4.542548
 0.915000   1.095852   -5.183168
 0.920000   1.068126   -6.008999
 0.925000   1.035762   -7.054970
 0.930000   0.997576   -8.349497
 0.935000   0.952267   -9.902720
 0.940000   0.898549   -11.688831
 0.945000   0.835379   -13.623715
 0.950000   0.762312   -15.544032
 0.955000   0.679938   -17.201012
 0.960000   0.590301   -18.287695
 0.965000   0.497062   -18.512944
 0.970000   0.405172   -17.710270
 0.975000   0.319959   -15.931783
 0.980000   0.245854   -13.460977
 0.985000   0.185349   -10.717381
 0.990000   0.138680   -8.103105
 0.995000   0.104318   -5.883058
 1.000000   0.079850   -3.904221
201 psinorm ni(10^20/m^3) dni/dpsiN
 0.000000   0.412748   -0.381169
 0.005000   0.410966   -0.331844
 0.010000   0.409430   -0.288079
 0.015000   0.408085   -0.253290
 0.020000   0.406897   -0.222895
 0.025000   0.405856   -0.194835
 0.030000   0.404948   -0.169081
 0.035000   0.404165   -0.146044
 0.040000   0.403488   -0.126132
 0.045000   0.402904   -0.108596
 0.050000   0.402402   -0.092933
 0.055000   0.401974   -0.079354
 0.060000   0.401608   -0.067296
 0.065000   0.401301   -0.056648
 0.070000   0.401042   -0.047738
 0.075000   0.400824   -0.039889
 0.080000   0.400643   -0.033264
 0.085000   0.400491   -0.027925
 0.090000   0.400364   -0.023584
 0.095000   0.400255   -0.020227
 0.100000   0.400162   -0.017792
 0.105000   0.400078   -0.016259
 0.110000   0.399999   -0.015508
 0.115000   0.399922   -0.015333
 0.120000   0.399846   -0.015733
 0.125000   0.399765   -0.016749
 0.130000   0.399678   -0.018340
 0.135000   0.399582   -0.020464
 0.140000   0.399473   -0.022893
 0.145000   0.399353   -0.025745
 0.150000   0.399216   -0.029227
 0.155000   0.399061   -0.033148
 0.160000   0.398885   -0.037425
 0.165000   0.398686   -0.042025
 0.170000   0.398464   -0.046912
 0.175000   0.398217   -0.052070
 0.180000   0.397944   -0.057500
 0.185000   0.397642   -0.063113
 0.190000   0.397312   -0.068734
 0.195000   0.396955   -0.074298
 0.200000   0.396569   -0.079887
 0.205000   0.396156   -0.085817
 0.210000   0.395711   -0.091848
 0.215000   0.395237   -0.097692
 0.220000   0.394734   -0.103579
 0.225000   0.394202   -0.109523
 0.230000   0.393639   -0.115631
 0.235000   0.393045   -0.121986
 0.240000   0.392419   -0.128810
 0.245000   0.391757   -0.135822
 0.250000   0.391061   -0.142686
 0.255000   0.390330   -0.149633
 0.260000   0.389565   -0.156693
 0.265000   0.388764   -0.163829
 0.270000   0.387926   -0.171227
 0.275000   0.387051   -0.178589
 0.280000   0.386141   -0.185604
 0.285000   0.385195   -0.192467
 0.290000   0.384216   -0.199130
 0.295000   0.383204   -0.205730
 0.300000   0.382159   -0.212096
 0.305000   0.381083   -0.218024
 0.310000   0.379978   -0.223719
 0.315000   0.378846   -0.229235
 0.320000   0.377686   -0.234723
 0.325000   0.376499   -0.240030
 0.330000   0.375286   -0.245021
 0.335000   0.374048   -0.249847
 0.340000   0.372787   -0.254565
 0.345000   0.371503   -0.259140
 0.350000   0.370196   -0.263399
 0.355000   0.368869   -0.267301
 0.360000   0.367523   -0.270876
 0.365000   0.366160   -0.274131
 0.370000   0.364781   -0.276975
 0.375000   0.363390   -0.279321
 0.380000   0.361988   -0.281215
 0.385000   0.360578   -0.282695
 0.390000   0.359161   -0.283769
 0.395000   0.357740   -0.284431
 0.400000   0.356317   -0.284712
 0.405000   0.354893   -0.284659
 0.410000   0.353470   -0.284321
 0.415000   0.352050   -0.283704
 0.420000   0.350633   -0.282779
 0.425000   0.349222   -0.281531
 0.430000   0.347818   -0.279930
 0.435000   0.346423   -0.277952
 0.440000   0.345039   -0.275520
 0.445000   0.343668   -0.272535
 0.450000   0.342313   -0.268979
 0.455000   0.340978   -0.264868
 0.460000   0.339665   -0.260207
 0.465000   0.338376   -0.255008
 0.470000   0.337114   -0.249304
 0.475000   0.335883   -0.243160
 0.480000   0.334683   -0.236647
 0.485000   0.333516   -0.229825
 0.490000   0.332385   -0.222757
 0.495000   0.331289   -0.215505
 0.500000   0.330230   -0.208120
 0.505000   0.329208   -0.200608
 0.510000   0.328223   -0.192963
 0.515000   0.327278   -0.185192
 0.520000   0.326372   -0.177267
 0.525000   0.325505   -0.169153
 0.530000   0.324680   -0.160802
 0.535000   0.323897   -0.152215
 0.540000   0.323158   -0.143447
 0.545000   0.322463   -0.134545
 0.550000   0.321812   -0.125564
 0.555000   0.321207   -0.116557
 0.560000   0.320647   -0.107581
 0.565000   0.320131   -0.098695
 0.570000   0.319660   -0.089919
 0.575000   0.319232   -0.081254
 0.580000   0.318847   -0.072699
 0.585000   0.318505   -0.064254
 0.590000   0.318205   -0.055920
 0.595000   0.317946   -0.047708
 0.600000   0.317728   -0.039644
 0.605000   0.317549   -0.031744
 0.610000   0.317410   -0.024041
 0.615000   0.317309   -0.016564
 0.620000   0.317245   -0.009297
 0.625000   0.317216   -0.002301
 0.630000   0.317222   0.004337
 0.635000   0.317259   0.010667
 0.640000   0.317328   0.016914
 0.645000   0.317429   0.023517
 0.650000   0.317563   0.031728
 0.655000   0.317746   0.041998
 0.660000   0.317983   0.053591
 0.665000   0.318282   0.066258
 0.670000   0.318646   0.079774
 0.675000   0.319080   0.093762
 0.680000   0.319584   0.108737
 0.685000   0.320167   0.123412
 0.690000   0.320818   0.135831
 0.695000   0.321525   0.146112
 0.700000   0.322279   0.154117
 0.705000   0.323066   0.159443
 0.710000   0.323873   0.161756
 0.715000   0.324684   0.160216
 0.720000   0.325476   0.154620
 0.725000   0.326230   0.145749
 0.730000   0.326933   0.134111
 0.735000   0.327571   0.120208
 0.740000   0.328135   0.103978
 0.745000   0.328611   0.086252
 0.750000   0.328998   0.069162
 0.755000   0.329303   0.053362
 0.760000   0.329531   0.038704
 0.765000   0.329690   0.025480
 0.770000   0.329786   0.013780
 0.775000   0.329828   0.004093
 0.780000   0.329827   -0.003203
 0.785000   0.329795   -0.008854
 0.790000   0.329738   -0.013653
 0.795000   0.329659   -0.017898
 0.800000   0.329559   -0.021684
 0.805000   0.329442   -0.024880
 0.810000   0.329311   -0.027198
 0.815000   0.329170   -0.028361
 0.820000   0.329027   -0.028131
 0.825000   0.328889   -0.026226
 0.830000   0.328765   -0.022324
 0.835000   0.328666   -0.016007
 0.840000   0.328605   -0.006493
 0.845000   0.328601   0.007217
 0.850000   0.328677   0.026028
 0.855000   0.328861   0.050861
 0.860000   0.329185   0.082740
 0.865000   0.329688   0.123168
 0.870000   0.330417   0.173057
 0.875000   0.331419   0.233307
 0.880000   0.332750   0.305100
 0.885000   0.334470   0.388454
 0.890000   0.336635   0.482186
 0.895000   0.339292   0.586347
 0.900000   0.342498   0.693545
 0.905000   0.346227   0.789177
 0.910000   0.350390   0.855088
 0.915000   0.354778   0.861463
 0.920000   0.359005   0.766203
 0.925000   0.362440   0.529818
 0.930000   0.364303   0.087154
 0.935000   0.363312   -0.621121
 0.940000   0.358092   -1.589152
 0.945000   0.347420   -2.742793
 0.950000   0.330664   -3.924237
 0.955000   0.308178   -4.912629
 0.960000   0.281537   -5.553931
 0.965000   0.252638   -5.789210
 0.970000   0.223645   -5.631459
 0.975000   0.196324   -5.189181
 0.980000   0.171753   -4.594842
 0.985000   0.150375   -3.958909
 0.990000   0.132164   -3.352382
 0.995000   0.116852   -2.809608
 1.000000   0.104068   -2.303729
201 psinorm ti(KeV) dti/dpsiN
 0.000000   4.782587   0.002916
 0.005000   4.782120   -0.189696
 0.010000   4.780690   -0.386611
 0.015000   4.778253   -0.591876
 0.020000   4.774771   -0.804870
 0.025000   4.770205   -1.024726
 0.030000   4.764524   -1.250328
 0.035000   4.757701   -1.480352
 0.040000   4.749720   -1.712684
 0.045000   4.740575   -1.946013
 0.050000   4.730260   -2.179602
 0.055000   4.718779   -2.411924
 0.060000   4.706141   -2.641736
 0.065000   4.692361   -2.868024
 0.070000   4.677460   -3.088868
 0.075000   4.661473   -3.304859
 0.080000   4.644412   -3.517274
 0.085000   4.626300   -3.724661
 0.090000   4.607165   -3.926048
 0.095000   4.587039   -4.120944
 0.100000   4.565956   -4.308380
 0.105000   4.543956   -4.489654
 0.110000   4.521059   -4.666218
 0.115000   4.497293   -4.836393
 0.120000   4.472695   -4.998584
 0.125000   4.447308   -5.151743
 0.130000   4.421178   -5.294065
 0.135000   4.394367   -5.425400
 0.140000   4.366924   -5.547421
 0.145000   4.338893   -5.659801
 0.150000   4.310326   -5.761632
 0.155000   4.281276   -5.852942
 0.160000   4.251796   -5.933427
 0.165000   4.221942   -6.006654
 0.170000   4.191730   -6.079289
 0.175000   4.161149   -6.153581
 0.180000   4.130194   -6.229324
 0.185000   4.098856   -6.306622
 0.190000   4.067128   -6.386478
 0.195000   4.034991   -6.469729
 0.200000   4.002431   -6.551293
 0.205000   3.969478   -6.628146
 0.210000   3.936149   -6.701523
 0.215000   3.902463   -6.770292
 0.220000   3.868446   -6.834555
 0.225000   3.834117   -6.894007
 0.230000   3.799506   -6.940774
 0.235000   3.764710   -6.971283
 0.240000   3.729793   -6.988246
 0.245000   3.694827   -6.990610
 0.250000   3.659887   -6.977447
 0.255000   3.625053   -6.946211
 0.260000   3.590425   -6.895988
 0.265000   3.556093   -6.829273
 0.270000   3.522132   -6.748633
 0.275000   3.488607   -6.656897
 0.280000   3.455563   -6.557301
 0.285000   3.423034   -6.451664
 0.290000   3.391047   -6.346395
 0.295000   3.359570   -6.244757
 0.300000   3.328599   -6.144088
 0.305000   3.298129   -6.044951
 0.310000   3.268150   -5.947751
 0.315000   3.238651   -5.855000
 0.320000   3.209600   -5.766015
 0.325000   3.180991   -5.677970
 0.330000   3.152820   -5.590863
 0.335000   3.125082   -5.503930
 0.340000   3.097781   -5.415784
 0.345000   3.070925   -5.325321
 0.350000   3.044527   -5.224110
 0.355000   3.018684   -5.107076
 0.360000   2.993457   -4.978238
 0.365000   2.968901   -4.839239
 0.370000   2.945064   -4.691677
 0.375000   2.921984   -4.534142
 0.380000   2.899723   -4.371472
 0.385000   2.878270   -4.211490
 0.390000   2.857608   -4.054591
 0.395000   2.837724   -3.901045
 0.400000   2.818598   -3.751869
 0.405000   2.800205   -3.605171
 0.410000   2.782546   -3.463486
 0.415000   2.765570   -3.331702
 0.420000   2.749229   -3.208661
 0.425000   2.733484   -3.093395
 0.430000   2.718295   -2.986238
 0.435000   2.703621   -2.887072
 0.440000   2.689424   -2.797337
 0.445000   2.675648   -2.717645
 0.450000   2.662248   -2.645341
 0.455000   2.649194   -2.577891
 0.460000   2.636469   -2.513477
 0.465000   2.624060   -2.450434
 0.470000   2.611964   -2.387949
 0.475000   2.600180   -2.327573
 0.480000   2.588689   -2.271157
 0.485000   2.577469   -2.219191
 0.490000   2.566497   -2.171953
 0.495000   2.555749   -2.129500
 0.500000   2.545202   -2.092041
 0.505000   2.534829   -2.059790
 0.510000   2.524604   -2.032491
 0.515000   2.514504   -2.009883
 0.520000   2.504505   -1.991873
 0.525000   2.494585   -1.978527
 0.530000   2.484720   -1.970154
 0.535000   2.474883   -1.965997
 0.540000   2.465060   -1.965392
 0.545000   2.455230   -1.968595
 0.550000   2.445374   -1.975611
 0.555000   2.435473   -1.986825
 0.560000   2.425506   -2.003918
 0.565000   2.415434   -2.026278
 0.570000   2.405243   -2.052606
 0.575000   2.394908   -2.083391
 0.580000   2.384409   -2.118283
 0.585000   2.373725   -2.156996
 0.590000   2.362839   -2.200801
 0.595000   2.351717   -2.246885
 0.600000   2.340370   -2.292695
 0.605000   2.328790   -2.339544
 0.610000   2.316975   -2.386782
 0.615000   2.304923   -2.433727
 0.620000   2.292637   -2.480106
 0.625000   2.280122   -2.524553
 0.630000   2.267392   -2.566616
 0.635000   2.254455   -2.607162
 0.640000   2.241320   -2.645863
 0.645000   2.227997   -2.682306
 0.650000   2.214497   -2.714897
 0.655000   2.200848   -2.742058
 0.660000   2.187077   -2.763495
 0.665000   2.173213   -2.779400
 0.670000   2.159283   -2.790480
 0.675000   2.145308   -2.797616
 0.680000   2.131306   -2.799795
 0.685000   2.117310   -2.799135
 0.690000   2.103315   -2.798881
 0.695000   2.089321   -2.798286
 0.700000   2.075332   -2.797186
 0.705000   2.061349   -2.796055
 0.710000   2.047372   -2.795116
 0.715000   2.033398   -2.796000
 0.720000   2.019412   -2.800607
 0.725000   2.005392   -2.809608
 0.730000   1.991316   -2.823402
 0.735000   1.977158   -2.841428
 0.740000   1.962901   -2.863549
 0.745000   1.948523   -2.887083
 0.750000   1.934031   -2.907208
 0.755000   1.919451   -2.923379
 0.760000   1.904797   -2.936598
 0.765000   1.890085   -2.946514
 0.770000   1.875332   -2.953482
 0.775000   1.860550   -2.956834
 0.780000   1.845763   -2.955972
 0.785000   1.830990   -2.954294
 0.790000   1.816220   -2.955773
 0.795000   1.801432   -2.962358
 0.800000   1.786597   -2.976326
 0.805000   1.771669   -2.999117
 0.810000   1.756606   -3.025715
 0.815000   1.741412   -3.054013
 0.820000   1.726065   -3.088807
 0.825000   1.710524   -3.134569
 0.830000   1.694720   -3.199568
 0.835000   1.678528   -3.298267
 0.840000   1.661737   -3.423298
 0.845000   1.644295   -3.564123
 0.850000   1.626096   -3.726940
 0.855000   1.607026   -3.913590
 0.860000   1.586960   -4.129538
 0.865000   1.565730   -4.393418
 0.870000   1.543026   -4.690972
 0.875000   1.518821   -5.013825
 0.880000   1.492888   -5.385728
 0.885000   1.464963   -5.813051
 0.890000   1.434757   -6.301337
 0.895000   1.401950   -6.892285
 0.900000   1.365834   -7.561134
 0.905000   1.326339   -8.266189
 0.910000   1.283172   -9.018724
 0.915000   1.236151   -9.792679
 0.920000   1.185245   -10.553065
 0.925000   1.130621   -11.287092
 0.930000   1.072375   -11.901028
 0.935000   1.011611   -12.306190
 0.940000   0.949313   -12.502247
 0.945000   0.886588   -12.469602
 0.950000   0.824617   -12.202672
 0.955000   0.764561   -11.710805
 0.960000   0.707509   -11.006968
 0.965000   0.654492   -10.123592
 0.970000   0.606273   -9.111646
 0.975000   0.563375   -8.018886
 0.980000   0.526084   -6.891124
 0.985000   0.494464   -5.757771
 0.990000   0.468506   -4.659517
 0.995000   0.447869   -3.635262
 1.000000   0.432153   -2.650875
201 psinorm nb(10^20/m^3) dnb/dpsiN
 0.000000   0.054566   0.077941
 0.005000   0.054849   0.035105
 0.010000   0.054917   -0.002126
 0.015000   0.054828   -0.030303
 0.020000   0.054614   -0.054037
 0.025000   0.054287   -0.075420
 0.030000   0.053860   -0.094515
 0.035000   0.053342   -0.110953
 0.040000   0.052751   -0.124378
 0.045000   0.052098   -0.135574
 0.050000   0.051395   -0.145061
 0.055000   0.050648   -0.152661
 0.060000   0.049868   -0.158960
 0.065000   0.049058   -0.164086
 0.070000   0.048227   -0.167744
 0.075000   0.047381   -0.170609
 0.080000   0.046521   -0.172498
 0.085000   0.045656   -0.173356
 0.090000   0.044788   -0.173474
 0.095000   0.043921   -0.172864
 0.100000   0.043059   -0.171601
 0.105000   0.042205   -0.169714
 0.110000   0.041362   -0.167326
 0.115000   0.040532   -0.164647
 0.120000   0.039715   -0.161681
 0.125000   0.038915   -0.158388
 0.130000   0.038132   -0.154814
 0.135000   0.037367   -0.151011
 0.140000   0.036621   -0.147213
 0.145000   0.035895   -0.143305
 0.150000   0.035188   -0.139077
 0.155000   0.034504   -0.134720
 0.160000   0.033841   -0.130314
 0.165000   0.033201   -0.125891
 0.170000   0.032582   -0.121479
 0.175000   0.031986   -0.117081
 0.180000   0.031411   -0.112670
 0.185000   0.030859   -0.108296
 0.190000   0.030329   -0.104080
 0.195000   0.029818   -0.100022
 0.200000   0.029328   -0.096073
 0.205000   0.028858   -0.091968
 0.210000   0.028409   -0.087957
 0.215000   0.027978   -0.084346
 0.220000   0.027565   -0.080915
 0.225000   0.027169   -0.077655
 0.230000   0.026789   -0.074554
 0.235000   0.026423   -0.071561
 0.240000   0.026073   -0.068408
 0.245000   0.025739   -0.065362
 0.250000   0.025419   -0.062744
 0.255000   0.025112   -0.060316
 0.260000   0.024816   -0.058022
 0.265000   0.024532   -0.055840
 0.270000   0.024258   -0.053530
 0.275000   0.023996   -0.051341
 0.280000   0.023744   -0.049537
 0.285000   0.023501   -0.047895
 0.290000   0.023265   -0.046376
 0.295000   0.023037   -0.044784
 0.300000   0.022818   -0.043300
 0.305000   0.022604   -0.042125
 0.310000   0.022396   -0.041065
 0.315000   0.022194   -0.040081
 0.320000   0.021996   -0.039048
 0.325000   0.021803   -0.038137
 0.330000   0.021614   -0.037479
 0.335000   0.021428   -0.036902
 0.340000   0.021245   -0.036318
 0.345000   0.021065   -0.035731
 0.350000   0.020888   -0.035260
 0.355000   0.020713   -0.034891
 0.360000   0.020539   -0.034563
 0.365000   0.020367   -0.034232
 0.370000   0.020197   -0.033954
 0.375000   0.020027   -0.033765
 0.380000   0.019859   -0.033604
 0.385000   0.019691   -0.033454
 0.390000   0.019524   -0.033313
 0.395000   0.019358   -0.033207
 0.400000   0.019192   -0.033133
 0.405000   0.019027   -0.033071
 0.410000   0.018862   -0.033017
 0.415000   0.018697   -0.032977
 0.420000   0.018532   -0.032950
 0.425000   0.018367   -0.032925
 0.430000   0.018203   -0.032902
 0.435000   0.018038   -0.032885
 0.440000   0.017874   -0.032873
 0.445000   0.017709   -0.032864
 0.450000   0.017545   -0.032855
 0.455000   0.017381   -0.032845
 0.460000   0.017217   -0.032838
 0.465000   0.017053   -0.032833
 0.470000   0.016888   -0.032831
 0.475000   0.016724   -0.032828
 0.480000   0.016560   -0.032821
 0.485000   0.016396   -0.032811
 0.490000   0.016232   -0.032795
 0.495000   0.016068   -0.032771
 0.500000   0.015904   -0.032742
 0.505000   0.015741   -0.032712
 0.510000   0.015577   -0.032678
 0.515000   0.015414   -0.032635
 0.520000   0.015251   -0.032590
 0.525000   0.015088   -0.032553
 0.530000   0.014925   -0.032518
 0.535000   0.014763   -0.032477
 0.540000   0.014601   -0.032435
 0.545000   0.014438   -0.032402
 0.550000   0.014276   -0.032374
 0.555000   0.014115   -0.032348
 0.560000   0.013953   -0.032326
 0.565000   0.013791   -0.032314
 0.570000   0.013630   -0.032309
 0.575000   0.013468   -0.032309
 0.580000   0.013307   -0.032318
 0.585000   0.013145   -0.032337
 0.590000   0.012983   -0.032361
 0.595000   0.012822   -0.032390
 0.600000   0.012660   -0.032428
 0.605000   0.012497   -0.032481
 0.610000   0.012335   -0.032540
 0.615000   0.012172   -0.032599
 0.620000   0.012009   -0.032663
 0.625000   0.011845   -0.032739
 0.630000   0.011681   -0.032830
 0.635000   0.011517   -0.032921
 0.640000   0.011352   -0.033010
 0.645000   0.011187   -0.033103
 0.650000   0.011021   -0.033208
 0.655000   0.010855   -0.033329
 0.660000   0.010688   -0.033450
 0.665000   0.010520   -0.033569
 0.670000   0.010352   -0.033694
 0.675000   0.010183   -0.033830
 0.680000   0.010014   -0.033982
 0.685000   0.009844   -0.034131
 0.690000   0.009673   -0.034267
 0.695000   0.009501   -0.034404
 0.700000   0.009328   -0.034542
 0.705000   0.009155   -0.034688
 0.710000   0.008982   -0.034834
 0.715000   0.008807   -0.034960
 0.720000   0.008632   -0.035074
 0.725000   0.008456   -0.035180
 0.730000   0.008280   -0.035276
 0.735000   0.008104   -0.035365
 0.740000   0.007927   -0.035443
 0.745000   0.007749   -0.035497
 0.750000   0.007572   -0.035538
 0.755000   0.007394   -0.035570
 0.760000   0.007216   -0.035591
 0.765000   0.007038   -0.035600
 0.770000   0.006860   -0.035601
 0.775000   0.006682   -0.035590
 0.780000   0.006504   -0.035563
 0.785000   0.006326   -0.035524
 0.790000   0.006149   -0.035474
 0.795000   0.005971   -0.035410
 0.800000   0.005795   -0.035331
 0.805000   0.005618   -0.035229
 0.810000   0.005442   -0.035110
 0.815000   0.005267   -0.034983
 0.820000   0.005092   -0.034846
 0.825000   0.004919   -0.034698
 0.830000   0.004746   -0.034540
 0.835000   0.004573   -0.034369
 0.840000   0.004402   -0.034187
 0.845000   0.004231   -0.033994
 0.850000   0.004062   -0.033780
 0.855000   0.003894   -0.033549
 0.860000   0.003726   -0.033312
 0.865000   0.003560   -0.033070
 0.870000   0.003396   -0.032830
 0.875000   0.003232   -0.032609
 0.880000   0.003070   -0.032407
 0.885000   0.002908   -0.032208
 0.890000   0.002748   -0.032001
 0.895000   0.002588   -0.031772
 0.900000   0.002430   -0.031502
 0.905000   0.002273   -0.031164
 0.910000   0.002118   -0.030724
 0.915000   0.001966   -0.030141
 0.920000   0.001817   -0.029366
 0.925000   0.001672   -0.028363
 0.930000   0.001533   -0.027137
 0.935000   0.001401   -0.025770
 0.940000   0.001275   -0.024465
 0.945000   0.001156   -0.023542
 0.950000   0.001040   -0.023322
 0.955000   0.000923   -0.023814
 0.960000   0.000802   -0.024487
 0.965000   0.000678   -0.024494
 0.970000   0.000557   -0.023169
 0.975000   0.000446   -0.020425
 0.980000   0.000353   -0.016935
 0.985000   0.000277   -0.013898
 0.990000   0.000214   -0.012083
 0.995000   0.000156   -0.011674
 1.000000   0.000097   -0.012004
201 psinorm pb(KPa) dpb/dpsiN
 0.000000   22.195371   25.937798
 0.005000   22.278931   7.486031
 0.010000   22.270232   -8.119785
 0.015000   22.197733   -18.917236
 0.020000   22.081059   -27.748469
 0.025000   21.920248   -36.090149
 0.030000   21.720158   -43.726945
 0.035000   21.482979   -50.293973
 0.040000   21.217218   -55.451537
 0.045000   20.928463   -59.673479
 0.050000   20.620483   -63.157663
 0.055000   20.296887   -65.883963
 0.060000   19.961644   -68.152670
 0.065000   19.615360   -69.972985
 0.070000   19.261914   -71.221988
 0.075000   18.903140   -72.185904
 0.080000   18.540055   -72.775833
 0.085000   18.175382   -72.938504
 0.090000   17.810670   -72.806238
 0.095000   17.447320   -72.392432
 0.100000   17.086745   -71.715855
 0.105000   16.730161   -70.755556
 0.110000   16.379190   -69.589886
 0.115000   16.034262   -68.369659
 0.120000   15.695493   -67.073846
 0.125000   15.363524   -65.655975
 0.130000   15.038933   -64.133413
 0.135000   14.722190   -62.525394
 0.140000   14.413679   -60.985889
 0.145000   14.112331   -59.421223
 0.150000   13.819467   -57.671222
 0.155000   13.535618   -55.857665
 0.160000   13.260891   -54.029909
 0.165000   12.995319   -52.201005
 0.170000   12.738881   -50.381591
 0.175000   12.491503   -48.567130
 0.180000   12.253209   -46.736353
 0.185000   12.024140   -44.917796
 0.190000   11.804031   -43.183762
 0.195000   11.592302   -41.530363
 0.200000   11.388728   -39.923599
 0.205000   11.193066   -38.262079
 0.210000   11.006107   -36.641554
 0.215000   10.826651   -35.180261
 0.220000   10.654304   -33.797163
 0.225000   10.488679   -32.496299
 0.230000   10.329341   -31.268243
 0.235000   10.175997   -30.071190
 0.240000   10.028629   -28.802703
 0.245000   9.887970   -27.579080
 0.250000   9.752839   -26.521718
 0.255000   9.622752   -25.539828
 0.260000   9.497440   -24.611106
 0.265000   9.376641   -23.727291
 0.270000   9.260167   -22.796923
 0.275000   9.148672   -21.884861
 0.280000   9.041319   -21.111513
 0.285000   8.937557   -20.430471
 0.290000   8.837014   -19.808650
 0.295000   8.739471   -19.161140
 0.300000   8.645403   -18.556191
 0.305000   8.553909   -18.069781
 0.310000   8.464705   -17.628432
 0.315000   8.377624   -17.217471
 0.320000   8.292530   -16.788900
 0.325000   8.209735   -16.411774
 0.330000   8.128412   -16.143916
 0.335000   8.048296   -15.915794
 0.340000   7.969254   -15.673138
 0.345000   7.891565   -15.416671
 0.350000   7.815088   -15.204893
 0.355000   7.739516   -15.032082
 0.360000   7.664767   -14.875435
 0.365000   7.590762   -14.718527
 0.370000   7.517582   -14.582049
 0.375000   7.444941   -14.479878
 0.380000   7.372783   -14.388081
 0.385000   7.301060   -14.300672
 0.390000   7.229776   -14.209560
 0.395000   7.158965   -14.128684
 0.400000   7.088489   -14.066123
 0.405000   7.018303   -14.009927
 0.410000   6.948390   -13.956021
 0.415000   6.878743   -13.907619
 0.420000   6.809314   -13.864565
 0.425000   6.740098   -13.821783
 0.430000   6.671096   -13.780429
 0.435000   6.602293   -13.742288
 0.440000   6.533673   -13.706649
 0.445000   6.465227   -13.672815
 0.450000   6.396945   -13.640953
 0.455000   6.328817   -13.609749
 0.460000   6.260847   -13.579975
 0.465000   6.193017   -13.553401
 0.470000   6.125313   -13.530563
 0.475000   6.057712   -13.509868
 0.480000   5.990215   -13.487520
 0.485000   5.922837   -13.463161
 0.490000   5.855583   -13.437958
 0.495000   5.788457   -13.411175
 0.500000   5.721471   -13.381831
 0.505000   5.654639   -13.350765
 0.510000   5.587964   -13.318758
 0.515000   5.521451   -13.286049
 0.520000   5.455103   -13.253508
 0.525000   5.388916   -13.222310
 0.530000   5.322880   -13.192716
 0.535000   5.256989   -13.162823
 0.540000   5.191252   -13.134840
 0.545000   5.125641   -13.107633
 0.550000   5.060176   -13.078198
 0.555000   4.994859   -13.051561
 0.560000   4.929660   -13.030196
 0.565000   4.864557   -13.010741
 0.570000   4.799553   -12.991145
 0.575000   4.734645   -12.972215
 0.580000   4.669830   -12.963350
 0.585000   4.605012   -12.957180
 0.590000   4.540259   -12.945513
 0.595000   4.475556   -12.936408
 0.600000   4.410895   -12.929805
 0.605000   4.346258   -12.932169
 0.610000   4.281573   -12.935220
 0.615000   4.216906   -12.931412
 0.620000   4.152259   -12.927842
 0.625000   4.087628   -12.928763
 0.630000   4.022971   -12.935276
 0.635000   3.958275   -12.938798
 0.640000   3.893583   -12.937879
 0.645000   3.828896   -12.936802
 0.650000   3.764215   -12.939044
 0.655000   3.699506   -12.946008
 0.660000   3.634755   -12.950449
 0.665000   3.570001   -12.951807
 0.670000   3.505237   -12.954533
 0.675000   3.440456   -12.959841
 0.680000   3.375639   -12.969049
 0.685000   3.310766   -12.974063
 0.690000   3.245898   -12.973438
 0.695000   3.181031   -12.973067
 0.700000   3.116167   -12.971423
 0.705000   3.051317   -12.971604
 0.710000   2.986451   -12.970295
 0.715000   2.921614   -12.960553
 0.720000   2.856846   -12.945227
 0.725000   2.792162   -12.926324
 0.730000   2.727582   -12.902249
 0.735000   2.663139   -12.874088
 0.740000   2.598842   -12.840232
 0.745000   2.534737   -12.797300
 0.750000   2.470869   -12.748572
 0.755000   2.407251   -12.696696
 0.760000   2.343902   -12.640646
 0.765000   2.280845   -12.580491
 0.770000   2.218097   -12.517759
 0.775000   2.155667   -12.450923
 0.780000   2.093588   -12.378970
 0.785000   2.031877   -12.303513
 0.790000   1.970552   -12.224717
 0.795000   1.909630   -12.141928
 0.800000   1.849133   -12.054454
 0.805000   1.789086   -11.959243
 0.810000   1.729541   -11.859551
 0.815000   1.670490   -11.760106
 0.820000   1.611940   -11.659263
 0.825000   1.553898   -11.557104
 0.830000   1.496369   -11.453945
 0.835000   1.439358   -11.349435
 0.840000   1.382874   -11.243246
 0.845000   1.326926   -11.135617
 0.850000   1.271518   -11.023052
 0.855000   1.216695   -10.906653
 0.860000   1.162452   -10.791590
 0.865000   1.108779   -10.676808
 0.870000   1.055683   -10.563313
 0.875000   1.003146   -10.454424
 0.880000   0.951139   -10.348481
 0.885000   0.899661   -10.241075
 0.890000   0.848728   -10.129225
 0.895000   0.798369   -10.009876
 0.900000   0.748630   -9.879325
 0.905000   0.699576   -9.732787
 0.910000   0.651302   -9.563123
 0.915000   0.603945   -9.359833
 0.920000   0.557704   -9.108788
 0.925000   0.512857   -8.796412
 0.930000   0.469739   -8.417493
 0.935000   0.428682   -7.987008
 0.940000   0.389869   -7.553875
 0.945000   0.353143   -7.202939
 0.950000   0.317840   -7.025913
 0.955000   0.282884   -7.049401
 0.960000   0.247346   -7.174942
 0.965000   0.211134   -7.210628
 0.970000   0.175240   -6.968114
 0.975000   0.141453   -6.365242
 0.980000   0.111587   -5.473614
 0.985000   0.086717   -4.525616
 0.990000   0.066331   -3.746002
 0.995000   0.049257   -3.347257
 1.000000   0.032858   -3.212208
201 psinorm ptot(KPa) dptot/dpsiN
 0.000000   103.159183   -48.225802
 0.005000   102.877244   -64.549891
 0.010000   102.513684   -78.477458
 0.015000   102.092469   -88.330189
 0.020000   101.630382   -96.596267
 0.025000   101.126507   -104.589774
 0.030000   100.584485   -112.086587
 0.035000   100.005641   -118.744426
 0.040000   99.397040   -124.239982
 0.045000   98.763241   -128.980796
 0.050000   98.107233   -133.121687
 0.055000   97.432024   -136.647588
 0.060000   96.740757   -139.807273
 0.065000   96.033951   -142.594178
 0.070000   95.314815   -144.895880
 0.075000   94.584993   -146.951720
 0.080000   93.845298   -148.693988
 0.085000   93.098053   -150.063073
 0.090000   92.344667   -151.162203
 0.095000   91.586431   -151.999576
 0.100000   90.824671   -152.581553
 0.105000   90.060615   -152.893930
 0.110000   89.295732   -153.015550
 0.115000   88.530460   -153.069619
 0.120000   87.765036   -153.022918
 0.125000   87.000231   -152.823582
 0.130000   86.236800   -152.472528
 0.135000   85.475505   -151.983911
 0.140000   84.716961   -151.506814
 0.145000   83.960437   -150.952780
 0.150000   83.207433   -150.168975
 0.155000   82.458747   -149.263251
 0.160000   81.714800   -148.276498
 0.165000   80.975982   -147.244173
 0.170000   80.242359   -146.221003
 0.175000   79.513772   -145.216798
 0.180000   78.790191   -144.208489
 0.185000   78.071688   -143.219356
 0.190000   77.357997   -142.317390
 0.195000   76.648514   -141.500978
 0.200000   75.942987   -140.705212
 0.205000   75.241461   -139.826896
 0.210000   74.544718   -138.954721
 0.215000   73.851914   -138.180577
 0.220000   73.162913   -137.438683
 0.225000   72.477527   -136.731920
 0.230000   71.795593   -136.001615
 0.235000   71.117511   -135.186153
 0.240000   70.443732   -134.215574
 0.245000   69.775356   -133.182474
 0.250000   69.111907   -132.182533
 0.255000   68.453530   -131.122104
 0.260000   67.800686   -129.975654
 0.265000   67.153774   -128.751429
 0.270000   66.513172   -127.387449
 0.275000   65.879899   -125.952522
 0.280000   65.253647   -124.573256
 0.285000   64.634167   -123.228162
 0.290000   64.021365   -121.926749
 0.295000   63.414899   -120.614730
 0.300000   62.815218   -119.333475
 0.305000   62.221564   -118.152680
 0.310000   61.633691   -117.013064
 0.315000   61.051434   -115.919996
 0.320000   60.474491   -114.828718
 0.325000   59.903147   -113.781578
 0.330000   59.336675   -112.829969
 0.335000   58.774847   -111.907859
 0.340000   58.217597   -110.955266
 0.345000   57.665294   -109.964696
 0.350000   57.117950   -108.932117
 0.355000   56.575973   -107.818627
 0.360000   56.039763   -106.631312
 0.365000   55.509660   -105.366679
 0.370000   54.986097   -104.053351
 0.375000   54.469126   -102.693848
 0.380000   53.959158   -101.299181
 0.385000   53.456135   -99.916252
 0.390000   52.959996   -98.540216
 0.395000   52.470732   -97.186536
 0.400000   51.988130   -95.871171
 0.405000   51.512021   -94.572221
 0.410000   51.042408   -93.303484
 0.415000   50.578986   -92.098884
 0.420000   50.121419   -90.949345
 0.425000   49.669492   -89.842848
 0.430000   49.222991   -88.781054
 0.435000   48.781682   -87.763682
 0.440000   48.345354   -86.795738
 0.445000   47.913725   -85.876229
 0.450000   47.486592   -84.988038
 0.455000   47.063844   -84.114593
 0.460000   46.645446   -83.245708
 0.465000   46.231387   -82.373585
 0.470000   45.821710   -81.495112
 0.475000   45.416436   -80.620465
 0.480000   45.015505   -79.759447
 0.485000   44.618841   -78.916526
 0.490000   44.226340   -78.096407
 0.495000   43.837877   -77.300589
 0.500000   43.453334   -76.530687
 0.505000   43.072571   -75.788634
 0.510000   42.695448   -75.073243
 0.515000   42.321838   -74.383137
 0.520000   41.951616   -73.717487
 0.525000   41.584663   -73.076337
 0.530000   41.220853   -72.460057
 0.535000   40.860063   -71.862301
 0.540000   40.502230   -71.283120
 0.545000   40.147231   -70.724244
 0.550000   39.794987   -70.184499
 0.555000   39.445386   -69.672780
 0.560000   39.098260   -69.203021
 0.565000   38.753356   -68.770041
 0.570000   38.410559   -68.364845
 0.575000   38.069708   -67.991010
 0.580000   37.730649   -67.655813
 0.585000   37.393150   -67.350237
 0.590000   37.057147   -67.073376
 0.595000   36.722416   -66.817582
 0.600000   36.388971   -66.569042
 0.605000   36.056726   -66.342297
 0.610000   35.725548   -66.126467
 0.615000   35.395461   -65.911161
 0.620000   35.066436   -65.701422
 0.625000   34.738447   -65.495577
 0.630000   34.411481   -65.294787
 0.635000   34.085499   -65.093898
 0.640000   33.760542   -64.882888
 0.645000   33.436670   -64.650759
 0.650000   33.114034   -64.355389
 0.655000   32.793116   -63.977204
 0.660000   32.474262   -63.530481
 0.665000   32.157811   -63.024084
 0.670000   31.844021   -62.473787
 0.675000   31.533073   -61.897173
 0.680000   31.225049   -61.275696
 0.685000   30.920316   -60.650081
 0.690000   30.618549   -60.092209
 0.695000   30.319394   -59.598616
 0.700000   30.022562   -59.169109
 0.705000   29.727703   -58.818768
 0.710000   29.434375   -58.552697
 0.715000   29.142176   -58.393946
 0.720000   28.850435   -58.358893
 0.725000   28.558587   -58.429669
 0.730000   28.266139   -58.591044
 0.735000   27.972677   -58.825674
 0.740000   27.677882   -59.130873
 0.745000   27.381368   -59.464525
 0.750000   27.083237   -59.745724
 0.755000   26.783911   -59.957213
 0.760000   26.483665   -60.108182
 0.765000   26.182829   -60.189878
 0.770000   25.881766   -60.204247
 0.775000   25.580787   -60.134519
 0.780000   25.280421   -59.967854
 0.785000   24.981108   -59.744644
 0.790000   24.682974   -59.507399
 0.795000   24.386034   -59.273163
 0.800000   24.090242   -59.055316
 0.805000   23.795481   -58.854292
 0.810000   23.501700   -58.635594
 0.815000   23.209125   -58.382977
 0.820000   22.917870   -58.114255
 0.825000   22.627982   -57.845597
 0.830000   22.339414   -57.613864
 0.835000   22.051844   -57.488385
 0.840000   21.764530   -57.405455
 0.845000   21.477789   -57.280114
 0.850000   21.191729   -57.123895
 0.855000   20.906550   -56.930878
 0.860000   20.622420   -56.723142
 0.865000   20.339319   -56.591149
 0.870000   20.056509   -56.464839
 0.875000   19.774670   -56.331022
 0.880000   19.493198   -56.381271
 0.885000   19.210858   -56.774276
 0.890000   18.925456   -57.754011
 0.895000   18.633318   -59.848752
 0.900000   18.326968   -63.459665
 0.905000   17.998721   -69.166860
 0.910000   17.635299   -78.081738
 0.915000   17.217904   -91.437930
 0.920000   16.720920   -110.648082
 0.925000   16.111423   -137.014255
 0.930000   15.350778   -171.019510
 0.935000   14.401228   -211.667644
 0.940000   13.234101   -255.473116
 0.945000   11.846497   -295.713585
 0.950000   10.276965   -323.578165
 0.955000   8.610715   -331.024945
 0.960000   6.966716   -314.981350
 0.965000   5.460901   -278.887569
 0.970000   4.177840   -230.818162
 0.975000   3.152720   -180.234743
 0.980000   2.375493   -134.441138
 0.985000   1.808308   -97.204669
 0.990000   1.403446   -69.230613
 0.995000   1.116002   -49.456675
 1.000000   0.908879   -33.392499
201 psinorm omeg(kRad/s) domeg/dpsiN
 0.000000   81.354097   0.008867
 0.005000   81.353657   -0.184740
 0.010000   81.352249   -0.392146
 0.015000   81.349736   -0.627842
 0.020000   81.345971   -0.892687
 0.025000   81.340809   -1.186575
 0.030000   81.334105   -1.508453
 0.035000   81.325724   -1.856313
 0.040000   81.315542   -2.225231
 0.045000   81.303472   -2.612350
 0.050000   81.289419   -3.016920
 0.055000   81.273303   -3.436137
 0.060000   81.255057   -3.868122
 0.065000   81.234622   -4.311972
 0.070000   81.211938   -4.765030
 0.075000   81.186971   -5.232822
 0.080000   81.159609   -5.721894
 0.085000   81.129752   -6.230159
 0.090000   81.097308   -6.757937
 0.095000   81.062173   -7.308554
 0.100000   81.024222   -7.892732
 0.105000   80.983246   -8.527186
 0.110000   80.938950   -9.218092
 0.115000   80.891065   -9.963362
 0.120000   80.839317   -10.762246
 0.125000   80.783442   -11.612536
 0.130000   80.723191   -12.518722
 0.135000   80.658255   -13.474669
 0.140000   80.588445   -14.463071
 0.145000   80.513624   -15.480660
 0.150000   80.433638   -16.525804
 0.155000   80.348366   -17.590800
 0.160000   80.257730   -18.664868
 0.165000   80.161718   -19.730641
 0.170000   80.060424   -20.780023
 0.175000   79.953917   -21.810529
 0.180000   79.842318   -22.809051
 0.185000   79.725827   -23.757477
 0.190000   79.604744   -24.613727
 0.195000   79.479690   -25.326912
 0.200000   79.351475   -25.928521
 0.205000   79.220404   -26.445274
 0.210000   79.087022   -26.855125
 0.215000   78.951853   -27.162801
 0.220000   78.815394   -27.351203
 0.225000   78.678341   -27.388587
 0.230000   78.541508   -27.373295
 0.235000   78.404608   -27.364054
 0.240000   78.267867   -27.321278
 0.245000   78.131395   -27.269472
 0.250000   77.995173   -27.227259
 0.255000   77.859123   -27.219082
 0.260000   77.722982   -27.345242
 0.265000   77.585670   -27.639149
 0.270000   77.446590   -28.045211
 0.275000   77.305218   -28.541862
 0.280000   77.161172   -29.095120
 0.285000   77.014267   -29.679783
 0.290000   76.864374   -30.254231
 0.295000   76.711725   -30.796802
 0.300000   76.556406   -31.319696
 0.305000   76.398528   -31.818036
 0.310000   76.238226   -32.286988
 0.315000   76.075658   -32.717171
 0.320000   75.911054   -33.098673
 0.325000   75.744671   -33.432697
 0.330000   75.576727   -33.722760
 0.335000   75.407444   -33.967871
 0.340000   75.237048   -34.167632
 0.345000   75.065767   -34.298114
 0.350000   74.894067   -34.375332
 0.355000   74.722014   -34.431301
 0.360000   74.549754   -34.457561
 0.365000   74.377438   -34.461826
 0.370000   74.205136   -34.467694
 0.375000   74.032761   -34.550215
 0.380000   73.859634   -34.865428
 0.385000   73.684107   -35.486365
 0.390000   73.504770   -36.388862
 0.395000   73.320219   -37.569954
 0.400000   73.129070   -39.021143
 0.405000   72.930007   -40.860653
 0.410000   72.720464   -43.003478
 0.415000   72.499972   -45.182595
 0.420000   72.268638   -47.383274
 0.425000   72.026140   -49.626523
 0.430000   71.772373   -51.867513
 0.435000   71.507464   -54.154274
 0.440000   71.230830   -56.359730
 0.445000   70.943867   -58.227525
 0.450000   70.648555   -59.763387
 0.455000   70.346233   -61.011150
 0.460000   70.038443   -61.933573
 0.465000   69.726898   -62.470103
 0.470000   69.413742   -62.573026
 0.475000   69.101167   -62.428764
 0.480000   68.789455   -62.286856
 0.485000   68.478299   -62.240124
 0.490000   68.167053   -62.341775
 0.495000   67.854881   -62.640295
 0.500000   67.540650   -63.209778
 0.505000   67.222783   -64.003262
 0.510000   66.900618   -64.940745
 0.515000   66.573376   -66.023802
 0.520000   66.240380   -67.230148
 0.525000   65.901074   -68.582916
 0.530000   65.554551   -70.154411
 0.535000   65.199530   -71.705344
 0.540000   64.837497   -73.073071
 0.545000   64.468799   -74.350323
 0.550000   64.093994   -75.495588
 0.555000   63.713844   -76.489572
 0.560000   63.329098   -77.358405
 0.565000   62.940260   -77.901788
 0.570000   62.550080   -78.034087
 0.575000   62.159919   -77.895390
 0.580000   61.771126   -77.490157
 0.585000   61.385017   -76.826891
 0.590000   61.002857   -75.853883
 0.595000   60.626478   -74.602925
 0.600000   60.256828   -73.181042
 0.605000   59.894668   -71.625217
 0.610000   59.540576   -69.971581
 0.615000   59.194952   -68.255893
 0.620000   58.858017   -66.382314
 0.625000   58.531129   -64.572206
 0.630000   58.212295   -63.073483
 0.635000   57.900394   -61.807957
 0.640000   57.594215   -60.796857
 0.645000   57.292425   -60.059480
 0.650000   56.993621   -59.573492
 0.655000   56.696691   -59.233820
 0.660000   56.401282   -58.902310
 0.665000   56.107667   -58.544031
 0.670000   55.815842   -58.216640
 0.675000   55.525501   -57.980525
 0.680000   55.236037   -57.865291
 0.685000   54.946848   -57.934326
 0.690000   54.656694   -58.228677
 0.695000   54.364561   -58.718785
 0.700000   54.069506   -59.400305
 0.705000   53.770558   -60.277304
 0.710000   53.466733   -61.402527
 0.715000   53.156533   -62.797769
 0.720000   52.838755   -64.470589
 0.725000   52.511827   -66.556712
 0.730000   52.173188   -69.188054
 0.735000   51.819947   -72.397971
 0.740000   51.449208   -76.324113
 0.745000   51.056706   -80.847458
 0.750000   50.640734   -85.491708
 0.755000   50.201788   -90.149858
 0.760000   49.739235   -94.888110
 0.765000   49.252907   -99.605275
 0.770000   48.743182   -104.311482
 0.775000   48.209792   -108.851434
 0.780000   47.654668   -112.892244
 0.785000   47.080870   -116.635118
 0.790000   46.488317   -120.466861
 0.795000   45.876201   -124.485854
 0.800000   45.243458   -128.862283
 0.805000   44.587579   -133.656674
 0.810000   43.906892   -137.980688
 0.815000   43.207772   -141.312810
 0.820000   42.493763   -143.975917
 0.825000   41.768013   -146.095631
 0.830000   41.032807   -148.113515
 0.835000   40.286877   -150.894522
 0.840000   39.523862   -153.539825
 0.845000   38.751479   -155.354929
 0.850000   37.970313   -157.422119
 0.855000   37.177258   -160.771837
 0.860000   36.362594   -167.155763
 0.865000   35.505700   -179.449237
 0.870000   34.568102   -199.073740
 0.875000   33.514963   -227.480450
 0.880000   32.293297   -266.742407
 0.885000   30.847539   -316.283093
 0.890000   29.130466   -373.088135
 0.895000   27.116658   -431.845132
 0.900000   24.812015   -482.955779
 0.905000   22.287100   -516.200803
 0.910000   19.650007   -524.526900
 0.915000   17.041831   -503.793967
 0.920000   14.612067   -455.186186
 0.925000   12.489969   -383.655824
 0.930000   10.775509   -300.952557
 0.935000   9.480443   -220.065265
 0.940000   8.574857   -148.719293
 0.945000   7.993250   -92.305545
 0.950000   7.651801   -52.775626
 0.955000   7.465494   -29.038026
 0.960000   7.361421   -18.378915
 0.965000   7.281705   -17.266270
 0.970000   7.188758   -22.089526
 0.975000   7.060810   -30.017920
 0.980000   6.888579   -38.924376
 0.985000   6.671566   -47.172812
 0.990000   6.416851   -54.385393
 0.995000   6.127712   -60.924557
 1.000000   5.807605   -67.118161
201 psinorm omegp(kRad/s) domegp/dpsiN
 0.000000   -0.002194   173.416061
 0.005000   0.682988   100.656844
 0.010000   1.004374   60.128331
 0.015000   1.284272   53.925369
 0.020000   1.543628   50.415667
 0.025000   1.788428   47.535864
 0.030000   2.018987   44.143468
 0.035000   2.229863   40.884284
 0.040000   2.427830   38.293348
 0.045000   2.612796   35.587522
 0.050000   2.783705   33.202367
 0.055000   2.944820   31.423114
 0.060000   3.097936   30.065668
 0.065000   3.245477   29.013434
 0.070000   3.388070   28.101787
 0.075000   3.526495   27.375055
 0.080000   3.661821   26.853643
 0.085000   3.795031   26.697170
 0.090000   3.928793   26.940222
 0.095000   4.064433   27.313253
 0.100000   4.201925   27.709350
 0.105000   4.341527   28.220040
 0.110000   4.484125   28.727375
 0.115000   4.628801   29.161915
 0.120000   4.775745   29.447388
 0.125000   4.923274   29.455621
 0.130000   5.070301   29.092881
 0.135000   5.214203   28.453578
 0.140000   5.354837   27.475814
 0.145000   5.488961   26.103254
 0.150000   5.615869   24.324651
 0.155000   5.732208   22.136779
 0.160000   5.837237   19.704737
 0.165000   5.929255   17.076424
 0.170000   6.008001   14.461779
 0.175000   6.073873   11.769917
 0.180000   6.125700   9.479931
 0.185000   6.168672   7.530000
 0.190000   6.201000   5.672209
 0.195000   6.225394   3.926984
 0.200000   6.240270   1.944954
 0.205000   6.244844   -0.058787
 0.210000   6.239682   -2.355095
 0.215000   6.221293   -4.902052
 0.220000   6.190662   -7.533623
 0.225000   6.145957   -10.417347
 0.230000   6.086488   -13.165928
 0.235000   6.014298   -15.920099
 0.240000   5.927287   -18.796790
 0.245000   5.826330   -21.558741
 0.250000   5.711700   -24.407840
 0.255000   5.582251   -27.277244
 0.260000   5.438928   -30.035010
 0.265000   5.281901   -32.837782
 0.270000   5.110550   -35.611459
 0.275000   4.925787   -38.352612
 0.280000   4.727024   -41.126399
 0.285000   4.514523   -43.836072
 0.290000   4.288663   -46.550852
 0.295000   4.049014   -49.216105
 0.300000   3.796502   -51.394131
 0.305000   3.535073   -53.051042
 0.310000   3.265991   -54.251750
 0.315000   2.992555   -54.820902
 0.320000   2.717782   -54.907227
 0.325000   2.443483   -54.936455
 0.330000   2.168418   -55.192586
 0.335000   1.891557   -55.727761
 0.340000   1.611140   -56.744974
 0.345000   1.324107   -58.232518
 0.350000   1.028815   -60.348740
 0.355000   0.720620   -62.938613
 0.360000   0.399429   -65.368756
 0.365000   0.066932   -67.585949
 0.370000   -0.276431   -69.721036
 0.375000   -0.630278   -72.131061
 0.380000   -0.997741   -76.364542
 0.385000   -1.393923   -82.885543
 0.390000   -1.826597   -90.949783
 0.395000   -2.303421   -100.396021
 0.400000   -2.830557   -110.794735
 0.405000   -3.411369   -121.638587
 0.410000   -4.046943   -133.317481
 0.415000   -4.744543   -143.323886
 0.420000   -5.480182   -149.450288
 0.425000   -6.239046   -152.389964
 0.430000   -7.004081   -151.549300
 0.435000   -7.754539   -146.413066
 0.440000   -8.468212   -136.259229
 0.445000   -9.117132   -122.147104
 0.450000   -9.689683   -106.014971
 0.455000   -10.177281   -88.996325
 0.460000   -10.579646   -72.513196
 0.465000   -10.902413   -57.079793
 0.470000   -11.150444   -43.128586
 0.475000   -11.333699   -32.160827
 0.480000   -11.472052   -24.368415
 0.485000   -11.577383   -18.633696
 0.490000   -11.658389   -14.458230
 0.495000   -11.721966   -11.682400
 0.500000   -11.775213   -9.655665
 0.505000   -11.818522   -7.675345
 0.510000   -11.851967   -5.662366
 0.515000   -11.875146   -3.477957
 0.520000   -11.886746   -0.905671
 0.525000   -11.884203   2.154589
 0.530000   -11.865200   5.631400
 0.535000   -11.827889   9.527241
 0.540000   -11.769928   13.775906
 0.545000   -11.690129   18.165273
 0.550000   -11.588275   22.399923
 0.555000   -11.466130   26.250795
 0.560000   -11.325767   29.553958
 0.565000   -11.170591   32.060196
 0.570000   -11.005165   33.760180
 0.575000   -10.832989   34.724999
 0.580000   -10.657915   34.988146
 0.585000   -10.483107   34.419781
 0.590000   -10.313718   33.440946
 0.595000   -10.148698   32.510876
 0.600000   -9.988609   31.593834
 0.605000   -9.832760   30.809047
 0.610000   -9.680518   30.175231
 0.615000   -9.531007   29.758844
 0.620000   -9.382930   29.419556
 0.625000   -9.236812   28.978301
 0.630000   -9.093147   28.450522
 0.635000   -8.952307   27.833296
 0.640000   -8.814814   27.110328
 0.645000   -8.681203   26.318986
 0.650000   -8.551624   25.513788
 0.655000   -8.426065   24.691926
 0.660000   -8.304705   23.797832
 0.665000   -8.188087   22.794626
 0.670000   -8.076759   21.704850
 0.675000   -7.971039   20.456226
 0.680000   -7.872196   18.994303
 0.685000   -7.781096   17.310612
 0.690000   -7.699090   15.390726
 0.695000   -7.627188   13.273548
 0.700000   -7.566355   10.981532
 0.705000   -7.517373   8.577736
 0.710000   -7.480577   6.099941
 0.715000   -7.456374   3.588999
 0.720000   -7.444687   1.118593
 0.725000   -7.445188   -1.260438
 0.730000   -7.457292   -3.544771
 0.735000   -7.480635   -5.956280
 0.740000   -7.516855   -8.836935
 0.745000   -7.569005   -12.524461
 0.750000   -7.642099   -17.380641
 0.755000   -7.742811   -23.771362
 0.760000   -7.879813   -32.415658
 0.765000   -8.066968   -43.151259
 0.770000   -8.311325   -55.135198
 0.775000   -8.618320   -67.935760
 0.780000   -8.990683   -80.870969
 0.785000   -9.427029   -93.033319
 0.790000   -9.921016   -103.521859
 0.795000   -10.462248   -110.744512
 0.800000   -11.028461   -113.720749
 0.805000   -11.599455   -112.705762
 0.810000   -12.155519   -108.007108
 0.815000   -12.679526   -99.988948
 0.820000   -13.155408   -88.731177
 0.825000   -13.566838   -76.305004
 0.830000   -13.918458   -64.809157
 0.835000   -14.214930   -54.154468
 0.840000   -14.460003   -44.521681
 0.845000   -14.660147   -36.229345
 0.850000   -14.822297   -29.630614
 0.855000   -14.956453   -24.037443
 0.860000   -15.062671   -18.527701
 0.865000   -15.141730   -13.114977
 0.870000   -15.193821   -8.014276
 0.875000   -15.221873   -2.272916
 0.880000   -15.216550   5.470633
 0.885000   -15.167166   15.930518
 0.890000   -15.057245   30.081774
 0.895000   -14.866348   48.870845
 0.900000   -14.568536   72.869273
 0.905000   -14.137656   103.218769
 0.910000   -13.536349   141.415985
 0.915000   -12.723496   178.730204
 0.920000   -11.749047   203.600004
 0.925000   -10.687496   207.464592
 0.930000   -9.674401   183.292668
 0.935000   -8.854569   124.446986
 0.940000   -8.429931   41.734907
 0.945000   -8.437220   -24.815414
 0.950000   -8.678085   -30.833449
 0.955000   -8.745555   45.489484
 0.960000   -8.223190   187.039029
 0.965000   -6.875164   340.259601
 0.970000   -4.820594   438.581183
 0.975000   -2.489352   444.216579
 0.980000   -0.378428   359.247030
 0.985000   1.103118   216.665596
 0.990000   1.788228   66.744164
 0.995000   1.770559   -47.148633
 1.000000   1.316741   -134.378619
201 psinorm omgvb(kRad/s) domgvb/dpsiN
 0.000000   81.351903   173.424928
 0.005000   82.036645   100.472104
 0.010000   82.356624   59.736186
 0.015000   82.634007   53.297528
 0.020000   82.889599   49.522980
 0.025000   83.129237   46.349289
 0.030000   83.353092   42.635015
 0.035000   83.555587   39.027971
 0.040000   83.743372   36.068117
 0.045000   83.916268   32.975172
 0.050000   84.073124   30.185447
 0.055000   84.218123   27.986977
 0.060000   84.352993   26.197546
 0.065000   84.480098   24.701462
 0.070000   84.600008   23.336757
 0.075000   84.713466   22.142233
 0.080000   84.821430   21.131750
 0.085000   84.924783   20.467011
 0.090000   85.026100   20.182286
 0.095000   85.126606   20.004699
 0.100000   85.226147   19.816618
 0.105000   85.324772   19.692854
 0.110000   85.423076   19.509283
 0.115000   85.519865   19.198554
 0.120000   85.615061   18.685142
 0.125000   85.706717   17.843084
 0.130000   85.793492   16.574159
 0.135000   85.872458   14.978909
 0.140000   85.943281   13.012743
 0.145000   86.002586   10.622594
 0.150000   86.049507   7.798847
 0.155000   86.080574   4.545979
 0.160000   86.094967   1.039869
 0.165000   86.090973   -2.654218
 0.170000   86.068425   -6.318244
 0.175000   86.027790   -10.040612
 0.180000   85.968019   -13.329120
 0.185000   85.894499   -16.227477
 0.190000   85.805744   -18.941517
 0.195000   85.705084   -21.399928
 0.200000   85.591745   -23.983567
 0.205000   85.465248   -26.504061
 0.210000   85.326704   -29.210220
 0.215000   85.173146   -32.064853
 0.220000   85.006056   -34.884825
 0.225000   84.824298   -37.805934
 0.230000   84.627996   -40.539223
 0.235000   84.418906   -43.284153
 0.240000   84.195155   -46.118069
 0.245000   83.957725   -48.828212
 0.250000   83.706873   -51.635099
 0.255000   83.441374   -54.496326
 0.260000   83.161909   -57.380251
 0.265000   82.867572   -60.476931
 0.270000   82.557140   -63.656670
 0.275000   82.231005   -66.894474
 0.280000   81.888195   -70.221519
 0.285000   81.528790   -73.515855
 0.290000   81.153037   -76.805083
 0.295000   80.760739   -80.012907
 0.300000   80.352908   -82.713828
 0.305000   79.933601   -84.869078
 0.310000   79.504217   -86.538738
 0.315000   79.068213   -87.538073
 0.320000   78.628836   -88.005900
 0.325000   78.188154   -88.369152
 0.330000   77.745145   -88.915346
 0.335000   77.299001   -89.695632
 0.340000   76.848188   -90.912606
 0.345000   76.389875   -92.530632
 0.350000   75.922882   -94.724072
 0.355000   75.442634   -97.369914
 0.360000   74.949183   -99.826317
 0.365000   74.444371   -102.047775
 0.370000   73.928705   -104.188730
 0.375000   73.402483   -106.681276
 0.380000   72.861892   -111.229970
 0.385000   72.290184   -118.371908
 0.390000   71.678173   -127.338645
 0.395000   71.016797   -137.965975
 0.400000   70.298514   -149.815879
 0.405000   69.518639   -162.499240
 0.410000   68.673521   -176.320959
 0.415000   67.755429   -188.506481
 0.420000   66.788456   -196.833562
 0.425000   65.787093   -202.016487
 0.430000   64.768291   -203.416813
 0.435000   63.752925   -200.567340
 0.440000   62.762618   -192.618959
 0.445000   61.826736   -180.374628
 0.450000   60.958872   -165.778358
 0.455000   60.168952   -150.007476
 0.460000   59.458797   -134.446769
 0.465000   58.824484   -119.549896
 0.470000   58.263298   -105.701612
 0.475000   57.767468   -94.589591
 0.480000   57.317402   -86.655271
 0.485000   56.900915   -80.873820
 0.490000   56.508664   -76.800005
 0.495000   56.132915   -74.322695
 0.500000   55.765437   -72.865443
 0.505000   55.404261   -71.678606
 0.510000   55.048651   -70.603110
 0.515000   54.698230   -69.501759
 0.520000   54.353633   -68.135820
 0.525000   54.016872   -66.428327
 0.530000   53.689350   -64.523010
 0.535000   53.371642   -62.178102
 0.540000   53.067569   -59.297164
 0.545000   52.778670   -56.185051
 0.550000   52.505719   -53.095665
 0.555000   52.247713   -50.238777
 0.560000   52.003331   -47.804446
 0.565000   51.769669   -45.841592
 0.570000   51.544915   -44.273907
 0.575000   51.326930   -43.170391
 0.580000   51.113211   -42.502011
 0.585000   50.901910   -42.407110
 0.590000   50.689140   -42.412937
 0.595000   50.477780   -42.092049
 0.600000   50.268219   -41.587209
 0.605000   50.061908   -40.816170
 0.610000   49.860058   -39.796350
 0.615000   49.663945   -38.497049
 0.620000   49.475087   -36.962758
 0.625000   49.294317   -35.593905
 0.630000   49.119148   -34.622962
 0.635000   48.948088   -33.974662
 0.640000   48.779401   -33.686528
 0.645000   48.611222   -33.740494
 0.650000   48.441997   -34.059704
 0.655000   48.270625   -34.541893
 0.660000   48.096578   -35.104478
 0.665000   47.919580   -35.749405
 0.670000   47.739084   -36.511790
 0.675000   47.554463   -37.524299
 0.680000   47.363841   -38.870988
 0.685000   47.165753   -40.623714
 0.690000   46.957603   -42.837951
 0.695000   46.737373   -45.445238
 0.700000   46.503151   -48.418774
 0.705000   46.253185   -51.699568
 0.710000   45.986155   -55.302586
 0.715000   45.700160   -59.208770
 0.720000   45.394068   -63.351996
 0.725000   45.066640   -67.817150
 0.730000   44.715896   -72.732825
 0.735000   44.339311   -78.354251
 0.740000   43.932354   -85.161048
 0.745000   43.487701   -93.371919
 0.750000   42.998634   -102.872350
 0.755000   42.458977   -113.921220
 0.760000   41.859422   -127.303768
 0.765000   41.185940   -142.756534
 0.770000   40.431857   -159.446681
 0.775000   39.591473   -176.787194
 0.780000   38.663985   -193.763213
 0.785000   37.653841   -209.668437
 0.790000   36.567301   -223.988720
 0.795000   35.413954   -235.230365
 0.800000   34.214997   -242.583032
 0.805000   32.988123   -246.362437
 0.810000   31.751373   -245.987797
 0.815000   30.528245   -241.301758
 0.820000   29.338355   -232.707094
 0.825000   28.201174   -222.400635
 0.830000   27.114349   -212.922671
 0.835000   26.071948   -205.048990
 0.840000   25.063859   -198.061506
 0.845000   24.091333   -191.584273
 0.850000   23.148016   -187.052733
 0.855000   22.220805   -184.809280
 0.860000   21.299923   -185.683464
 0.865000   20.363971   -192.564214
 0.870000   19.374281   -207.088016
 0.875000   18.293090   -229.753367
 0.880000   17.076747   -261.271774
 0.885000   15.680373   -300.352575
 0.890000   14.073222   -343.006361
 0.895000   12.250309   -382.974288
 0.900000   10.243479   -410.086505
 0.905000   8.149444   -412.982034
 0.910000   6.113658   -383.110915
 0.915000   4.318335   -325.063763
 0.920000   2.863021   -251.586182
 0.925000   1.802473   -176.191233
 0.930000   1.101109   -117.659890
 0.935000   0.625874   -95.618279
 0.940000   0.144926   -106.984386
 0.945000   -0.443970   -117.120959
 0.950000   -1.026284   -83.609074
 0.955000   -1.280060   16.451457
 0.960000   -0.861769   168.660114
 0.965000   0.406541   322.993331
 0.970000   2.368164   416.491656
 0.975000   4.571457   414.198660
 0.980000   6.510151   320.322654
 0.985000   7.774684   169.492784
 0.990000   8.205078   12.358771
 0.995000   7.898272   -108.073190
 1.000000   7.124347   -201.496780
201 psinorm omgpp(kRad/s) domgpp/dpsiN
 0.000000   -0.044248   -22.083265
 0.005000   -0.179890   -32.173423
 0.010000   -0.365982   -37.813787
 0.015000   -0.558028   -38.933648
 0.020000   -0.755319   -39.881770
 0.025000   -0.956845   -40.597367
 0.030000   -1.161292   -41.078559
 0.035000   -1.367631   -41.316391
 0.040000   -1.574456   -41.278327
 0.045000   -1.780414   -40.977735
 0.050000   -1.984234   -40.369638
 0.055000   -2.184111   -39.461263
 0.060000   -2.378846   -38.560190
 0.065000   -2.569712   -37.620612
 0.070000   -2.755052   -36.474090
 0.075000   -2.934453   -35.260496
 0.080000   -3.107657   -33.947117
 0.085000   -3.273925   -32.474413
 0.090000   -3.432401   -31.162069
 0.095000   -3.585545   -29.920776
 0.100000   -3.731609   -28.509584
 0.105000   -3.870641   -27.101080
 0.110000   -4.002620   -25.650890
 0.115000   -4.127150   -23.980480
 0.120000   -4.242425   -22.262224
 0.125000   -4.349772   -20.530594
 0.130000   -4.447731   -18.636939
 0.135000   -4.536142   -16.718021
 0.140000   -4.614911   -14.770887
 0.145000   -4.683850   -12.536947
 0.150000   -4.740280   -10.537483
 0.155000   -4.789225   -8.898367
 0.160000   -4.829264   -7.282574
 0.165000   -4.862051   -6.020708
 0.170000   -4.889471   -5.158319
 0.175000   -4.913634   -4.972165
 0.180000   -4.939193   -5.051142
 0.185000   -4.964146   -4.818537
 0.190000   -4.987378   -4.460593
 0.195000   -5.008752   -4.053224
 0.200000   -5.027910   -3.565965
 0.205000   -5.044411   -3.638587
 0.210000   -5.064296   -3.006125
 0.215000   -5.074472   -1.272300
 0.220000   -5.077019   0.238052
 0.225000   -5.072092   1.838734
 0.230000   -5.058632   3.641906
 0.235000   -5.035673   5.396997
 0.240000   -5.004662   7.752582
 0.245000   -4.958147   10.589892
 0.250000   -4.898763   13.029638
 0.255000   -4.827851   15.302576
 0.260000   -4.745737   17.490510
 0.265000   -4.652946   19.866275
 0.270000   -4.547075   21.857285
 0.275000   -4.434373   22.648552
 0.280000   -4.320589   22.827727
 0.285000   -4.206095   22.829574
 0.290000   -4.092293   22.589669
 0.295000   -3.980199   22.205835
 0.300000   -3.870235   21.509976
 0.305000   -3.765099   20.645989
 0.310000   -3.663775   19.986080
 0.315000   -3.565238   19.450156
 0.320000   -3.469274   18.962227
 0.325000   -3.375616   18.345620
 0.330000   -3.285817   17.635768
 0.335000   -3.199258   17.497526
 0.340000   -3.110842   17.871768
 0.345000   -3.020541   18.396502
 0.350000   -2.926877   19.158565
 0.355000   -2.828955   20.074132
 0.360000   -2.726136   21.210703
 0.365000   -2.616848   22.025552
 0.370000   -2.505880   22.184374
 0.375000   -2.395004   22.005325
 0.380000   -2.285827   21.528609
 0.385000   -2.179718   20.927469
 0.390000   -2.076552   20.447732
 0.395000   -1.975241   19.323436
 0.400000   -1.883318   17.841049
 0.405000   -1.796830   16.739330
 0.410000   -1.715925   15.597245
 0.415000   -1.640858   14.443484
 0.420000   -1.571490   13.438209
 0.425000   -1.506476   11.878416
 0.430000   -1.452706   9.976200
 0.435000   -1.406714   8.386598
 0.440000   -1.368840   6.752964
 0.445000   -1.339184   5.121796
 0.450000   -1.317622   3.565480
 0.455000   -1.303529   2.378360
 0.460000   -1.293838   1.566286
 0.465000   -1.287866   0.822331
 0.470000   -1.285615   0.069122
 0.475000   -1.287175   -0.720811
 0.480000   -1.292823   -1.511119
 0.485000   -1.302286   -2.370410
 0.490000   -1.316527   -3.235698
 0.495000   -1.334643   -3.981997
 0.500000   -1.356347   -4.682766
 0.505000   -1.381471   -5.361146
 0.510000   -1.409958   -6.051568
 0.515000   -1.441987   -6.785738
 0.520000   -1.477816   -7.532331
 0.525000   -1.517310   -8.274002
 0.530000   -1.560556   -9.019274
 0.535000   -1.607503   -9.739009
 0.540000   -1.657946   -10.478311
 0.545000   -1.712286   -11.075875
 0.550000   -1.768705   -11.501745
 0.555000   -1.827303   -11.973924
 0.560000   -1.888444   -12.465965
 0.565000   -1.951963   -12.919686
 0.570000   -2.017641   -13.460823
 0.575000   -2.086571   -13.945549
 0.580000   -2.157096   -14.162779
 0.585000   -2.228199   -14.320714
 0.590000   -2.300303   -14.477698
 0.595000   -2.372976   -14.549524
 0.600000   -2.445799   -14.638930
 0.605000   -2.519365   -14.573447
 0.610000   -2.591533   -14.138535
 0.615000   -2.660751   -13.623032
 0.620000   -2.727763   -13.147681
 0.625000   -2.792227   -12.606539
 0.630000   -2.853829   -12.008866
 0.635000   -2.912316   -11.489080
 0.640000   -2.968720   -11.526912
 0.645000   -3.027585   -12.318836
 0.650000   -3.091908   -13.478942
 0.655000   -3.162375   -14.672233
 0.660000   -3.238630   -16.030640
 0.665000   -3.322681   -17.754460
 0.670000   -3.416175   -18.032945
 0.675000   -3.503010   -17.153000
 0.680000   -3.587705   -16.504803
 0.685000   -3.668058   -15.385854
 0.690000   -3.741563   -13.924962
 0.695000   -3.807308   -12.150516
 0.700000   -3.863069   -8.553398
 0.705000   -3.892842   -4.106142
 0.710000   -3.904130   -0.312364
 0.715000   -3.895966   3.580374
 0.720000   -3.868326   7.427669
 0.725000   -3.821689   11.636212
 0.730000   -3.751964   14.759158
 0.735000   -3.674097   16.490531
 0.740000   -3.587059   17.980713
 0.745000   -3.494290   18.779157
 0.750000   -3.399267   18.893707
 0.755000   -3.305353   19.081445
 0.760000   -3.208453   17.708128
 0.765000   -3.128272   15.244938
 0.770000   -3.056003   13.621651
 0.775000   -2.992055   11.955721
 0.780000   -2.936446   10.322601
 0.785000   -2.888829   8.554443
 0.790000   -2.850902   7.229394
 0.795000   -2.816536   6.524639
 0.800000   -2.785655   5.776509
 0.805000   -2.758770   4.960784
 0.810000   -2.736048   4.107797
 0.815000   -2.717692   2.717677
 0.820000   -2.708871   0.993947
 0.825000   -2.707753   -1.078287
 0.830000   -2.719654   -3.989259
 0.835000   -2.747646   -7.361921
 0.840000   -2.793273   -11.020541
 0.845000   -2.857851   -16.454973
 0.850000   -2.957823   -21.915539
 0.855000   -3.077006   -25.589701
 0.860000   -3.213720   -29.900243
 0.865000   -3.376009   -35.404280
 0.870000   -3.567762   -41.869184
 0.875000   -3.794701   -52.433661
 0.880000   -4.092099   -65.177100
 0.885000   -4.446472   -75.463933
 0.890000   -4.846738   -87.774166
 0.895000   -5.324213   -104.687745
 0.900000   -5.893616   -124.595512
 0.905000   -6.570168   -152.518557
 0.910000   -7.418801   -186.767662
 0.915000   -8.437845   -215.771806
 0.920000   -9.576519   -246.779921
 0.925000   -10.905644   -287.285144
 0.930000   -12.449371   -331.767936
 0.935000   -14.223324   -386.816067
 0.940000   -16.317532   -445.276392
 0.945000   -18.676088   -460.122614
 0.950000   -20.918758   -429.183465
 0.955000   -22.967922   -369.061898
 0.960000   -24.609377   -260.530407
 0.965000   -25.573226   -107.865585
 0.970000   -25.688033   75.892559
 0.975000   -24.814301   268.783622
 0.980000   -23.000196   420.797001
 0.985000   -20.606331   508.938992
 0.990000   -17.910806   542.546357
 0.995000   -15.180867   529.812934
 1.000000   -12.612677   497.463066
201 psinorm omgeb(kRad/s) domgeb/dpsiN
 0.000000   81.307655   151.341663
 0.005000   81.856756   68.298681
 0.010000   81.990642   21.922398
 0.015000   82.075980   14.363880
 0.020000   82.134280   9.641210
 0.025000   82.172392   5.751922
 0.030000   82.191800   1.556456
 0.035000   82.187956   -2.288419
 0.040000   82.168915   -5.210210
 0.045000   82.135854   -8.002564
 0.050000   82.088890   -10.184190
 0.055000   82.034012   -11.474286
 0.060000   81.974147   -12.362644
 0.065000   81.910386   -12.919149
 0.070000   81.844956   -13.137333
 0.075000   81.779013   -13.118263
 0.080000   81.713773   -12.815367
 0.085000   81.650859   -12.007402
 0.090000   81.593699   -10.979783
 0.095000   81.541061   -9.916076
 0.100000   81.494538   -8.692966
 0.105000   81.454131   -7.408226
 0.110000   81.420456   -6.141606
 0.115000   81.392715   -4.781926
 0.120000   81.372637   -3.577082
 0.125000   81.356945   -2.687510
 0.130000   81.345761   -2.062780
 0.135000   81.336317   -1.739111
 0.140000   81.328370   -1.758145
 0.145000   81.318735   -1.914352
 0.150000   81.309227   -2.738636
 0.155000   81.291349   -4.352388
 0.160000   81.265703   -6.242705
 0.165000   81.228922   -8.674926
 0.170000   81.178954   -11.476563
 0.175000   81.114156   -15.012777
 0.180000   81.028826   -18.380262
 0.185000   80.930354   -21.046015
 0.190000   80.818366   -23.402110
 0.195000   80.696333   -25.453152
 0.200000   80.563834   -27.549532
 0.205000   80.420837   -30.142648
 0.210000   80.262408   -32.216346
 0.215000   80.098674   -33.337153
 0.220000   79.929036   -34.646774
 0.225000   79.752206   -35.967201
 0.230000   79.569364   -36.897317
 0.235000   79.383233   -37.887156
 0.240000   79.190493   -38.365487
 0.245000   78.999578   -38.238321
 0.250000   78.808109   -38.605461
 0.255000   78.613523   -39.193750
 0.260000   78.416172   -39.889741
 0.265000   78.214626   -40.610656
 0.270000   78.010065   -41.799386
 0.275000   77.796632   -44.245922
 0.280000   77.567606   -47.393792
 0.285000   77.322694   -50.686281
 0.290000   77.060743   -54.215414
 0.295000   76.780540   -57.807072
 0.300000   76.482673   -61.203852
 0.305000   76.168502   -64.223088
 0.310000   75.840442   -66.552658
 0.315000   75.502975   -68.087917
 0.320000   75.159563   -69.043674
 0.325000   74.812538   -70.023531
 0.330000   74.459327   -71.279578
 0.335000   74.099742   -72.198106
 0.340000   73.737346   -73.040838
 0.345000   73.369334   -74.134131
 0.350000   72.996005   -75.565507
 0.355000   72.613679   -77.295783
 0.360000   72.223047   -78.615614
 0.365000   71.827523   -80.022223
 0.370000   71.422825   -82.004356
 0.375000   71.007479   -84.675951
 0.380000   70.576065   -89.701360
 0.385000   70.110466   -97.444439
 0.390000   69.601621   -106.890913
 0.395000   69.041557   -118.642538
 0.400000   68.415196   -131.974830
 0.405000   67.721808   -145.759910
 0.410000   66.957596   -160.723714
 0.415000   66.114571   -174.062997
 0.420000   65.216967   -183.395353
 0.425000   64.280618   -190.138071
 0.430000   63.315586   -193.440613
 0.435000   62.346211   -192.180742
 0.440000   61.393778   -185.865995
 0.445000   60.487552   -175.252832
 0.450000   59.641250   -162.212878
 0.455000   58.865423   -147.629115
 0.460000   58.164959   -132.880483
 0.465000   57.536618   -118.727565
 0.470000   56.977683   -105.632489
 0.475000   56.480293   -95.310402
 0.480000   56.024579   -88.166390
 0.485000   55.598629   -83.244229
 0.490000   55.192137   -80.035703
 0.495000   54.798272   -78.304692
 0.500000   54.409090   -77.548209
 0.505000   54.022790   -77.039753
 0.510000   53.638693   -76.654679
 0.515000   53.256243   -76.287498
 0.520000   52.875818   -75.668150
 0.525000   52.499562   -74.702330
 0.530000   52.128794   -73.542284
 0.535000   51.764139   -71.917112
 0.540000   51.409623   -69.775476
 0.545000   51.066384   -67.260926
 0.550000   50.737014   -64.597410
 0.555000   50.420410   -62.212701
 0.560000   50.114887   -60.270411
 0.565000   49.817706   -58.761278
 0.570000   49.527274   -57.734729
 0.575000   49.240359   -57.115940
 0.580000   48.956115   -56.664789
 0.585000   48.673711   -56.727824
 0.590000   48.388836   -56.890635
 0.595000   48.104804   -56.641573
 0.600000   47.822421   -56.226138
 0.605000   47.542543   -55.389617
 0.610000   47.268525   -53.934885
 0.615000   47.003194   -52.120081
 0.620000   46.747324   -50.110438
 0.625000   46.502090   -48.200444
 0.630000   46.265319   -46.631828
 0.635000   46.035771   -45.463742
 0.640000   45.810682   -45.213441
 0.645000   45.583637   -46.059330
 0.650000   45.350089   -47.538646
 0.655000   45.108251   -49.214126
 0.660000   44.857947   -51.135118
 0.665000   44.596899   -53.503865
 0.670000   44.322909   -54.544735
 0.675000   44.051452   -54.677299
 0.680000   43.776136   -55.375791
 0.685000   43.497694   -56.009568
 0.690000   43.216040   -56.762913
 0.695000   42.930065   -57.595753
 0.700000   42.640082   -56.972172
 0.705000   42.360343   -55.805710
 0.710000   42.082025   -55.614950
 0.715000   41.804194   -55.628396
 0.720000   41.525741   -55.924327
 0.725000   41.244951   -56.180938
 0.730000   40.963932   -57.973667
 0.735000   40.665214   -61.863719
 0.740000   40.345295   -67.180335
 0.745000   39.993411   -74.592762
 0.750000   39.599367   -83.978643
 0.755000   39.153624   -94.839775
 0.760000   38.650969   -109.595640
 0.765000   38.057668   -127.511597
 0.770000   37.375853   -145.825029
 0.775000   36.599417   -164.831473
 0.780000   35.727539   -183.440611
 0.785000   34.765011   -201.113994
 0.790000   33.716399   -216.759326
 0.795000   32.597418   -228.705726
 0.800000   31.429342   -236.806524
 0.805000   30.229353   -241.401653
 0.810000   29.015325   -241.880000
 0.815000   27.810553   -238.584081
 0.820000   26.629484   -231.713147
 0.825000   25.493421   -223.478922
 0.830000   24.394695   -216.911930
 0.835000   23.324302   -212.410912
 0.840000   22.270586   -209.082047
 0.845000   21.233482   -208.039246
 0.850000   20.190193   -208.968272
 0.855000   19.143799   -210.398981
 0.860000   18.086204   -215.583707
 0.865000   16.987962   -227.968494
 0.870000   15.806519   -248.957199
 0.875000   14.498390   -282.187027
 0.880000   12.984648   -326.448874
 0.885000   11.233901   -375.816509
 0.890000   9.226483   -430.780527
 0.895000   6.926096   -487.662033
 0.900000   4.349863   -534.682017
 0.905000   1.579276   -565.500591
 0.910000   -1.305143   -569.878577
 0.915000   -4.119510   -540.835569
 0.920000   -6.713499   -498.366103
 0.925000   -9.103171   -463.476376
 0.930000   -11.348262   -449.427826
 0.935000   -13.597449   -482.434346
 0.940000   -16.172606   -552.260777
 0.945000   -19.120057   -577.243573
 0.950000   -21.945042   -512.792539
 0.955000   -24.247983   -352.610441
 0.960000   -25.471146   -91.870293
 0.965000   -25.166686   215.127746
 0.970000   -23.319869   492.384215
 0.975000   -20.242843   682.982282
 0.980000   -16.490046   741.119654
 0.985000   -12.831647   678.431776
 0.990000   -9.705728   554.905128
 0.995000   -7.282596   421.739744
 1.000000   -5.488331   295.966286
201 psinorm er(kV/m) der/dpsiN
 0.000000   0.940998   1413.385117
 0.005000   6.603501   851.616228
 0.010000   9.457160   502.857124
 0.015000   11.632073   403.654962
 0.020000   13.493710   349.420106
 0.025000   15.126274   310.329319
 0.030000   16.597003   282.309380
 0.035000   17.949367   261.008002
 0.040000   19.207083   243.196900
 0.045000   20.381336   227.382360
 0.050000   21.480907   214.048257
 0.055000   22.521819   203.301485
 0.060000   23.513922   195.270421
 0.065000   24.474523   186.645084
 0.070000   25.380372   176.381143
 0.075000   26.238335   171.513684
 0.080000   27.095509   166.179282
 0.085000   27.900127   158.526832
 0.090000   28.680778   155.774501
 0.095000   29.457872   149.443251
 0.100000   30.175210   146.110142
 0.105000   30.918974   142.926766
 0.110000   31.604478   138.919603
 0.115000   32.308170   136.127915
 0.120000   32.965757   132.829348
 0.125000   33.636463   129.974647
 0.130000   34.265503   127.183242
 0.135000   34.908296   124.061138
 0.140000   35.506115   121.744079
 0.145000   36.125737   118.237864
 0.150000   36.688493   116.260147
 0.155000   37.288338   111.859597
 0.160000   37.807089   108.834999
 0.165000   38.376688   106.152136
 0.170000   38.868611   100.776314
 0.175000   39.384451   99.713465
 0.180000   39.865745   92.782757
 0.185000   40.312279   91.636166
 0.190000   40.782107   85.845367
 0.195000   41.170732   82.738897
 0.200000   41.609496   82.324260
 0.205000   41.993975   75.429417
 0.210000   42.363790   75.882309
 0.215000   42.752798   69.786537
 0.220000   43.061655   66.902356
 0.225000   43.421822   68.388904
 0.230000   43.745545   61.487746
 0.235000   44.036699   61.449703
 0.240000   44.360042   58.781427
 0.245000   44.624513   54.725226
 0.250000   44.907294   57.536136
 0.255000   45.199875   51.081286
 0.260000   45.418107   48.309374
 0.265000   45.682969   51.336027
 0.270000   45.931467   44.210162
 0.275000   46.125070   41.494953
 0.280000   46.346416   41.308607
 0.285000   46.538156   33.775980
 0.290000   46.684176   30.916850
 0.295000   46.847325   29.401313
 0.300000   46.978189   22.333445
 0.305000   47.070659   19.886617
 0.310000   47.177056   18.705193
 0.315000   47.257711   13.146394
 0.320000   47.308520   11.860138
 0.325000   47.376313   11.542574
 0.330000   47.423945   6.432478
 0.335000   47.440637   4.901283
 0.340000   47.472958   4.950202
 0.345000   47.490139   0.165903
 0.350000   47.474617   -2.077500
 0.355000   47.469364   -2.235265
 0.360000   47.452264   -6.934060
 0.365000   47.400024   -9.596564
 0.370000   47.356299   -9.729306
 0.375000   47.302731   -14.779703
 0.380000   47.208502   -20.276620
 0.385000   47.099964   -24.790807
 0.390000   46.960594   -33.180992
 0.395000   46.768155   -43.665496
 0.400000   46.523939   -53.242263
 0.405000   46.235732   -63.475939
 0.410000   45.889179   -76.511693
 0.415000   45.470615   -87.164552
 0.420000   45.017534   -93.862564
 0.425000   44.531989   -101.176701
 0.430000   44.005767   -105.379461
 0.435000   43.478195   -104.766884
 0.440000   42.958098   -102.190347
 0.445000   42.456291   -96.807942
 0.450000   41.990019   -88.362491
 0.455000   41.572666   -78.755496
 0.460000   41.202464   -70.241276
 0.465000   40.870254   -61.262004
 0.470000   40.589844   -51.887678
 0.475000   40.351377   -45.995338
 0.480000   40.129890   -42.051911
 0.485000   39.930858   -38.464861
 0.490000   39.745242   -36.716205
 0.495000   39.563696   -36.817873
 0.500000   39.377063   -36.787343
 0.505000   39.195822   -36.196585
 0.510000   39.015097   -37.219811
 0.515000   38.823624   -37.758589
 0.520000   38.637511   -36.976920
 0.525000   38.453855   -36.819170
 0.530000   38.269319   -37.113540
 0.535000   38.082720   -36.165736
 0.540000   37.907662   -34.262155
 0.545000   37.740098   -33.584035
 0.550000   37.571822   -32.259170
 0.555000   37.417506   -29.988368
 0.560000   37.271938   -28.881366
 0.565000   37.128693   -28.889330
 0.570000   36.983045   -28.223255
 0.575000   36.846460   -27.169215
 0.580000   36.711353   -27.825638
 0.585000   36.568204   -28.596804
 0.590000   36.425385   -28.187943
 0.595000   36.286324   -27.830689
 0.600000   36.147078   -28.972759
 0.605000   35.996597   -28.554387
 0.610000   35.861534   -26.400732
 0.615000   35.732589   -25.711813
 0.620000   35.604416   -25.279564
 0.625000   35.479794   -23.478469
 0.630000   35.369631   -21.519472
 0.635000   35.264599   -21.875805
 0.640000   35.150873   -22.320420
 0.645000   35.041395   -22.010242
 0.650000   34.930770   -22.844900
 0.655000   34.812946   -25.932225
 0.660000   34.671448   -27.588139
 0.665000   34.537064   -27.918306
 0.670000   34.392265   -29.340060
 0.675000   34.243664   -30.951037
 0.680000   34.082755   -31.182245
 0.685000   33.931841   -30.483455
 0.690000   33.777920   -32.242613
 0.695000   33.609415   -34.056653
 0.700000   33.437354   -32.726384
 0.705000   33.282151   -30.994033
 0.710000   33.127413   -32.540674
 0.715000   32.956745   -33.304216
 0.720000   32.794371   -32.222331
 0.725000   32.634521   -32.075558
 0.730000   32.473616   -35.537627
 0.735000   32.279145   -39.013853
 0.740000   32.083477   -41.667036
 0.745000   31.862475   -47.861825
 0.750000   31.604859   -57.200802
 0.755000   31.290467   -66.069631
 0.760000   30.944163   -76.682138
 0.765000   30.523645   -91.762431
 0.770000   30.026538   -108.111002
 0.775000   29.442535   -123.585235
 0.780000   28.790686   -137.916833
 0.785000   28.063367   -153.180686
 0.790000   27.258879   -167.436352
 0.795000   26.389003   -177.374165
 0.800000   25.485137   -183.649992
 0.805000   24.552503   -188.543369
 0.810000   23.599704   -190.494418
 0.815000   22.647559   -188.083518
 0.820000   21.718869   -182.324861
 0.825000   20.824311   -176.733749
 0.830000   19.951531   -172.768837
 0.835000   19.096622   -169.270270
 0.840000   18.258828   -166.392133
 0.845000   17.432701   -166.600106
 0.850000   16.592827   -168.637139
 0.855000   15.746330   -169.913787
 0.860000   14.893689   -174.022723
 0.865000   14.006102   -185.244791
 0.870000   13.041241   -203.785612
 0.875000   11.968246   -231.318037
 0.880000   10.728061   -267.748822
 0.885000   9.290758   -309.368051
 0.890000   7.634381   -355.563109
 0.895000   5.735127   -402.645425
 0.900000   3.607926   -441.777270
 0.905000   1.317354   -468.669802
 0.910000   -1.078772   -472.925195
 0.915000   -3.411898   -448.042750
 0.920000   -5.559199   -412.650494
 0.925000   -7.538403   -394.260172
 0.930000   -9.501801   -391.364526
 0.935000   -11.452048   -412.422999
 0.940000   -13.626031   -466.416369
 0.945000   -16.116212   -529.094582
 0.950000   -18.916977   -513.381314
 0.955000   -21.250025   -343.920095
 0.960000   -22.356178   -86.599918
 0.965000   -22.116024   166.882607
 0.970000   -20.687352   381.051430
 0.975000   -18.305510   575.304220
 0.980000   -14.934309   667.325619
 0.985000   -11.632253   614.246474
 0.990000   -8.791845   504.912501
 0.995000   -6.583128   382.861343
 1.000000   -4.963231   265.097545
201 psinorm ommvb() dommvb/dpsiN
 0.000000   -8.486656   12029.513989
 0.005000   53.137530   12620.160321
 0.010000   117.714948   10799.121622
 0.015000   161.128746   7987.856169
 0.020000   197.593509   7216.580401
 0.025000   233.294550   6868.770761
 0.030000   266.281217   6315.322414
 0.035000   296.447775   5437.733112
 0.040000   320.658548   4513.588072
 0.045000   341.583655   4035.689582
 0.050000   361.015444   3502.367601
 0.055000   376.607331   3084.348912
 0.060000   391.858933   2795.634298
 0.065000   404.563674   2496.723270
 0.070000   416.826166   2226.032561
 0.075000   426.824000   1906.807817
 0.080000   435.894244   1673.270594
 0.085000   443.556706   1380.882101
 0.090000   449.703065   1126.503126
 0.095000   454.821737   924.793114
 0.100000   458.950996   664.673538
 0.105000   461.468472   329.339999
 0.110000   462.244396   169.291772
 0.115000   463.161390   133.196503
 0.120000   463.576361   1.916594
 0.125000   463.180556   -159.414895
 0.130000   461.982212   -312.221414
 0.135000   460.058342   -385.961255
 0.140000   458.122599   -378.433852
 0.145000   456.274003   -568.689233
 0.150000   452.435707   -833.232641
 0.155000   447.941677   -948.972280
 0.160000   442.945984   -1045.223686
 0.165000   437.489440   -1131.322436
 0.170000   431.632760   -1208.940623
 0.175000   425.400034   -1344.436270
 0.180000   418.188397   -1589.762294
 0.185000   409.502411   -1580.662936
 0.190000   402.381768   -1434.435267
 0.195000   395.158058   -1453.769732
 0.200000   387.844071   -1468.016802
 0.205000   380.477890   -1477.913563
 0.210000   373.064935   -1480.686067
 0.215000   365.671030   -1472.311857
 0.220000   358.341816   -1561.239669
 0.225000   350.058633   -1554.814502
 0.230000   342.793671   -1416.683287
 0.235000   335.891800   -1371.323783
 0.240000   329.080434   -1345.268765
 0.245000   322.439112   -1308.321967
 0.250000   315.997214   -1340.401318
 0.255000   309.035099   -1423.342444
 0.260000   301.763789   -1287.211791
 0.265000   296.162981   -1096.261975
 0.270000   290.801170   -1081.836065
 0.275000   285.344621   -1126.677770
 0.280000   279.534392   -1210.719706
 0.285000   273.237424   -1064.243897
 0.290000   268.891953   -828.138243
 0.295000   264.956041   -764.855666
 0.300000   261.243396   -719.001059
 0.305000   257.766031   -791.196847
 0.310000   253.331428   -728.342667
 0.315000   250.482604   -536.377885
 0.320000   247.967649   -477.719855
 0.325000   245.705405   -439.450943
 0.330000   243.573140   -378.700774
 0.335000   241.918398   -307.672485
 0.340000   240.496415   -272.164197
 0.345000   239.196756   -243.018464
 0.350000   238.066230   -246.937297
 0.355000   236.727383   -215.662909
 0.360000   235.909601   -131.339044
 0.365000   235.413992   -87.448431
 0.370000   235.035117   -71.703918
 0.375000   234.696953   -59.931652
 0.380000   234.435800   -22.569499
 0.385000   234.471258   -0.030334
 0.390000   234.435497   -17.394665
 0.395000   234.297311   -19.579017
 0.400000   234.239707   7.394184
 0.405000   234.371253   23.046169
 0.410000   234.470168   15.842544
 0.415000   234.529679   9.478681
 0.420000   234.564955   7.484648
 0.425000   234.604525   13.030509
 0.430000   234.695260   21.877061
 0.435000   234.823296   28.492405
 0.440000   234.980184   43.315431
 0.445000   235.256450   66.226067
 0.450000   235.642445   86.789002
 0.455000   236.124340   105.556591
 0.460000   236.698011   134.958479
 0.465000   237.473925   165.541885
 0.470000   238.353430   185.462215
 0.475000   239.328547   202.500940
 0.480000   240.378439   217.916978
 0.485000   241.507717   223.399496
 0.490000   242.612434   222.998737
 0.495000   243.737704   226.349529
 0.500000   244.875929   229.653688
 0.505000   246.034241   232.068701
 0.510000   247.196616   234.759603
 0.515000   248.381837   240.058592
 0.520000   249.597202   248.474448
 0.525000   250.866582   265.073798
 0.530000   252.247940   274.197324
 0.535000   253.608555   278.861246
 0.540000   255.036553   296.508320
 0.545000   256.573638   307.985620
 0.550000   258.116409   319.550540
 0.555000   259.769143   338.524859
 0.560000   261.501658   354.427036
 0.565000   263.313414   380.448674
 0.570000   265.306144   402.443932
 0.575000   267.337853   419.904328
 0.580000   269.505188   440.159368
 0.585000   271.739447   448.204307
 0.590000   273.987231   487.662136
 0.595000   276.616068   513.194332
 0.600000   279.119174   515.131928
 0.605000   281.767387   541.651066
 0.610000   284.535685   569.406114
 0.615000   287.461449   604.429740
 0.620000   290.579982   620.702607
 0.625000   293.668475   629.732517
 0.630000   296.877307   653.737044
 0.635000   300.205845   692.092483
 0.640000   303.798232   732.004431
 0.645000   307.525889   740.921714
 0.650000   311.207449   749.811873
 0.655000   315.024008   778.089787
 0.660000   318.988347   821.174472
 0.665000   323.235753   879.632693
 0.670000   327.784674   905.349793
 0.675000   332.289251   913.533890
 0.680000   336.920013   940.938038
 0.685000   341.698631   974.599363
 0.690000   346.666006   1052.693970
 0.695000   352.225571   1092.595884
 0.700000   357.591965   1091.725593
 0.705000   363.142827   1129.417800
 0.710000   368.886143   1167.803779
 0.715000   374.820865   1209.856470
 0.720000   380.984708   1261.443890
 0.725000   387.435303   1281.574896
 0.730000   393.800457   1288.703407
 0.735000   400.322338   1321.130596
 0.740000   407.011763   1352.210321
 0.745000   413.844441   1375.037796
 0.750000   420.762141   1409.437766
 0.755000   427.938818   1444.084507
 0.760000   435.202986   1474.653104
 0.765000   442.685349   1526.064048
 0.770000   450.463626   1580.434970
 0.775000   458.489699   1622.302126
 0.780000   466.686648   1663.412208
 0.785000   475.123821   1704.343662
 0.790000   483.730084   1766.750461
 0.795000   492.791326   1847.576841
 0.800000   502.205853   1927.518518
 0.805000   512.066511   2024.516157
 0.810000   522.451014   2137.568835
 0.815000   533.442199   2267.320430
 0.820000   545.124219   2413.539112
 0.825000   557.577590   2547.239158
 0.830000   570.596610   2734.542641
 0.835000   584.923017   2966.687481
 0.840000   600.263485   3183.305884
 0.845000   616.756076   3416.124621
 0.850000   634.424731   3665.350558
 0.855000   653.409581   3947.849101
 0.860000   673.903222   4265.840215
 0.865000   696.067983   4627.274848
 0.870000   720.175971   5075.388813
 0.875000   746.821872   5622.419936
 0.880000   776.400170   6177.760779
 0.885000   808.599479   6739.351502
 0.890000   843.793685   7392.005081
 0.895000   882.519530   8109.092606
 0.900000   924.884611   8860.547083
 0.905000   971.125001   9630.530586
 0.910000   1021.189917   10344.033894
 0.915000   1074.565340   10836.031235
 0.920000   1129.550229   10893.878605
 0.925000   1183.504126   10382.662680
 0.930000   1233.376856   9464.618630
 0.935000   1278.150312   8931.208606
 0.940000   1322.688942   10674.771603
 0.945000   1384.898028   17418.700610
 0.950000   1496.875948   31455.650309
 0.955000   1699.454531   50859.498061
 0.960000   2005.470929   69833.410032
 0.965000   2397.788632   82156.470384
 0.970000   2827.035633   81912.461747
 0.975000   3216.913249   66050.001768
 0.980000   3487.535650   46351.269207
 0.985000   3680.425941   50872.998251
 0.990000   3996.265633   90408.146782
 0.995000   4584.507409   438248.772440
 1.000000   8378.753357   1079449.606845
201 psinorm ommpp() dommpp/dpsiN
 0.000000   89.794311   -11878.172326
 0.005000   28.719226   -12551.861640
 0.010000   -35.724306   -10777.199224
 0.015000   -79.052767   -7973.492289
 0.020000   -115.459229   -7206.939192
 0.025000   -151.122159   -6863.018839
 0.030000   -184.089417   -6313.765959
 0.035000   -214.259818   -5440.021531
 0.040000   -238.489632   -4518.798282
 0.045000   -259.447801   -4043.692146
 0.050000   -278.926554   -3512.551792
 0.055000   -294.573319   -3095.823198
 0.060000   -309.884786   -2807.996942
 0.065000   -322.653288   -2509.642419
 0.070000   -334.981210   -2239.169894
 0.075000   -345.044987   -1919.926080
 0.080000   -354.180471   -1686.085961
 0.085000   -361.905847   -1392.889503
 0.090000   -368.109366   -1137.482909
 0.095000   -373.280676   -934.709190
 0.100000   -377.456458   -673.366503
 0.105000   -380.014341   -336.748225
 0.110000   -380.823940   -175.433378
 0.115000   -381.768675   -137.978429
 0.120000   -382.203724   -5.493676
 0.125000   -381.823612   156.727385
 0.130000   -380.636451   310.158634
 0.135000   -378.722025   384.222144
 0.140000   -376.794229   376.675707
 0.145000   -374.955268   566.774880
 0.150000   -371.126480   830.494005
 0.155000   -366.650328   944.619892
 0.160000   -361.680281   1038.980981
 0.165000   -356.260518   1122.647510
 0.170000   -350.453806   1197.464060
 0.175000   -344.285878   1329.423493
 0.180000   -337.159571   1571.382032
 0.185000   -328.572057   1559.616921
 0.190000   -321.563402   1411.033157
 0.195000   -314.461726   1428.316580
 0.200000   -307.280236   1440.467270
 0.205000   -300.057053   1447.770916
 0.210000   -292.802527   1448.469721
 0.215000   -285.572356   1438.974705
 0.220000   -278.412780   1526.592895
 0.225000   -270.306427   1518.847301
 0.230000   -263.224307   1379.785970
 0.235000   -256.508567   1333.436627
 0.240000   -249.889941   1306.903278
 0.245000   -243.439534   1270.083646
 0.250000   -237.189104   1301.795857
 0.255000   -230.421576   1384.148693
 0.260000   -223.347617   1247.322050
 0.265000   -217.948355   1055.651319
 0.270000   -212.791104   1040.036680
 0.275000   -207.547989   1082.431848
 0.280000   -201.966786   1163.325914
 0.285000   -195.914729   1013.557616
 0.290000   -191.831210   773.922829
 0.295000   -188.175501   707.048594
 0.300000   -184.760724   657.797207
 0.305000   -181.597529   726.973758
 0.310000   -177.490986   661.790009
 0.315000   -174.979629   468.289968
 0.320000   -172.808086   408.676182
 0.325000   -170.892867   369.427412
 0.330000   -169.113812   307.421197
 0.335000   -167.818655   235.474379
 0.340000   -166.759068   199.123359
 0.345000   -165.827422   168.884334
 0.350000   -165.070225   171.371790
 0.355000   -164.113704   138.367127
 0.360000   -163.686554   52.723430
 0.365000   -163.586469   7.426208
 0.370000   -163.612292   -10.300439
 0.375000   -163.689474   -24.744299
 0.380000   -163.859735   -67.131862
 0.385000   -164.360792   -97.414105
 0.390000   -164.833876   -89.496248
 0.395000   -165.255755   -99.063521
 0.400000   -165.824511   -139.369013
 0.405000   -166.649445   -168.806079
 0.410000   -167.512572   -176.566258
 0.415000   -168.415108   -183.541678
 0.420000   -169.347989   -190.880001
 0.425000   -170.323908   -203.168580
 0.430000   -171.379674   -215.317674
 0.435000   -172.477084   -220.673147
 0.440000   -173.586406   -229.181426
 0.445000   -174.768899   -241.478899
 0.450000   -176.001195   -249.001880
 0.455000   -177.258917   -253.185707
 0.460000   -178.533052   -267.838961
 0.465000   -179.937307   -284.269450
 0.470000   -181.375746   -291.094705
 0.475000   -182.848254   -297.811342
 0.480000   -184.353860   -306.083368
 0.485000   -185.909088   -306.643725
 0.490000   -187.420297   -303.034440
 0.495000   -188.939432   -304.654220
 0.500000   -190.466839   -307.201897
 0.505000   -192.011451   -309.108454
 0.510000   -193.557924   -311.414282
 0.515000   -195.125594   -316.346089
 0.520000   -196.721385   -324.142598
 0.525000   -198.367020   -339.776128
 0.530000   -200.119146   -347.739608
 0.535000   -201.844416   -350.778358
 0.540000   -203.626930   -366.283795
 0.545000   -205.507254   -375.246546
 0.550000   -207.379395   -384.147949
 0.555000   -209.348733   -400.737560
 0.560000   -211.386771   -414.697446
 0.565000   -213.495708   -439.209952
 0.570000   -215.778870   -460.178661
 0.575000   -218.097494   -477.020268
 0.580000   -220.549073   -496.824157
 0.585000   -223.065736   -504.932131
 0.590000   -225.598394   -544.552771
 0.595000   -228.511264   -569.835904
 0.600000   -231.296753   -571.358067
 0.605000   -234.224844   -597.040683
 0.610000   -237.267160   -623.340998
 0.615000   -240.458254   -656.549821
 0.620000   -243.832658   -670.813045
 0.625000   -247.166385   -677.932960
 0.630000   -250.611988   -700.368872
 0.635000   -254.170074   -737.556225
 0.640000   -257.987550   -777.217871
 0.645000   -261.942252   -786.981044
 0.650000   -265.857361   -797.350519
 0.655000   -269.915758   -827.303913
 0.660000   -274.130400   -872.309590
 0.665000   -278.638853   -933.136558
 0.670000   -283.461765   -959.894528
 0.675000   -288.237799   -968.211189
 0.680000   -293.143877   -996.313829
 0.685000   -298.200937   -1030.608931
 0.690000   -303.449966   -1109.456883
 0.695000   -309.295506   -1150.191638
 0.700000   -314.951883   -1148.697764
 0.705000   -320.782483   -1185.223510
 0.710000   -326.804118   -1223.418730
 0.715000   -333.016671   -1265.484867
 0.720000   -339.458967   -1317.368217
 0.725000   -346.190353   -1337.755834
 0.730000   -352.836525   -1346.677073
 0.735000   -359.657124   -1382.994315
 0.740000   -366.666468   -1419.390656
 0.745000   -373.851030   -1449.630558
 0.750000   -381.162774   -1493.416409
 0.755000   -388.785194   -1538.924282
 0.760000   -396.552017   -1584.248744
 0.765000   -404.627682   -1653.575645
 0.770000   -413.087773   -1726.259999
 0.775000   -421.890282   -1787.133599
 0.780000   -430.959109   -1846.852820
 0.785000   -440.358810   -1905.457655
 0.790000   -450.013685   -1983.509788
 0.795000   -460.193908   -2076.282567
 0.800000   -470.776511   -2164.325042
 0.805000   -481.837158   -2265.917810
 0.810000   -493.435689   -2379.448835
 0.815000   -505.631647   -2505.904511
 0.820000   -518.494734   -2645.252259
 0.825000   -532.084169   -2770.718080
 0.830000   -546.201915   -2951.454571
 0.835000   -561.598715   -3179.098392
 0.840000   -577.992899   -3392.387931
 0.845000   -595.522594   -3624.163868
 0.850000   -614.234538   -3874.318831
 0.855000   -634.265782   -4158.248082
 0.860000   -655.817019   -4481.423921
 0.865000   -679.080022   -4855.243342
 0.870000   -704.369452   -5324.346012
 0.875000   -732.323482   -5904.606964
 0.880000   -763.415522   -6504.209653
 0.885000   -797.365578   -7115.168011
 0.890000   -834.567202   -7822.785608
 0.895000   -875.593434   -8596.754639
 0.900000   -920.534748   -9395.229100
 0.905000   -969.545725   -10196.031177
 0.910000   -1022.495060   -10913.912472
 0.915000   -1078.684850   -11376.866804
 0.920000   -1136.263728   -11392.244708
 0.925000   -1192.607297   -10846.139056
 0.930000   -1244.725119   -9914.046456
 0.935000   -1291.747762   -9413.642952
 0.940000   -1338.861548   -11227.032380
 0.945000   -1404.018086   -17995.944183
 0.950000   -1518.820990   -31968.442848
 0.955000   -1723.702514   -51212.108502
 0.960000   -2030.942075   -69925.280325
 0.965000   -2422.955317   -81941.342638
 0.970000   -2850.355501   -81420.077532
 0.975000   -3237.156093   -65367.019486
 0.980000   -3504.025696   -45610.149553
 0.985000   -3693.257588   -50194.566475
 0.990000   -4005.971361   -89853.241653
 0.995000   -4591.790005   -437827.032696
 1.000000   -8384.241688   -1079153.640559
201 psinorm omevb() domevb/dpsiN
 0.000000   67.287550   140.710494
 0.005000   67.772616   53.315729
 0.010000   67.820708   4.886112
 0.015000   67.821477   -2.426480
 0.020000   67.796443   -6.901613
 0.025000   67.752461   -10.541800
 0.030000   67.691025   -14.486649
 0.035000   67.607594   -18.079435
 0.040000   67.510230   -20.747712
 0.045000   67.400117   -23.285175
 0.050000   67.277379   -25.210580
 0.055000   67.148011   -26.243169
 0.060000   67.014947   -26.872785
 0.065000   66.879284   -27.169358
 0.070000   66.743253   -27.126468
 0.075000   66.608019   -26.845231
 0.080000   66.474801   -26.279121
 0.085000   66.345228   -25.206943
 0.090000   66.222732   -23.914160
 0.095000   66.106086   -22.584386
 0.100000   65.996888   -21.094353
 0.105000   65.895143   -19.541884
 0.110000   65.801469   -18.006775
 0.115000   65.715075   -16.377895
 0.120000   65.637690   -14.903187
 0.125000   65.566043   -13.743137
 0.130000   65.500259   -12.847361
 0.135000   65.437569   -12.252127
 0.140000   65.377737   -11.999123
 0.145000   65.317578   -11.882869
 0.150000   65.258909   -12.434315
 0.155000   65.193235   -13.774902
 0.160000   65.121160   -15.391771
 0.165000   65.039317   -17.550311
 0.170000   64.945657   -20.078081
 0.175000   64.838536   -23.340287
 0.180000   64.712254   -26.433673
 0.185000   64.574200   -28.825280
 0.190000   64.424001   -30.907231
 0.195000   64.265127   -32.684176
 0.200000   64.097159   -34.506553
 0.205000   63.920062   -36.825805
 0.210000   63.728901   -38.625825
 0.215000   63.533804   -39.473185
 0.220000   63.334169   -40.509635
 0.225000   63.128707   -41.557213
 0.230000   62.918597   -42.214847
 0.235000   62.706559   -42.932615
 0.240000   62.489271   -43.139330
 0.245000   62.275165   -42.741046
 0.250000   62.061860   -42.837613
 0.255000   61.846789   -43.155915
 0.260000   61.630301   -43.582548
 0.265000   61.410964   -44.034777
 0.270000   61.189954   -44.955536
 0.275000   60.961409   -47.134858
 0.280000   60.718605   -50.016312
 0.285000   60.461245   -53.043225
 0.290000   60.188173   -56.307663
 0.295000   59.898169   -59.635546
 0.300000   59.591817   -62.769513
 0.305000   59.270474   -65.526939
 0.310000   58.936548   -67.595737
 0.315000   58.594516   -68.871305
 0.320000   58.247835   -69.568488
 0.325000   57.898831   -70.290929
 0.330000   57.544926   -71.290752
 0.335000   57.185924   -71.954288
 0.340000   56.825383   -72.543295
 0.345000   56.460491   -73.384168
 0.350000   56.091541   -74.564463
 0.355000   55.714846   -76.045033
 0.360000   55.331091   -77.116569
 0.365000   54.943681   -78.276328
 0.370000   54.548327   -80.013088
 0.375000   54.143550   -82.440822
 0.380000   53.723919   -87.223915
 0.385000   53.271311   -94.726253
 0.390000   52.776657   -103.933597
 0.395000   52.231975   -115.447731
 0.400000   51.622179   -128.544202
 0.405000   50.946533   -142.095163
 0.410000   50.201228   -156.826579
 0.415000   49.378267   -169.935233
 0.420000   48.501875   -179.038750
 0.425000   47.587879   -185.554444
 0.430000   46.646331   -188.631807
 0.435000   45.701561   -187.148628
 0.440000   44.774845   -180.612471
 0.445000   43.895437   -169.779821
 0.450000   43.077046   -156.522328
 0.455000   42.330213   -141.723001
 0.460000   41.659816   -126.760801
 0.465000   41.062605   -112.396336
 0.470000   40.535853   -99.091758
 0.475000   40.071688   -88.562234
 0.480000   39.650231   -81.212874
 0.485000   39.259559   -76.087475
 0.490000   38.889356   -72.677840
 0.495000   38.532780   -70.747870
 0.500000   38.181877   -69.794598
 0.505000   37.834835   -69.091541
 0.510000   37.490962   -68.514073
 0.515000   37.149694   -67.956722
 0.520000   36.811395   -67.149446
 0.525000   36.478199   -65.997955
 0.530000   36.151415   -64.654513
 0.535000   35.831654   -62.848233
 0.540000   35.522933   -60.527793
 0.545000   35.226376   -57.836757
 0.550000   34.944565   -54.999085
 0.555000   34.676385   -52.442566
 0.560000   34.420140   -50.330820
 0.565000   34.173077   -48.654600
 0.570000   33.933594   -47.463343
 0.575000   33.698444   -46.682233
 0.580000   33.466771   -46.071160
 0.585000   33.237732   -45.976679
 0.590000   33.007004   -45.984390
 0.595000   32.777888   -45.582648
 0.600000   32.551178   -45.016963
 0.605000   32.327719   -44.032623
 0.610000   32.110852   -42.432509
 0.615000   31.903394   -40.474762
 0.620000   31.706104   -38.324617
 0.625000   31.520147   -36.276559
 0.630000   31.343338   -34.572315
 0.635000   31.174424   -33.271030
 0.640000   31.010628   -32.889950
 0.645000   30.845525   -33.607466
 0.650000   30.674554   -34.960796
 0.655000   30.495917   -36.512650
 0.660000   30.309427   -38.312343
 0.665000   30.112793   -40.562071
 0.670000   29.903806   -41.486143
 0.675000   29.697932   -41.504052
 0.680000   29.488766   -42.089933
 0.685000   29.277033   -42.613015
 0.690000   29.062636   -43.257413
 0.695000   28.844458   -43.982842
 0.700000   28.622807   -43.253109
 0.705000   28.411927   -41.981406
 0.710000   28.202993   -41.685863
 0.715000   27.995069   -41.594406
 0.720000   27.787049   -41.784578
 0.725000   27.577223   -41.933632
 0.730000   27.367713   -43.615803
 0.735000   27.141065   -47.390768
 0.740000   26.893805   -52.585823
 0.745000   26.615207   -59.867753
 0.750000   26.295128   -69.111079
 0.755000   25.924096   -79.813662
 0.760000   25.496991   -94.390029
 0.765000   24.980196   -112.099321
 0.770000   24.375998   -130.171154
 0.775000   23.678484   -148.891399
 0.780000   22.887084   -167.157774
 0.785000   22.006906   -184.417108
 0.790000   21.042913   -199.559124
 0.795000   20.011315   -210.891159
 0.800000   18.934001   -218.240452
 0.805000   17.828911   -221.916089
 0.810000   16.714840   -221.271120
 0.815000   15.616199   -216.607394
 0.820000   14.548766   -208.079497
 0.825000   13.535404   -197.852497
 0.830000   12.570241   -188.912088
 0.835000   11.646284   -181.620741
 0.840000   10.754034   -175.068079
 0.845000   9.895603   -170.389052
 0.850000   9.050143   -167.355991
 0.855000   8.222043   -164.693640
 0.860000   7.403207   -166.022046
 0.865000   6.561822   -175.423569
 0.870000   5.648971   -195.347094
 0.875000   4.608351   -231.084983
 0.880000   3.338121   -283.976691
 0.885000   1.768585   -351.924272
 0.890000   -0.181121   -441.029204
 0.895000   -2.641708   -555.611269
 0.900000   -5.737234   -694.902034
 0.905000   -9.590728   -866.996833
 0.910000   -14.407202   -1079.214296
 0.915000   -20.382871   -1343.298454
 0.920000   -27.840187   -1694.051139
 0.925000   -37.323382   -2153.409034
 0.930000   -49.374277   -2706.026737
 0.935000   -64.383650   -3301.434849
 0.940000   -82.388626   -3793.323375
 0.945000   -102.316883   -3918.460866
 0.950000   -121.573234   -3460.654454
 0.955000   -136.923428   -2342.186945
 0.960000   -144.995104   -665.905888
 0.965000   -143.582487   1224.786124
 0.970000   -132.747243   2884.588283
 0.975000   -114.736604   3961.558308
 0.980000   -93.131659   4302.350483
 0.985000   -71.713099   4008.165901
 0.990000   -53.050000   3343.994251
 0.995000   -38.273157   2573.313956
 1.000000   -27.316861   1809.204308
201 psinorm omepp() domepp/dpsiN
 0.000000   14.020105   10.631170
 0.005000   14.084140   14.982951
 0.010000   14.169934   17.036287
 0.015000   14.254503   16.790359
 0.020000   14.337838   16.542823
 0.025000   14.419931   16.293722
 0.030000   14.500775   16.043105
 0.035000   14.580362   15.791016
 0.040000   14.658685   15.537502
 0.045000   14.735737   15.282611
 0.050000   14.811511   15.026389
 0.055000   14.886001   14.768883
 0.060000   14.959200   14.510141
 0.065000   15.031102   14.250209
 0.070000   15.101702   13.989136
 0.075000   15.170994   13.726968
 0.080000   15.238972   13.463754
 0.085000   15.305631   13.199541
 0.090000   15.370967   12.934377
 0.095000   15.434975   12.668309
 0.100000   15.497650   12.401387
 0.105000   15.558989   12.133658
 0.110000   15.618987   11.865169
 0.115000   15.677641   11.595969
 0.120000   15.734947   11.326106
 0.125000   15.790902   11.055627
 0.130000   15.845503   10.784581
 0.135000   15.898747   10.513015
 0.140000   15.950633   10.240978
 0.145000   16.001157   9.968517
 0.150000   16.050318   9.695679
 0.155000   16.098114   9.422513
 0.160000   16.144543   9.149066
 0.165000   16.189605   8.875385
 0.170000   16.233297   8.601517
 0.175000   16.275620   8.327510
 0.180000   16.316572   8.053410
 0.185000   16.356154   7.779265
 0.190000   16.394365   7.505121
 0.195000   16.431205   7.231024
 0.200000   16.466675   6.957021
 0.205000   16.500775   6.683157
 0.210000   16.533507   6.409479
 0.215000   16.564870   6.136032
 0.220000   16.594867   5.862862
 0.225000   16.623499   5.590013
 0.230000   16.650767   5.317530
 0.235000   16.676674   5.045459
 0.240000   16.701222   4.773843
 0.245000   16.724413   4.502726
 0.250000   16.746249   4.232152
 0.255000   16.766734   3.962165
 0.260000   16.785871   3.692807
 0.265000   16.803662   3.424121
 0.270000   16.820112   3.156150
 0.275000   16.835224   2.888936
 0.280000   16.849001   2.622520
 0.285000   16.861449   2.356944
 0.290000   16.872571   2.092249
 0.295000   16.882371   1.828474
 0.300000   16.890855   1.565662
 0.305000   16.898028   1.303850
 0.310000   16.903894   1.043079
 0.315000   16.908459   0.783388
 0.320000   16.911728   0.524815
 0.325000   16.913707   0.267398
 0.330000   16.914402   0.011174
 0.335000   16.913819   -0.243818
 0.340000   16.911964   -0.497542
 0.345000   16.908843   -0.749963
 0.350000   16.904464   -1.001044
 0.355000   16.898833   -1.250749
 0.360000   16.891956   -1.499045
 0.365000   16.883842   -1.745896
 0.370000   16.874497   -1.991268
 0.375000   16.863930   -2.235129
 0.380000   16.852146   -2.477446
 0.385000   16.839155   -2.718186
 0.390000   16.824964   -2.957317
 0.395000   16.809582   -3.194807
 0.400000   16.793016   -3.430628
 0.405000   16.775276   -3.664747
 0.410000   16.756369   -3.897135
 0.415000   16.736304   -4.127763
 0.420000   16.715091   -4.356603
 0.425000   16.692738   -4.583627
 0.430000   16.669255   -4.808806
 0.435000   16.644650   -5.032114
 0.440000   16.618934   -5.253524
 0.445000   16.592115   -5.473011
 0.450000   16.564204   -5.690549
 0.455000   16.535210   -5.906115
 0.460000   16.505143   -6.119682
 0.465000   16.474013   -6.331229
 0.470000   16.441830   -6.540731
 0.475000   16.408605   -6.748168
 0.480000   16.374349   -6.953516
 0.485000   16.339070   -7.156755
 0.490000   16.302781   -7.357863
 0.495000   16.265492   -7.556822
 0.500000   16.227213   -7.753611
 0.505000   16.187955   -7.948212
 0.510000   16.147731   -8.140606
 0.515000   16.106549   -8.330776
 0.520000   16.064423   -8.518704
 0.525000   16.021362   -8.704374
 0.530000   15.977379   -8.887771
 0.535000   15.932485   -9.068879
 0.540000   15.886690   -9.247683
 0.545000   15.840008   -9.424169
 0.550000   15.792449   -9.598324
 0.555000   15.744025   -9.770135
 0.560000   15.694747   -9.939590
 0.565000   15.644629   -10.106678
 0.570000   15.593681   -10.271387
 0.575000   15.541915   -10.433707
 0.580000   15.489343   -10.593629
 0.585000   15.435979   -10.751145
 0.590000   15.381832   -10.906245
 0.595000   15.326916   -11.058924
 0.600000   15.271243   -11.209176
 0.605000   15.214824   -11.356994
 0.610000   15.157673   -11.502376
 0.615000   15.099801   -11.645319
 0.620000   15.041220   -11.785821
 0.625000   14.981942   -11.923885
 0.630000   14.921981   -12.059513
 0.635000   14.861347   -12.192712
 0.640000   14.800054   -12.323491
 0.645000   14.738112   -12.451864
 0.650000   14.675535   -12.577850
 0.655000   14.612334   -12.701476
 0.660000   14.548520   -12.822775
 0.665000   14.484106   -12.941794
 0.670000   14.419102   -13.058592
 0.675000   14.353520   -13.173247
 0.680000   14.287370   -13.285857
 0.685000   14.220662   -13.396553
 0.690000   14.153404   -13.505500
 0.695000   14.085607   -13.612912
 0.700000   14.017275   -13.719063
 0.705000   13.948416   -13.824304
 0.710000   13.879032   -13.929088
 0.715000   13.809125   -14.033990
 0.720000   13.738692   -14.139749
 0.725000   13.667728   -14.247306
 0.730000   13.596219   -14.357864
 0.735000   13.524149   -14.472951
 0.740000   13.451490   -14.594511
 0.745000   13.378204   -14.725009
 0.750000   13.304240   -14.867563
 0.755000   13.229528   -15.026112
 0.760000   13.153979   -15.205611
 0.765000   13.077472   -15.412276
 0.770000   12.999856   -15.653875
 0.775000   12.920933   -15.940074
 0.780000   12.840455   -16.282837
 0.785000   12.758105   -16.696886
 0.790000   12.673486   -17.200203
 0.795000   12.586103   -17.814567
 0.800000   12.495340   -18.566071
 0.805000   12.400442   -19.485564
 0.810000   12.300485   -20.608879
 0.815000   12.194353   -21.976688
 0.820000   12.080718   -23.633650
 0.825000   11.958017   -25.626426
 0.830000   11.824454   -27.999842
 0.835000   11.678018   -30.790171
 0.840000   11.516552   -34.013968
 0.845000   11.337879   -37.650194
 0.850000   11.140050   -41.612281
 0.855000   10.921756   -45.705341
 0.860000   10.682997   -49.561661
 0.865000   10.426139   -52.544925
 0.870000   10.157547   -53.610105
 0.875000   9.890038   -51.102044
 0.880000   9.646527   -42.472183
 0.885000   9.465317   -23.892236
 0.890000   9.407605   10.248677
 0.895000   9.567803   67.949236
 0.900000   10.087097   160.220017
 0.905000   11.170003   301.496242
 0.910000   13.102059   509.335719
 0.915000   16.263361   802.462885
 0.920000   21.126688   1195.685036
 0.925000   28.220211   1689.932657
 0.930000   38.026015   2256.598911
 0.935000   50.786200   2819.000503
 0.940000   66.216020   3241.062598
 0.945000   83.196826   3341.217293
 0.950000   99.628193   2947.861915
 0.955000   112.675445   1989.576504
 0.960000   119.523958   574.035594
 0.965000   118.415801   -1009.658378
 0.970000   109.427374   -2392.204068
 0.975000   94.493761   -3278.576026
 0.980000   76.641614   -3561.230829
 0.985000   58.881452   -3329.734125
 0.990000   43.344273   -2789.089123
 0.995000   30.990561   -2151.574212
 1.000000   21.828530   -1513.238022
201 psinorm kpol(km/s/T) dkpol/dpsiN
 0.000000   -0.002147   174.540179
 0.005000   0.693907   103.881267
 0.010000   1.036666   64.761832
 0.015000   1.341525   59.185407
 0.020000   1.628520   56.158251
 0.025000   1.903108   53.672911
 0.030000   2.165249   50.543959
 0.035000   2.408548   47.443389
 0.040000   2.639683   44.980194
 0.045000   2.858349   42.340705
 0.050000   3.063090   39.995100
 0.055000   3.258300   38.263254
 0.060000   3.445723   36.970332
 0.065000   3.628004   35.998443
 0.070000   3.805707   35.158707
 0.075000   3.979591   34.512238
 0.080000   4.150830   34.089190
 0.085000   4.320483   34.075461
 0.090000   4.491584   34.509486
 0.095000   4.665578   35.094438
 0.100000   4.842529   35.717241
 0.105000   5.022750   36.471994
 0.110000   5.207249   37.223723
 0.115000   5.394987   37.899054
 0.120000   5.586239   38.406516
 0.125000   5.779052   38.581358
 0.130000   5.972053   38.319469
 0.135000   6.162247   37.728752
 0.140000   6.349340   36.723075
 0.145000   6.529478   35.234509
 0.150000   6.701685   33.244190
 0.155000   6.861920   30.745292
 0.160000   7.009138   27.922644
 0.165000   7.141146   24.839452
 0.170000   7.257533   21.747198
 0.175000   7.358618   18.534847
 0.180000   7.442881   15.779016
 0.185000   7.516408   13.414387
 0.190000   7.577025   11.150428
 0.195000   7.627913   9.000951
 0.200000   7.667035   6.546555
 0.205000   7.693378   4.046832
 0.210000   7.707503   1.167409
 0.215000   7.705052   -2.043563
 0.220000   7.687067   -5.385653
 0.225000   7.651196   -9.058650
 0.230000   7.596481   -12.592728
 0.235000   7.525268   -16.160057
 0.240000   7.434880   -19.898226
 0.245000   7.326286   -23.519505
 0.250000   7.199685   -27.275844
 0.255000   7.053528   -31.079737
 0.260000   6.888888   -34.765520
 0.265000   6.705873   -38.529077
 0.270000   6.503597   -42.279820
 0.275000   6.283074   -46.012007
 0.280000   6.043477   -49.803117
 0.285000   5.785043   -53.537275
 0.290000   5.508104   -57.300459
 0.295000   5.212039   -61.016401
 0.300000   4.897940   -64.125438
 0.305000   4.570784   -66.577009
 0.310000   4.232170   -68.444685
 0.315000   3.886337   -69.500598
 0.320000   3.537164   -69.931237
 0.325000   3.187025   -70.284222
 0.330000   2.834322   -70.932673
 0.335000   2.477698   -71.947046
 0.340000   2.114851   -73.596319
 0.345000   1.741735   -75.872061
 0.350000   1.356131   -78.988019
 0.355000   0.951855   -82.744252
 0.360000   0.528688   -86.308073
 0.365000   0.088774   -89.607275
 0.370000   -0.367384   -92.813223
 0.375000   -0.839358   -96.401473
 0.380000   -1.331399   -102.444243
 0.385000   -1.863801   -111.580165
 0.390000   -2.447201   -122.836333
 0.395000   -3.092164   -136.010241
 0.400000   -3.807303   -150.539959
 0.405000   -4.597563   -165.752002
 0.410000   -5.464823   -182.173662
 0.415000   -6.419300   -196.415876
 0.420000   -7.428982   -205.474604
 0.425000   -8.474046   -210.243348
 0.430000   -9.531416   -209.879792
 0.435000   -10.572844   -203.648990
 0.440000   -11.567905   -190.515843
 0.445000   -12.478002   -171.874185
 0.450000   -13.286647   -150.351630
 0.455000   -13.981519   -127.491329
 0.460000   -14.561561   -105.229463
 0.465000   -15.033813   -84.286794
 0.470000   -15.404429   -65.282158
 0.475000   -15.686635   -50.302740
 0.480000   -15.907456   -39.639389
 0.485000   -16.083029   -31.780477
 0.490000   -16.225261   -26.054662
 0.495000   -16.343575   -22.243159
 0.500000   -16.447692   -19.456038
 0.505000   -16.538136   -16.725055
 0.510000   -16.614943   -13.932326
 0.515000   -16.677459   -10.878616
 0.520000   -16.723729   -7.263320
 0.525000   -16.750092   -2.947270
 0.530000   -16.753202   1.986937
 0.535000   -16.730223   7.544116
 0.540000   -16.677761   13.621672
 0.545000   -16.594006   19.931411
 0.550000   -16.478446   26.060868
 0.555000   -16.333398   31.671180
 0.560000   -16.161735   36.521463
 0.565000   -15.968183   40.262460
 0.570000   -15.759110   42.868154
 0.575000   -15.539501   44.425176
 0.580000   -15.314858   44.978690
 0.585000   -15.089714   44.341400
 0.590000   -14.871444   43.108848
 0.595000   -14.658626   41.931580
 0.600000   -14.452128   40.768734
 0.605000   -14.250939   39.795846
 0.610000   -14.054170   39.031914
 0.615000   -13.860620   38.575754
 0.620000   -13.668412   38.234667
 0.625000   -13.478273   37.742801
 0.630000   -13.290984   37.115776
 0.635000   -13.107115   36.352743
 0.640000   -12.927457   35.435242
 0.645000   -12.752763   34.411696
 0.650000   -12.583340   33.355195
 0.655000   -12.419211   32.271081
 0.660000   -12.260629   31.077887
 0.665000   -12.108432   29.713236
 0.670000   -11.963497   28.209680
 0.675000   -11.826335   26.465749
 0.680000   -11.698839   24.397797
 0.685000   -11.582357   21.984325
 0.690000   -11.478996   19.203479
 0.695000   -11.390322   16.120149
 0.700000   -11.317795   12.759493
 0.705000   -11.262727   9.208953
 0.710000   -11.225705   5.530487
 0.715000   -11.207422   1.788902
 0.720000   -11.207816   -1.910377
 0.725000   -11.226526   -5.495121
 0.730000   -11.262767   -8.951303
 0.735000   -11.316039   -12.613166
 0.740000   -11.388899   -17.006513
 0.745000   -11.486104   -22.649540
 0.750000   -11.615394   -30.094153
 0.755000   -11.787046   -39.908544
 0.760000   -12.014480   -53.211991
 0.765000   -12.319166   -69.775124
 0.770000   -12.712231   -88.321525
 0.775000   -13.202381   -108.203878
 0.780000   -13.794270   -128.387681
 0.785000   -14.486258   -147.477254
 0.790000   -15.269042   -164.068778
 0.795000   -16.126946   -175.694461
 0.800000   -17.025987   -180.816264
 0.805000   -17.935108   -179.784511
 0.810000   -18.823832   -173.029915
 0.815000   -19.665407   -161.087785
 0.820000   -20.434710   -144.059993
 0.825000   -21.106007   -125.136041
 0.830000   -21.686070   -107.565756
 0.835000   -22.181665   -91.226510
 0.840000   -22.598335   -76.419115
 0.845000   -22.945856   -63.644201
 0.850000   -23.234777   -53.457730
 0.855000   -23.480433   -44.802985
 0.860000   -23.682807   -36.250194
 0.865000   -23.842935   -27.812057
 0.870000   -23.960928   -19.818214
 0.875000   -24.041117   -10.774891
 0.880000   -24.068677   1.467757
 0.885000   -24.026440   18.071474
 0.890000   -23.887962   40.620082
 0.895000   -23.620239   70.643483
 0.900000   -23.181527   109.085242
 0.905000   -22.529387   157.828402
 0.910000   -21.603243   219.331272
 0.915000   -20.336074   279.683663
 0.920000   -18.806407   320.357049
 0.925000   -17.132503   327.506206
 0.930000   -15.531345   289.647621
 0.935000   -14.236027   195.827420
 0.940000   -13.573070   63.151998
 0.945000   -13.604507   -43.982939
 0.950000   -14.012900   -53.729830
 0.955000   -14.141806   69.718695
 0.960000   -13.315713   299.349107
 0.965000   -11.148315   548.821758
 0.970000   -7.827495   710.068488
 0.975000   -4.047630   721.134463
 0.980000   -0.616151   584.613859
 0.985000   1.798509   353.559312
 0.990000   2.919443   109.599062
 0.995000   2.894500   -76.394092
 1.000000   2.155502   -219.205083
201 psinorm omghb() domghb/dpsiN
 0.000000   -0.000105   -0.003217
 0.005000   -0.000236   -0.049224
 0.010000   -0.000597   -0.037525
 0.015000   -0.000611   0.006272
 0.020000   -0.000534   0.025046
 0.025000   -0.000361   0.036901
 0.030000   -0.000165   0.053991
 0.035000   0.000179   0.077326
 0.040000   0.000608   0.089491
 0.045000   0.001074   0.092238
 0.050000   0.001530   0.084373
 0.055000   0.001918   0.068703
 0.060000   0.002217   0.058758
 0.065000   0.002505   0.044444
 0.070000   0.002662   0.043058
 0.075000   0.002936   0.039227
 0.080000   0.003054   0.018438
 0.085000   0.003120   -0.004868
 0.090000   0.003005   -0.021402
 0.095000   0.002906   -0.044914
 0.100000   0.002556   -0.062716
 0.105000   0.002279   -0.052445
 0.110000   0.002032   -0.059163
 0.115000   0.001688   -0.066781
 0.120000   0.001364   -0.063810
 0.125000   0.001050   -0.066652
 0.130000   0.000698   -0.045029
 0.135000   0.000599   0.000433
 0.140000   0.000702   0.036465
 0.145000   0.000964   0.061416
 0.150000   0.001316   0.105833
 0.155000   0.002022   0.142206
 0.160000   0.002738   0.228223
 0.165000   0.004304   0.336809
 0.170000   0.006106   0.367457
 0.175000   0.007979   0.376845
 0.180000   0.009875   0.363656
 0.185000   0.011616   0.374223
 0.190000   0.013617   0.383650
 0.195000   0.015452   0.312572
 0.200000   0.016743   0.289016
 0.205000   0.018342   0.311679
 0.210000   0.019859   0.318743
 0.215000   0.021530   0.335503
 0.220000   0.023214   0.352687
 0.225000   0.025057   0.215817
 0.230000   0.025373   0.126189
 0.235000   0.026318   0.190935
 0.240000   0.027282   0.177036
 0.245000   0.028089   0.170832
 0.250000   0.028990   0.155887
 0.255000   0.029648   0.148871
 0.260000   0.030479   0.225636
 0.265000   0.031904   0.327611
 0.270000   0.033755   0.411269
 0.275000   0.036017   0.509282
 0.280000   0.038848   0.578321
 0.285000   0.041800   0.740791
 0.290000   0.046256   0.835908
 0.295000   0.050159   0.756892
 0.300000   0.053825   0.692166
 0.305000   0.057081   0.580517
 0.310000   0.059630   0.523895
 0.315000   0.062320   0.434008
 0.320000   0.063970   0.329026
 0.325000   0.065610   0.334509
 0.330000   0.067315   0.322708
 0.335000   0.068837   0.363351
 0.340000   0.070949   0.474594
 0.345000   0.073583   0.385666
 0.350000   0.074805   0.354555
 0.355000   0.077128   0.493832
 0.360000   0.079744   0.523069
 0.365000   0.082359   0.535066
 0.370000   0.085094   0.562027
 0.375000   0.087979   0.934741
 0.380000   0.094442   1.514924
 0.385000   0.103129   1.967059
 0.390000   0.114112   2.587026
 0.395000   0.128999   3.194552
 0.400000   0.146058   3.288553
 0.405000   0.161884   3.268208
 0.410000   0.178740   3.273133
 0.415000   0.194616   2.916917
 0.420000   0.207909   2.437038
 0.425000   0.218986   1.611025
 0.430000   0.224019   0.395555
 0.435000   0.222942   -0.659640
 0.440000   0.217423   -1.525625
 0.445000   0.207685   -2.341910
 0.450000   0.194004   -3.177231
 0.455000   0.175913   -3.558758
 0.460000   0.158416   -3.311201
 0.465000   0.142801   -2.966484
 0.470000   0.128751   -2.536636
 0.475000   0.117435   -1.971550
 0.480000   0.109036   -1.483425
 0.485000   0.102600   -0.936502
 0.490000   0.099671   -0.416118
 0.495000   0.098439   -0.163516
 0.500000   0.098036   -0.058238
 0.505000   0.097857   -0.023089
 0.510000   0.097805   0.061060
 0.515000   0.098468   0.043130
 0.520000   0.098236   -0.099037
 0.525000   0.097477   -0.186735
 0.530000   0.096369   -0.294790
 0.535000   0.094529   -0.441760
 0.540000   0.091951   -0.525489
 0.545000   0.089274   -0.534444
 0.550000   0.086607   -0.554259
 0.555000   0.083732   -0.501553
 0.560000   0.081591   -0.440904
 0.565000   0.079323   -0.314884
 0.570000   0.078442   -0.119351
 0.575000   0.078129   -0.023315
 0.580000   0.078209   0.038698
 0.585000   0.078516   0.133926
 0.590000   0.079548   0.045592
 0.595000   0.078972   -0.052869
 0.600000   0.079020   -0.082389
 0.605000   0.078148   -0.273200
 0.610000   0.076288   -0.406226
 0.615000   0.074086   -0.420034
 0.620000   0.072087   -0.475611
 0.625000   0.069330   -0.472545
 0.630000   0.067362   -0.356764
 0.635000   0.065762   -0.201519
 0.640000   0.065347   0.068568
 0.645000   0.066448   0.561507
 0.650000   0.070962   0.735394
 0.655000   0.073802   0.513532
 0.660000   0.076097   0.437635
 0.665000   0.078178   0.407900
 0.670000   0.080176   0.386909
 0.675000   0.082047   0.654064
 0.680000   0.086717   0.392151
 0.685000   0.085969   -0.090071
 0.690000   0.085816   0.039885
 0.695000   0.086368   0.113926
 0.700000   0.086955   0.088806
 0.705000   0.087256   0.038829
 0.710000   0.087344   -0.150990
 0.715000   0.085746   -0.106077
 0.720000   0.086283   0.261367
 0.725000   0.088359   0.650490
 0.730000   0.092788   1.045886
 0.735000   0.098818   1.211713
 0.740000   0.104905   1.755861
 0.745000   0.116377   2.927501
 0.750000   0.134180   3.772343
 0.755000   0.154100   4.469503
 0.760000   0.178875   5.182938
 0.765000   0.205930   5.680918
 0.770000   0.235684   6.369950
 0.775000   0.269629   6.757940
 0.780000   0.303263   6.265184
 0.785000   0.332281   5.590179
 0.790000   0.359165   4.886015
 0.795000   0.381141   3.858392
 0.800000   0.397749   2.564170
 0.805000   0.406783   0.819788
 0.810000   0.405947   -0.620388
 0.815000   0.400579   -1.359211
 0.820000   0.392355   -1.917336
 0.825000   0.381406   -2.031730
 0.830000   0.372038   -1.543252
 0.835000   0.365973   -1.474930
 0.840000   0.357288   -1.143351
 0.845000   0.354540   0.053935
 0.850000   0.357828   0.899916
 0.855000   0.363539   1.726983
 0.860000   0.375098   4.013327
 0.865000   0.403672   5.721195
 0.870000   0.432309   8.393136
 0.875000   0.487603   13.125582
 0.880000   0.563565   16.862631
 0.885000   0.656230   19.467141
 0.890000   0.758237   22.786992
 0.895000   0.884100   19.396155
 0.900000   0.952198   11.913982
 0.905000   1.003240   5.061555
 0.910000   1.002814   -4.595925
 0.915000   0.957280   -11.486715
 0.920000   0.887947   -7.920655
 0.925000   0.878074   -7.007961
 0.930000   0.817867   -0.282503
 0.935000   0.875249   17.403246
 0.940000   0.991900   20.846891
 0.945000   1.083718   3.836815
 0.950000   1.030268   -27.965129
 0.955000   0.804066   -84.371624
 0.960000   0.186551   -128.852745
 0.965000   -0.484461   -125.346679
 0.970000   -1.066915   -94.918998
 0.975000   -1.433651   -47.693739
 0.980000   -1.543853   -1.426568
 0.985000   -1.447917   34.898345
 0.990000   -1.194869   56.680531
 0.995000   -0.881111   56.823194
 1.000000   -0.626637   44.966450
201 psinorm nz1(10^20/m^3) dnz1/dpsiN
 0.000000   0.043335   0.000008
 0.005000   0.043332   -0.000990
 0.010000   0.043325   -0.001995
 0.015000   0.043313   -0.003013
 0.020000   0.043295   -0.004039
 0.025000   0.043272   -0.005068
 0.030000   0.043244   -0.006094
 0.035000   0.043211   -0.007110
 0.040000   0.043173   -0.008108
 0.045000   0.043130   -0.009081
 0.050000   0.043082   -0.010027
 0.055000   0.043030   -0.010941
 0.060000   0.042973   -0.011817
 0.065000   0.042912   -0.012655
 0.070000   0.042846   -0.013447
 0.075000   0.042777   -0.014195
 0.080000   0.042704   -0.014901
 0.085000   0.042628   -0.015565
 0.090000   0.042549   -0.016187
 0.095000   0.042466   -0.016765
 0.100000   0.042381   -0.017299
 0.105000   0.042293   -0.017787
 0.110000   0.042203   -0.018228
 0.115000   0.042111   -0.018621
 0.120000   0.042017   -0.018967
 0.125000   0.041921   -0.019264
 0.130000   0.041824   -0.019513
 0.135000   0.041726   -0.019711
 0.140000   0.041627   -0.019857
 0.145000   0.041528   -0.019951
 0.150000   0.041428   -0.019994
 0.155000   0.041328   -0.019985
 0.160000   0.041228   -0.019926
 0.165000   0.041128   -0.019815
 0.170000   0.041030   -0.019654
 0.175000   0.040932   -0.019447
 0.180000   0.040835   -0.019196
 0.185000   0.040740   -0.018908
 0.190000   0.040646   -0.018593
 0.195000   0.040554   -0.018261
 0.200000   0.040464   -0.017907
 0.205000   0.040375   -0.017523
 0.210000   0.040288   -0.017106
 0.215000   0.040204   -0.016653
 0.220000   0.040122   -0.016163
 0.225000   0.040042   -0.015636
 0.230000   0.039965   -0.015054
 0.235000   0.039892   -0.014414
 0.240000   0.039821   -0.013722
 0.245000   0.039755   -0.012981
 0.250000   0.039692   -0.012194
 0.255000   0.039633   -0.011361
 0.260000   0.039578   -0.010487
 0.265000   0.039528   -0.009582
 0.270000   0.039482   -0.008654
 0.275000   0.039441   -0.007713
 0.280000   0.039405   -0.006765
 0.285000   0.039374   -0.005816
 0.290000   0.039347   -0.004879
 0.295000   0.039325   -0.003965
 0.300000   0.039307   -0.003073
 0.305000   0.039294   -0.002202
 0.310000   0.039285   -0.001351
 0.315000   0.039280   -0.000517
 0.320000   0.039280   0.000304
 0.325000   0.039284   0.001115
 0.330000   0.039291   0.001916
 0.335000   0.039303   0.002702
 0.340000   0.039318   0.003470
 0.345000   0.039337   0.004212
 0.350000   0.039360   0.004922
 0.355000   0.039387   0.005589
 0.360000   0.039416   0.006208
 0.365000   0.039449   0.006773
 0.370000   0.039484   0.007278
 0.375000   0.039521   0.007715
 0.380000   0.039561   0.008081
 0.385000   0.039602   0.008380
 0.390000   0.039645   0.008613
 0.395000   0.039688   0.008783
 0.400000   0.039733   0.008895
 0.405000   0.039777   0.008953
 0.410000   0.039822   0.008964
 0.415000   0.039867   0.008932
 0.420000   0.039912   0.008850
 0.425000   0.039956   0.008714
 0.430000   0.039999   0.008520
 0.435000   0.040041   0.008264
 0.440000   0.040081   0.007933
 0.445000   0.040120   0.007511
 0.450000   0.040156   0.006993
 0.455000   0.040190   0.006382
 0.460000   0.040220   0.005680
 0.465000   0.040247   0.004889
 0.470000   0.040269   0.004014
 0.475000   0.040287   0.003065
 0.480000   0.040300   0.002054
 0.485000   0.040307   0.000991
 0.490000   0.040310   -0.000114
 0.495000   0.040306   -0.001251
 0.500000   0.040297   -0.002412
 0.505000   0.040282   -0.003594
 0.510000   0.040261   -0.004798
 0.515000   0.040234   -0.006026
 0.520000   0.040201   -0.007279
 0.525000   0.040161   -0.008562
 0.530000   0.040115   -0.009885
 0.535000   0.040063   -0.011249
 0.540000   0.040003   -0.012642
 0.545000   0.039936   -0.014057
 0.550000   0.039862   -0.015484
 0.555000   0.039781   -0.016915
 0.560000   0.039693   -0.018340
 0.565000   0.039598   -0.019749
 0.570000   0.039496   -0.021139
 0.575000   0.039387   -0.022509
 0.580000   0.039271   -0.023859
 0.585000   0.039148   -0.025190
 0.590000   0.039019   -0.026501
 0.595000   0.038883   -0.027791
 0.600000   0.038741   -0.029055
 0.605000   0.038592   -0.030289
 0.610000   0.038438   -0.031490
 0.615000   0.038277   -0.032653
 0.620000   0.038111   -0.033780
 0.625000   0.037940   -0.034861
 0.630000   0.037763   -0.035879
 0.635000   0.037581   -0.036845
 0.640000   0.037394   -0.037799
 0.645000   0.037203   -0.038811
 0.650000   0.037006   -0.040089
 0.655000   0.036802   -0.041708
 0.660000   0.036589   -0.043547
 0.665000   0.036367   -0.045566
 0.670000   0.036133   -0.047725
 0.675000   0.035889   -0.049962
 0.680000   0.035634   -0.052359
 0.685000   0.035366   -0.054708
 0.690000   0.035087   -0.056682
 0.695000   0.034799   -0.058299
 0.700000   0.034504   -0.059537
 0.705000   0.034203   -0.060327
 0.710000   0.033900   -0.060614
 0.715000   0.033597   -0.060261
 0.720000   0.033298   -0.059234
 0.725000   0.033005   -0.057660
 0.730000   0.032721   -0.055626
 0.735000   0.032449   -0.053212
 0.740000   0.032189   -0.050410
 0.745000   0.031945   -0.047359
 0.750000   0.031716   -0.044411
 0.755000   0.031501   -0.041672
 0.760000   0.031299   -0.039118
 0.765000   0.031109   -0.036792
 0.770000   0.030931   -0.034708
 0.775000   0.030762   -0.032943
 0.780000   0.030601   -0.031554
 0.785000   0.030447   -0.030410
 0.790000   0.030297   -0.029370
 0.795000   0.030153   -0.028372
 0.800000   0.030014   -0.027387
 0.805000   0.029879   -0.026419
 0.810000   0.029749   -0.025492
 0.815000   0.029624   -0.024622
 0.820000   0.029503   -0.023811
 0.825000   0.029386   -0.023060
 0.830000   0.029273   -0.022369
 0.835000   0.029162   -0.021737
 0.840000   0.029055   -0.021212
 0.845000   0.028950   -0.020860
 0.850000   0.028847   -0.020720
 0.855000   0.028743   -0.020809
 0.860000   0.028639   -0.021152
 0.865000   0.028532   -0.021847
 0.870000   0.028420   -0.022899
 0.875000   0.028303   -0.024350
 0.880000   0.028177   -0.026369
 0.885000   0.028039   -0.029090
 0.890000   0.027886   -0.032725
 0.895000   0.027712   -0.038148
 0.900000   0.027504   -0.045728
 0.905000   0.027254   -0.055742
 0.910000   0.026947   -0.069484
 0.915000   0.026560   -0.088445
 0.920000   0.026062   -0.114568
 0.925000   0.025414   -0.152461
 0.930000   0.024538   -0.202962
 0.935000   0.023384   -0.264326
 0.940000   0.021894   -0.335549
 0.945000   0.020029   -0.409923
 0.950000   0.017795   -0.475438
 0.955000   0.015274   -0.519682
 0.960000   0.012598   -0.526547
 0.965000   0.010009   -0.489679
 0.970000   0.007702   -0.421537
 0.975000   0.005794   -0.338817
 0.980000   0.004313   -0.257253
 0.985000   0.003221   -0.186988
 0.990000   0.002444   -0.132045
 0.995000   0.001901   -0.092275
 1.000000   0.001521   -0.059610
201 psinorm vtor1(km/s) dvtor1/dpsiN
 0.000000   142.762221   700.572742
 0.005000   145.480826   386.869215
 0.010000   146.630913   202.596938
 0.015000   147.506795   160.234335
 0.020000   148.233256   135.691517
 0.025000   148.863710   119.903980
 0.030000   149.432296   108.785379
 0.035000   149.951564   99.433117
 0.040000   150.426627   91.683080
 0.045000   150.868395   85.527667
 0.050000   151.281904   80.133760
 0.055000   151.669732   75.150359
 0.060000   152.033408   70.746727
 0.065000   152.377200   66.907925
 0.070000   152.702487   63.239412
 0.075000   153.009594   59.785803
 0.080000   153.300345   56.643117
 0.085000   153.576025   53.678556
 0.090000   153.837130   50.728544
 0.095000   154.083310   47.907168
 0.100000   154.316202   45.251323
 0.105000   154.535824   42.558910
 0.110000   154.741791   39.785709
 0.115000   154.933681   37.065060
 0.120000   155.112442   34.359399
 0.125000   155.277275   31.512889
 0.130000   155.427571   28.657633
 0.135000   155.563851   25.813182
 0.140000   155.685703   22.913721
 0.145000   155.792988   19.988546
 0.150000   155.885588   17.067831
 0.155000   155.963667   14.155478
 0.160000   156.027143   11.213564
 0.165000   156.075802   8.325357
 0.170000   156.110396   5.543000
 0.175000   156.131232   2.809110
 0.180000   156.138487   0.119562
 0.185000   156.132428   -2.445753
 0.190000   156.114030   -4.778630
 0.195000   156.084642   -6.835659
 0.200000   156.045673   -8.663961
 0.205000   155.998002   -10.278282
 0.210000   155.942890   -11.660334
 0.215000   155.881399   -12.855787
 0.220000   155.814333   -13.793350
 0.225000   155.743465   -14.385212
 0.230000   155.670480   -14.875414
 0.235000   155.594711   -15.374559
 0.240000   155.516735   -15.773486
 0.245000   155.436976   -16.127264
 0.250000   155.355462   -16.520390
 0.255000   155.271772   -16.970145
 0.260000   155.185761   -17.642417
 0.265000   155.095348   -18.647821
 0.270000   154.999283   -19.881591
 0.275000   154.896532   -21.278035
 0.280000   154.786502   -22.767856
 0.285000   154.668854   -24.332591
 0.290000   154.543176   -25.878331
 0.295000   154.410070   -27.344996
 0.300000   154.269726   -28.765494
 0.305000   154.122415   -30.135652
 0.310000   153.968370   -31.434968
 0.315000   153.808066   -32.638294
 0.320000   153.641987   -33.758392
 0.325000   153.470482   -34.788657
 0.330000   153.294100   -35.704535
 0.335000   153.113436   -36.514765
 0.340000   152.928953   -37.241211
 0.345000   152.741024   -37.828244
 0.350000   152.550670   -38.293766
 0.355000   152.358087   -38.708684
 0.360000   152.163583   -39.057068
 0.365000   151.967516   -39.355574
 0.370000   151.770028   -39.654945
 0.375000   151.570967   -40.110212
 0.380000   151.368926   -41.030228
 0.385000   151.160664   -42.571493
 0.390000   150.943211   -44.702129
 0.395000   150.713643   -47.404648
 0.400000   150.469164   -50.654595
 0.405000   150.207097   -54.715246
 0.410000   149.922012   -59.419417
 0.415000   149.612903   -64.197050
 0.420000   149.280041   -69.021922
 0.425000   148.922684   -73.954531
 0.430000   148.540496   -78.894235
 0.435000   148.133741   -83.928219
 0.440000   147.701214   -88.806813
 0.445000   147.245673   -93.001158
 0.450000   146.771202   -96.505495
 0.455000   146.280618   -99.415579
 0.460000   145.777046   -101.657224
 0.465000   145.264046   -103.094805
 0.470000   144.746098   -103.626567
 0.475000   144.227780   -103.642000
 0.480000   143.709678   -103.657489
 0.485000   143.191205   -103.867822
 0.490000   142.671000   -104.390363
 0.495000   142.147302   -105.318437
 0.500000   141.617816   -106.814200
 0.505000   141.079160   -108.789690
 0.510000   140.529919   -111.062778
 0.515000   139.968532   -113.641370
 0.520000   139.393505   -116.494528
 0.525000   138.803587   -119.656333
 0.530000   138.196942   -123.278679
 0.535000   137.570800   -126.874630
 0.540000   136.928195   -130.087312
 0.545000   136.269927   -133.110090
 0.550000   135.597095   -135.864200
 0.555000   134.911285   -138.300752
 0.560000   134.214087   -140.475813
 0.565000   133.506527   -141.963841
 0.570000   132.794449   -142.578366
 0.575000   132.080743   -142.620071
 0.580000   131.368248   -142.091104
 0.585000   130.659832   -141.003437
 0.590000   129.958214   -139.259524
 0.595000   129.267237   -136.914098
 0.600000   128.589073   -134.189686
 0.605000   127.925340   -131.176527
 0.610000   127.277307   -127.942379
 0.615000   126.645916   -124.564698
 0.620000   126.031660   -120.838711
 0.625000   125.437529   -117.237116
 0.630000   124.859289   -114.297101
 0.635000   124.294558   -111.844503
 0.640000   123.740844   -109.930429
 0.645000   123.195254   -108.604074
 0.650000   122.654803   -107.809241
 0.655000   122.117161   -107.326806
 0.660000   121.581535   -106.861615
 0.665000   121.048545   -106.334285
 0.670000   120.518192   -105.872311
 0.675000   119.989822   -105.602106
 0.680000   119.462171   -105.595495
 0.685000   118.933867   -105.986531
 0.690000   118.402306   -106.860423
 0.695000   117.865263   -108.164918
 0.700000   117.320657   -109.885075
 0.705000   116.766412   -112.031856
 0.710000   116.200338   -114.722131
 0.715000   115.619191   -118.005892
 0.720000   115.020279   -121.902728
 0.725000   114.400163   -126.703606
 0.730000   113.753243   -132.707336
 0.735000   113.073090   -139.987481
 0.740000   112.353369   -148.845417
 0.745000   111.584636   -159.029575
 0.750000   110.763073   -169.500187
 0.755000   109.889634   -180.027116
 0.760000   108.962802   -190.748664
 0.765000   107.982147   -201.449115
 0.770000   106.948310   -212.150524
 0.775000   105.860642   -222.506425
 0.780000   104.723246   -231.788424
 0.785000   103.542758   -240.433907
 0.790000   102.318907   -249.295502
 0.795000   101.049803   -258.585387
 0.800000   99.733053   -268.683173
 0.805000   98.362971   -279.726063
 0.810000   96.935793   -289.750192
 0.815000   95.465469   -297.603213
 0.820000   93.959761   -303.991593
 0.825000   92.425553   -309.190816
 0.830000   90.867852   -314.172215
 0.835000   89.283831   -320.854450
 0.840000   87.659308   -327.247920
 0.845000   86.011352   -331.809731
 0.850000   84.341211   -336.939051
 0.855000   82.641961   -344.930155
 0.860000   80.891909   -359.690732
 0.865000   79.045054   -387.643232
 0.870000   77.015477   -431.994779
 0.875000   74.725106   -496.032650
 0.880000   72.055150   -584.441378
 0.885000   68.880693   -696.003487
 0.890000   65.095115   -824.048747
 0.895000   60.640205   -956.741058
 0.900000   55.527705   -1072.601477
 0.905000   49.914190   -1148.686464
 0.910000   44.040840   -1169.063399
 0.915000   38.223556   -1124.280053
 0.920000   32.798040   -1016.803916
 0.925000   28.055517   -857.579066
 0.930000   24.222249   -672.880818
 0.935000   21.326709   -491.863935
 0.940000   19.303610   -331.936622
 0.945000   18.007343   -205.318125
 0.950000   17.250428   -116.502741
 0.955000   16.842315   -63.129764
 0.960000   16.619131   -39.175575
 0.965000   16.450560   -36.741405
 0.970000   16.251717   -47.720588
 0.975000   15.973354   -65.741703
 0.980000   15.594300   -86.010938
 0.985000   15.113244   -104.825682
 0.990000   14.546043   -121.326563
 0.995000   13.899979   -136.330602
 1.000000   13.182737   -150.566206
201 psinorm vpol1(km/s) dvpol1/dpsiN
 0.000000   -0.000016   5.921875
 0.005000   0.031406   6.646875
 0.010000   0.066453   7.384375
 0.015000   0.105250   8.070312
 0.020000   0.147156   8.639062
 0.025000   0.191641   9.109375
 0.030000   0.238250   9.396875
 0.035000   0.285609   9.550000
 0.040000   0.333750   9.676563
 0.045000   0.382375   9.717188
 0.050000   0.430922   9.728125
 0.055000   0.479656   9.762500
 0.060000   0.528547   9.828125
 0.065000   0.577937   9.915625
 0.070000   0.627703   9.993750
 0.075000   0.677875   10.090625
 0.080000   0.728609   10.207813
 0.085000   0.779953   10.392188
 0.090000   0.832531   10.650000
 0.095000   0.886453   10.932812
 0.100000   0.941859   11.239063
 0.105000   0.998844   11.564063
 0.110000   1.057500   11.892187
 0.115000   1.117766   12.207812
 0.120000   1.179578   12.496875
 0.125000   1.242734   12.701563
 0.130000   1.306594   12.810938
 0.135000   1.370844   12.842187
 0.140000   1.435016   12.762500
 0.145000   1.498469   12.557813
 0.150000   1.560594   12.212500
 0.155000   1.620594   11.731250
 0.160000   1.677906   11.131250
 0.165000   1.731906   10.451562
 0.170000   1.782422   9.729688
 0.175000   1.829203   8.964063
 0.180000   1.872062   8.264063
 0.185000   1.911844   7.639062
 0.190000   1.948453   7.045312
 0.195000   1.982297   6.437500
 0.200000   2.012828   5.759375
 0.205000   2.039891   5.025000
 0.210000   2.063078   4.176563
 0.215000   2.081656   3.235937
 0.220000   2.095438   2.210937
 0.225000   2.103766   1.109375
 0.230000   2.106531   -0.007812
 0.235000   2.103687   -1.160938
 0.240000   2.094922   -2.339062
 0.245000   2.080297   -3.545312
 0.250000   2.059469   -4.796875
 0.255000   2.032328   -6.065625
 0.260000   1.998813   -7.345313
 0.265000   1.958875   -8.635938
 0.270000   1.912453   -9.950000
 0.275000   1.859375   -11.290625
 0.280000   1.799547   -12.625000
 0.285000   1.733125   -13.982813
 0.290000   1.659719   -15.371875
 0.295000   1.579406   -16.718750
 0.300000   1.492531   -17.921875
 0.305000   1.400187   -18.935937
 0.310000   1.303172   -19.737500
 0.315000   1.202813   -20.315625
 0.320000   1.100016   -20.700000
 0.325000   0.995812   -21.026562
 0.330000   0.889750   -21.459375
 0.335000   0.781219   -22.006250
 0.340000   0.669687   -22.732812
 0.345000   0.553891   -23.668750
 0.350000   0.433000   -24.878125
 0.355000   0.305109   -26.287500
 0.360000   0.170125   -27.643750
 0.365000   0.028672   -28.920312
 0.370000   -0.119078   -30.168750
 0.375000   -0.273016   -31.545312
 0.380000   -0.434531   -33.723437
 0.385000   -0.610250   -36.929687
 0.390000   -0.803828   -40.860937
 0.395000   -1.018859   -45.431250
 0.400000   -1.258141   -50.481250
 0.405000   -1.523672   -55.814062
 0.410000   -1.816281   -61.548437
 0.415000   -2.139156   -66.578125
 0.420000   -2.482063   -69.939063
 0.425000   -2.838547   -71.850000
 0.430000   -3.200563   -72.003125
 0.435000   -3.558578   -70.200000
 0.440000   -3.902563   -66.060937
 0.445000   -4.219188   -59.951562
 0.450000   -4.502078   -52.827344
 0.455000   -4.747461   -45.264844
 0.460000   -4.954727   -37.785156
 0.465000   -5.125312   -30.685156
 0.470000   -5.261578   -24.272656
 0.475000   -5.368039   -19.190625
 0.480000   -5.453484   -15.504688
 0.485000   -5.523086   -12.791406
 0.490000   -5.581398   -10.852344
 0.495000   -5.631609   -9.496875
 0.500000   -5.676367   -8.479688
 0.505000   -5.716406   -7.542969
 0.510000   -5.751797   -6.564062
 0.515000   -5.782047   -5.452344
 0.520000   -5.806320   -4.164844
 0.525000   -5.823695   -2.666406
 0.530000   -5.832984   -0.902344
 0.535000   -5.832719   1.092969
 0.540000   -5.822055   3.232812
 0.545000   -5.800391   5.467969
 0.550000   -5.767375   7.675000
 0.555000   -5.723641   9.694531
 0.560000   -5.670430   11.427344
 0.565000   -5.609367   12.797656
 0.570000   -5.542453   13.779688
 0.575000   -5.471570   14.373438
 0.580000   -5.398719   14.610156
 0.585000   -5.325469   14.443750
 0.590000   -5.254281   14.063281
 0.595000   -5.184836   13.682813
 0.600000   -5.117453   13.312500
 0.605000   -5.051711   13.014844
 0.610000   -4.987305   12.782812
 0.615000   -4.923883   12.652344
 0.620000   -4.860781   12.569531
 0.625000   -4.798188   12.433594
 0.630000   -4.736445   12.241406
 0.635000   -4.675773   11.999219
 0.640000   -4.616453   11.705469
 0.645000   -4.558719   11.371875
 0.650000   -4.502734   11.020312
 0.655000   -4.448516   10.659375
 0.660000   -4.396141   10.260156
 0.665000   -4.345914   9.796094
 0.670000   -4.298180   9.278516
 0.675000   -4.253129   8.675000
 0.680000   -4.211430   7.953906
 0.685000   -4.173590   7.103516
 0.690000   -4.140395   6.116797
 0.695000   -4.112422   5.021875
 0.700000   -4.090176   3.823438
 0.705000   -4.074187   2.548828
 0.710000   -4.064687   1.225000
 0.715000   -4.061937   -0.120703
 0.720000   -4.065895   -1.455859
 0.725000   -4.076496   -2.758203
 0.730000   -4.093477   -4.014062
 0.735000   -4.116637   -5.342578
 0.740000   -4.146902   -6.944531
 0.745000   -4.186082   -9.012109
 0.750000   -4.237023   -11.735547
 0.755000   -4.303438   -15.325000
 0.760000   -4.390273   -20.206445
 0.765000   -4.505502   -26.299219
 0.770000   -4.653266   -33.118750
 0.775000   -4.836689   -40.436328
 0.780000   -5.057629   -47.895508
 0.785000   -5.315645   -54.977930
 0.790000   -5.607408   -61.126465
 0.795000   -5.926909   -65.450439
 0.800000   -6.261913   -67.419287
 0.805000   -6.601102   -67.134863
 0.810000   -6.933261   -64.672998
 0.815000   -7.247832   -60.277490
 0.820000   -7.536036   -54.058789
 0.825000   -7.788420   -47.137891
 0.830000   -8.007415   -40.582617
 0.835000   -8.194246   -34.458691
 0.840000   -8.352002   -29.008008
 0.845000   -8.484326   -24.308398
 0.850000   -8.595086   -20.370508
 0.855000   -8.688031   -16.990234
 0.860000   -8.764988   -13.830859
 0.865000   -8.826340   -10.705859
 0.870000   -8.872047   -7.488281
 0.875000   -8.901223   -3.886328
 0.880000   -8.910910   0.646484
 0.885000   -8.894758   6.794531
 0.890000   -8.842965   15.175000
 0.895000   -8.743008   26.317969
 0.900000   -8.579785   40.539844
 0.905000   -8.337609   58.496484
 0.910000   -7.994820   79.994531
 0.915000   -7.537664   101.324219
 0.920000   -6.981578   116.758594
 0.925000   -6.370078   119.646094
 0.930000   -5.785117   103.446875
 0.935000   -5.335609   66.672656
 0.940000   -5.118391   17.420313
 0.945000   -5.161406   -22.960937
 0.950000   -5.348000   -27.385938
 0.955000   -5.435266   19.468750
 0.960000   -5.153313   109.121875
 0.965000   -4.344047   208.271875
 0.970000   -3.070594   275.112500
 0.975000   -1.592922   282.760937
 0.980000   -0.242984   230.364062
 0.985000   0.710719   139.903125
 0.990000   1.156047   43.601562
 0.995000   1.146734   -30.348437
 1.000000   0.852563   -87.320312
3 N Z A of ION SPECIES
 6.000000   6.000000   12.010700
 1.000000   1.000000   2.000000
 1.000000   1.000000   2.000000
