201 psinorm ne(10^20/m^3) dne/dpsiN
 0.000000   0.513054   -0.352514
 0.005000   0.511297   -0.350432
 0.010000   0.509550   -0.348358
 0.015000   0.507813   -0.346296
 0.020000   0.506087   -0.344247
 0.025000   0.504371   -0.342211
 0.030000   0.502665   -0.340188
 0.035000   0.500969   -0.338177
 0.040000   0.499283   -0.336179
 0.045000   0.497607   -0.334194
 0.050000   0.495941   -0.332221
 0.055000   0.494285   -0.330260
 0.060000   0.492639   -0.328311
 0.065000   0.491002   -0.326375
 0.070000   0.489375   -0.324451
 0.075000   0.487757   -0.322538
 0.080000   0.486149   -0.320638
 0.085000   0.484551   -0.318749
 0.090000   0.482962   -0.316872
 0.095000   0.481382   -0.315006
 0.100000   0.479812   -0.313152
 0.105000   0.478251   -0.311310
 0.110000   0.476699   -0.309479
 0.115000   0.475156   -0.307659
 0.120000   0.473622   -0.305850
 0.125000   0.472097   -0.304052
 0.130000   0.470582   -0.302265
 0.135000   0.469075   -0.300490
 0.140000   0.467577   -0.298725
 0.145000   0.466088   -0.296971
 0.150000   0.464607   -0.295227
 0.155000   0.463135   -0.293494
 0.160000   0.461672   -0.291772
 0.165000   0.460218   -0.290060
 0.170000   0.458772   -0.288359
 0.175000   0.457334   -0.286667
 0.180000   0.455905   -0.284986
 0.185000   0.454484   -0.283315
 0.190000   0.453072   -0.281655
 0.195000   0.451668   -0.280004
 0.200000   0.450272   -0.278363
 0.205000   0.448884   -0.276732
 0.210000   0.447504   -0.275111
 0.215000   0.446133   -0.273499
 0.220000   0.444769   -0.271897
 0.225000   0.443414   -0.270305
 0.230000   0.442066   -0.268722
 0.235000   0.440727   -0.267149
 0.240000   0.439395   -0.265585
 0.245000   0.438071   -0.264030
 0.250000   0.436754   -0.262485
 0.255000   0.435446   -0.260948
 0.260000   0.434145   -0.259421
 0.265000   0.432852   -0.257903
 0.270000   0.431566   -0.256393
 0.275000   0.430288   -0.254893
 0.280000   0.429017   -0.253401
 0.285000   0.427754   -0.251918
 0.290000   0.426498   -0.250444
 0.295000   0.425249   -0.248979
 0.300000   0.424008   -0.247522
 0.305000   0.422774   -0.246073
 0.310000   0.421547   -0.244633
 0.315000   0.420328   -0.243201
 0.320000   0.419115   -0.241778
 0.325000   0.417910   -0.240363
 0.330000   0.416712   -0.238956
 0.335000   0.415520   -0.237557
 0.340000   0.414336   -0.236167
 0.345000   0.413159   -0.234784
 0.350000   0.411988   -0.233409
 0.355000   0.410825   -0.232043
 0.360000   0.409668   -0.230684
 0.365000   0.408518   -0.229332
 0.370000   0.407375   -0.227989
 0.375000   0.406238   -0.226653
 0.380000   0.405108   -0.225325
 0.385000   0.403985   -0.224005
 0.390000   0.402868   -0.222692
 0.395000   0.401758   -0.221386
 0.400000   0.400654   -0.220088
 0.405000   0.399557   -0.218797
 0.410000   0.398466   -0.217513
 0.415000   0.397382   -0.216237
 0.420000   0.396304   -0.214968
 0.425000   0.395232   -0.213706
 0.430000   0.394167   -0.212451
 0.435000   0.393108   -0.211203
 0.440000   0.392055   -0.209962
 0.445000   0.391008   -0.208728
 0.450000   0.389967   -0.207501
 0.455000   0.388933   -0.206281
 0.460000   0.387905   -0.205067
 0.465000   0.386882   -0.203861
 0.470000   0.385866   -0.202660
 0.475000   0.384856   -0.201467
 0.480000   0.383851   -0.200280
 0.485000   0.382853   -0.199100
 0.490000   0.381860   -0.197926
 0.495000   0.380874   -0.196759
 0.500000   0.379893   -0.195598
 0.505000   0.378918   -0.194443
 0.510000   0.377948   -0.193295
 0.515000   0.376985   -0.192153
 0.520000   0.376027   -0.191017
 0.525000   0.375075   -0.189887
 0.530000   0.374128   -0.188763
 0.535000   0.373187   -0.187646
 0.540000   0.372251   -0.186534
 0.545000   0.371322   -0.185429
 0.550000   0.370397   -0.184329
 0.555000   0.369478   -0.183236
 0.560000   0.368565   -0.182148
 0.565000   0.367657   -0.181066
 0.570000   0.366754   -0.179990
 0.575000   0.365857   -0.178919
 0.580000   0.364965   -0.177855
 0.585000   0.364078   -0.176796
 0.590000   0.363197   -0.175742
 0.595000   0.362321   -0.174694
 0.600000   0.361450   -0.173652
 0.605000   0.360584   -0.172615
 0.610000   0.359724   -0.171583
 0.615000   0.358869   -0.170557
 0.620000   0.358018   -0.169537
 0.625000   0.357173   -0.168521
 0.630000   0.356333   -0.167511
 0.635000   0.355498   -0.166506
 0.640000   0.354668   -0.165507
 0.645000   0.353843   -0.164512
 0.650000   0.353023   -0.163523
 0.655000   0.352208   -0.162539
 0.660000   0.351398   -0.161560
 0.665000   0.350592   -0.160586
 0.670000   0.349792   -0.159617
 0.675000   0.348996   -0.158652
 0.680000   0.348205   -0.157693
 0.685000   0.347419   -0.156739
 0.690000   0.346638   -0.155789
 0.695000   0.345861   -0.154845
 0.700000   0.345089   -0.153905
 0.705000   0.344322   -0.152970
 0.710000   0.343560   -0.152039
 0.715000   0.342802   -0.151113
 0.720000   0.342048   -0.150192
 0.725000   0.341300   -0.149276
 0.730000   0.340556   -0.148364
 0.735000   0.339816   -0.147456
 0.740000   0.339081   -0.146553
 0.745000   0.338351   -0.145655
 0.750000   0.337625   -0.144761
 0.755000   0.336903   -0.143871
 0.760000   0.336186   -0.142986
 0.765000   0.335473   -0.142105
 0.770000   0.334765   -0.141229
 0.775000   0.334061   -0.140356
 0.780000   0.333361   -0.139488
 0.785000   0.332666   -0.138624
 0.790000   0.331975   -0.137765
 0.795000   0.331288   -0.136909
 0.800000   0.330606   -0.136058
 0.805000   0.329928   -0.135210
 0.810000   0.329254   -0.134367
 0.815000   0.328584   -0.133528
 0.820000   0.327919   -0.132693
 0.825000   0.327257   -0.131861
 0.830000   0.326600   -0.131034
 0.835000   0.325947   -0.130211
 0.840000   0.325298   -0.129391
 0.845000   0.324653   -0.128575
 0.850000   0.324012   -0.127763
 0.855000   0.323375   -0.126955
 0.860000   0.322743   -0.126149
 0.865000   0.322114   -0.125346
 0.870000   0.321489   -0.124545
 0.875000   0.320868   -0.123742
 0.880000   0.320252   -0.122935
 0.885000   0.319639   -0.122117
 0.890000   0.319030   -0.121277
 0.895000   0.318426   -0.120401
 0.900000   0.317826   -0.119477
 0.905000   0.317231   -0.118521
 0.910000   0.316641   -0.117660
 0.915000   0.316055   -0.117382
 0.920000   0.315467   -0.119207
 0.925000   0.314863   -0.127458
 0.930000   0.314193   -0.153710
 0.935000   0.313326   -0.227474
 0.940000   0.311918   -0.419673
 0.945000   0.309129   -0.884546
 0.950000   0.303073   -1.892048
 0.955000   0.290208   -3.691632
 0.960000   0.266156   -5.966460
 0.965000   0.230544   -7.449201
 0.970000   0.191664   -7.087015
 0.975000   0.159674   -5.425197
 0.980000   0.137412   -3.726035
 0.985000   0.122413   -2.568789
 0.990000   0.111724   -1.896084
 0.995000   0.103453   -1.513344
 1.000000   0.096591   -1.231254
201 psinorm te(KeV) dte/dpsiN
 0.000000   4.408889   -5.383378
 0.005000   4.382020   -5.364114
 0.010000   4.355248   -5.344826
 0.015000   4.328572   -5.325491
 0.020000   4.301993   -5.306110
 0.025000   4.275511   -5.286685
 0.030000   4.249126   -5.267216
 0.035000   4.222839   -5.247705
 0.040000   4.196649   -5.228153
 0.045000   4.170557   -5.208561
 0.050000   4.144563   -5.188930
 0.055000   4.118668   -5.169261
 0.060000   4.092871   -5.149556
 0.065000   4.067172   -5.129816
 0.070000   4.041572   -5.110041
 0.075000   4.016072   -5.090233
 0.080000   3.990670   -5.070394
 0.085000   3.965368   -5.050523
 0.090000   3.940165   -5.030623
 0.095000   3.915062   -5.010694
 0.100000   3.890058   -4.990737
 0.105000   3.865154   -4.970754
 0.110000   3.840350   -4.950746
 0.115000   3.815647   -4.930714
 0.120000   3.791043   -4.910658
 0.125000   3.766540   -4.890580
 0.130000   3.742138   -4.870482
 0.135000   3.717835   -4.850363
 0.140000   3.693634   -4.830226
 0.145000   3.669533   -4.810070
 0.150000   3.645533   -4.789898
 0.155000   3.621634   -4.769710
 0.160000   3.597836   -4.749508
 0.165000   3.574139   -4.729292
 0.170000   3.550543   -4.709063
 0.175000   3.527048   -4.688822
 0.180000   3.503655   -4.668571
 0.185000   3.480363   -4.648311
 0.190000   3.457172   -4.628042
 0.195000   3.434082   -4.607765
 0.200000   3.411094   -4.587481
 0.205000   3.388207   -4.567192
 0.210000   3.365422   -4.546899
 0.215000   3.342738   -4.526601
 0.220000   3.320156   -4.506301
 0.225000   3.297675   -4.485999
 0.230000   3.275296   -4.465697
 0.235000   3.253019   -4.445394
 0.240000   3.230842   -4.425093
 0.245000   3.208768   -4.404793
 0.250000   3.186794   -4.384497
 0.255000   3.164923   -4.364204
 0.260000   3.143152   -4.343917
 0.265000   3.121483   -4.323634
 0.270000   3.099916   -4.303359
 0.275000   3.078450   -4.283091
 0.280000   3.057085   -4.262831
 0.285000   3.035822   -4.242580
 0.290000   3.014659   -4.222340
 0.295000   2.993598   -4.202111
 0.300000   2.972638   -4.181893
 0.305000   2.951779   -4.161688
 0.310000   2.931021   -4.141497
 0.315000   2.910364   -4.121320
 0.320000   2.889808   -4.101158
 0.325000   2.869353   -4.081012
 0.330000   2.848998   -4.060883
 0.335000   2.828744   -4.040772
 0.340000   2.808590   -4.020679
 0.345000   2.788537   -4.000606
 0.350000   2.768584   -3.980552
 0.355000   2.748732   -3.960520
 0.360000   2.728979   -3.940509
 0.365000   2.709326   -3.920520
 0.370000   2.689774   -3.900555
 0.375000   2.670321   -3.880613
 0.380000   2.650968   -3.860696
 0.385000   2.631714   -3.840805
 0.390000   2.612560   -3.820939
 0.395000   2.593505   -3.801101
 0.400000   2.574549   -3.781290
 0.405000   2.555692   -3.761507
 0.410000   2.536934   -3.741754
 0.415000   2.518274   -3.722030
 0.420000   2.499713   -3.702337
 0.425000   2.481251   -3.682674
 0.430000   2.462886   -3.663044
 0.435000   2.444620   -3.643445
 0.440000   2.426452   -3.623880
 0.445000   2.408381   -3.604349
 0.450000   2.390409   -3.584852
 0.455000   2.372533   -3.565391
 0.460000   2.354755   -3.545965
 0.465000   2.337073   -3.526575
 0.470000   2.319489   -3.507222
 0.475000   2.302001   -3.487907
 0.480000   2.284610   -3.468630
 0.485000   2.267315   -3.449392
 0.490000   2.250116   -3.430193
 0.495000   2.233013   -3.411034
 0.500000   2.216006   -3.391916
 0.505000   2.199094   -3.372839
 0.510000   2.182277   -3.353803
 0.515000   2.165556   -3.334810
 0.520000   2.148929   -3.315860
 0.525000   2.132397   -3.296953
 0.530000   2.115960   -3.278090
 0.535000   2.099616   -3.259272
 0.540000   2.083367   -3.240498
 0.545000   2.067211   -3.221770
 0.550000   2.051149   -3.203088
 0.555000   2.035180   -3.184452
 0.560000   2.019305   -3.165864
 0.565000   2.003522   -3.147323
 0.570000   1.987831   -3.128830
 0.575000   1.972233   -3.110385
 0.580000   1.956728   -3.091989
 0.585000   1.941313   -3.073643
 0.590000   1.925991   -3.055347
 0.595000   1.910760   -3.037101
 0.600000   1.895620   -3.018906
 0.605000   1.880571   -3.000761
 0.610000   1.865612   -2.982669
 0.615000   1.850744   -2.964629
 0.620000   1.835966   -2.946641
 0.625000   1.821278   -2.928706
 0.630000   1.806679   -2.910824
 0.635000   1.792170   -2.892996
 0.640000   1.777749   -2.875223
 0.645000   1.763417   -2.857503
 0.650000   1.749174   -2.839839
 0.655000   1.735019   -2.822229
 0.660000   1.720952   -2.804676
 0.665000   1.706972   -2.787178
 0.670000   1.693080   -2.769737
 0.675000   1.679275   -2.752352
 0.680000   1.665557   -2.735024
 0.685000   1.651925   -2.717753
 0.690000   1.638379   -2.700540
 0.695000   1.624919   -2.683385
 0.700000   1.611545   -2.666288
 0.705000   1.598256   -2.649250
 0.710000   1.585053   -2.632270
 0.715000   1.571934   -2.615349
 0.720000   1.558899   -2.598486
 0.725000   1.545949   -2.581683
 0.730000   1.533082   -2.564939
 0.735000   1.520299   -2.548253
 0.740000   1.507600   -2.531627
 0.745000   1.494983   -2.515058
 0.750000   1.482449   -2.498548
 0.755000   1.469998   -2.482094
 0.760000   1.457628   -2.465696
 0.765000   1.445341   -2.449352
 0.770000   1.433135   -2.433060
 0.775000   1.421010   -2.416816
 0.780000   1.408967   -2.400617
 0.785000   1.397004   -2.384456
 0.790000   1.385122   -2.368327
 0.795000   1.373321   -2.352220
 0.800000   1.361600   -2.336124
 0.805000   1.349959   -2.320024
 0.810000   1.338400   -2.303900
 0.815000   1.326920   -2.287728
 0.820000   1.315522   -2.271480
 0.825000   1.304206   -2.255121
 0.830000   1.292971   -2.238612
 0.835000   1.281820   -2.221908
 0.840000   1.270752   -2.204965
 0.845000   1.259770   -2.187744
 0.850000   1.248875   -2.170225
 0.855000   1.238068   -2.152424
 0.860000   1.227350   -2.134434
 0.865000   1.216723   -2.116479
 0.870000   1.206186   -2.099009
 0.875000   1.195733   -2.082846
 0.880000   1.185357   -2.069418
 0.885000   1.175039   -2.061116
 0.890000   1.164746   -2.061848
 0.895000   1.154421   -2.077873
 0.900000   1.143967   -2.119063
 0.905000   1.133230   -2.200754
 0.910000   1.121960   -2.346418
 0.915000   1.109766   -2.591361
 0.920000   1.096046   -2.987521
 0.925000   1.079891   -3.608929
 0.930000   1.059957   -4.556153
 0.935000   1.034329   -5.955320
 0.940000   1.000404   -7.942623
 0.945000   0.954903   -10.619231
 0.950000   0.894211   -13.960477
 0.955000   0.815298   -17.683235
 0.960000   0.717379   -21.137390
 0.965000   0.603924   -23.372732
 0.970000   0.483652   -23.515901
 0.975000   0.368765   -21.322811
 0.980000   0.270423   -17.434976
 0.985000   0.194415   -13.012977
 0.990000   0.140294   -9.061996
 0.995000   0.103795   -6.047368
 1.000000   0.079820   -3.542776
201 psinorm ni(10^20/m^3) dni/dpsiN
 0.000000   0.309134   -0.386815
 0.005000   0.307437   -0.292065
 0.010000   0.306213   -0.217892
 0.015000   0.305258   -0.169499
 0.020000   0.304518   -0.130364
 0.025000   0.303954   -0.097321
 0.030000   0.303545   -0.069119
 0.035000   0.303263   -0.046043
 0.040000   0.303085   -0.027038
 0.045000   0.302993   -0.011737
 0.050000   0.302967   0.000305
 0.055000   0.302996   0.009935
 0.060000   0.303067   0.017417
 0.065000   0.303170   0.022938
 0.070000   0.303296   0.026733
 0.075000   0.303437   0.029109
 0.080000   0.303587   0.030224
 0.085000   0.303740   0.029890
 0.090000   0.303886   0.028480
 0.095000   0.304024   0.026403
 0.100000   0.304150   0.023576
 0.105000   0.304260   0.020083
 0.110000   0.304351   0.015919
 0.115000   0.304419   0.011056
 0.120000   0.304462   0.005884
 0.125000   0.304478   0.000576
 0.130000   0.304467   -0.005003
 0.135000   0.304428   -0.010796
 0.140000   0.304359   -0.016779
 0.145000   0.304260   -0.022870
 0.150000   0.304131   -0.028996
 0.155000   0.303970   -0.035140
 0.160000   0.303779   -0.041270
 0.165000   0.303558   -0.047351
 0.170000   0.303306   -0.053363
 0.175000   0.303024   -0.059277
 0.180000   0.302713   -0.065433
 0.185000   0.302370   -0.071494
 0.190000   0.301998   -0.077073
 0.195000   0.301599   -0.082477
 0.200000   0.301173   -0.087704
 0.205000   0.300722   -0.092745
 0.210000   0.300246   -0.097599
 0.215000   0.299746   -0.102262
 0.220000   0.299223   -0.106775
 0.225000   0.298678   -0.111574
 0.230000   0.298107   -0.116107
 0.235000   0.297517   -0.119935
 0.240000   0.296908   -0.123567
 0.245000   0.296281   -0.127017
 0.250000   0.295638   -0.130293
 0.255000   0.294979   -0.133784
 0.260000   0.294300   -0.137218
 0.265000   0.293606   -0.140090
 0.270000   0.292899   -0.142697
 0.275000   0.292179   -0.145193
 0.280000   0.291447   -0.147706
 0.285000   0.290702   -0.150405
 0.290000   0.289943   -0.152833
 0.295000   0.289174   -0.154830
 0.300000   0.288395   -0.156742
 0.305000   0.287607   -0.158662
 0.310000   0.286808   -0.160741
 0.315000   0.285999   -0.162593
 0.320000   0.285182   -0.164067
 0.325000   0.284358   -0.165453
 0.330000   0.283528   -0.166881
 0.335000   0.282690   -0.168331
 0.340000   0.281845   -0.169545
 0.345000   0.280994   -0.170570
 0.350000   0.280139   -0.171564
 0.355000   0.279279   -0.172738
 0.360000   0.278411   -0.173874
 0.365000   0.277540   -0.174777
 0.370000   0.276664   -0.175674
 0.375000   0.275783   -0.176668
 0.380000   0.274897   -0.177704
 0.385000   0.274006   -0.178583
 0.390000   0.273111   -0.179334
 0.395000   0.272213   -0.180051
 0.400000   0.271311   -0.180782
 0.405000   0.270405   -0.181361
 0.410000   0.269497   -0.181698
 0.415000   0.268588   -0.181897
 0.420000   0.267678   -0.182063
 0.425000   0.266767   -0.182088
 0.430000   0.265857   -0.181864
 0.435000   0.264949   -0.181488
 0.440000   0.264042   -0.181079
 0.445000   0.263138   -0.180646
 0.450000   0.262236   -0.180092
 0.455000   0.261337   -0.179461
 0.460000   0.260441   -0.178829
 0.465000   0.259549   -0.178207
 0.470000   0.258659   -0.177496
 0.475000   0.257774   -0.176648
 0.480000   0.256893   -0.175688
 0.485000   0.256017   -0.174636
 0.490000   0.255146   -0.173372
 0.495000   0.254283   -0.171834
 0.500000   0.253428   -0.170085
 0.505000   0.252582   -0.168199
 0.510000   0.251746   -0.166105
 0.515000   0.250921   -0.163733
 0.520000   0.250109   -0.161185
 0.525000   0.249309   -0.158526
 0.530000   0.248523   -0.155742
 0.535000   0.247752   -0.152786
 0.540000   0.246996   -0.149708
 0.545000   0.246255   -0.146556
 0.550000   0.245530   -0.143354
 0.555000   0.244821   -0.140031
 0.560000   0.244130   -0.136567
 0.565000   0.243456   -0.132998
 0.570000   0.242800   -0.129365
 0.575000   0.242162   -0.125608
 0.580000   0.241544   -0.121673
 0.585000   0.240945   -0.117625
 0.590000   0.240367   -0.113503
 0.595000   0.239810   -0.109332
 0.600000   0.239274   -0.105088
 0.605000   0.238759   -0.100777
 0.610000   0.238266   -0.096439
 0.615000   0.237795   -0.092107
 0.620000   0.237345   -0.087781
 0.625000   0.236917   -0.083430
 0.630000   0.236511   -0.079065
 0.635000   0.236127   -0.074707
 0.640000   0.235764   -0.070369
 0.645000   0.235423   -0.066040
 0.650000   0.235103   -0.061709
 0.655000   0.234806   -0.057390
 0.660000   0.234530   -0.053094
 0.665000   0.234275   -0.048794
 0.670000   0.234042   -0.044369
 0.675000   0.233831   -0.039595
 0.680000   0.233646   -0.033857
 0.685000   0.233493   -0.026816
 0.690000   0.233377   -0.018768
 0.695000   0.233305   -0.009855
 0.700000   0.233279   -0.000143
 0.705000   0.233303   0.010199
 0.710000   0.233381   0.021434
 0.715000   0.233518   0.033052
 0.720000   0.233711   0.043924
 0.725000   0.233957   0.053838
 0.730000   0.234250   0.062654
 0.735000   0.234584   0.070006
 0.740000   0.234950   0.075584
 0.745000   0.235339   0.078769
 0.750000   0.235738   0.079226
 0.755000   0.236132   0.077279
 0.760000   0.236510   0.073202
 0.765000   0.236864   0.067266
 0.770000   0.237183   0.059520
 0.775000   0.237459   0.050350
 0.780000   0.237687   0.041082
 0.785000   0.237870   0.032338
 0.790000   0.238010   0.024026
 0.795000   0.238110   0.016360
 0.800000   0.238174   0.009419
 0.805000   0.238204   0.003426
 0.810000   0.238208   -0.001357
 0.815000   0.238191   -0.005322
 0.820000   0.238155   -0.009015
 0.825000   0.238100   -0.012625
 0.830000   0.238028   -0.016221
 0.835000   0.237938   -0.019800
 0.840000   0.237830   -0.023295
 0.845000   0.237705   -0.026663
 0.850000   0.237564   -0.029904
 0.855000   0.237406   -0.032993
 0.860000   0.237234   -0.035887
 0.865000   0.237047   -0.038426
 0.870000   0.236849   -0.040431
 0.875000   0.236643   -0.041880
 0.880000   0.236431   -0.042778
 0.885000   0.236215   -0.043084
 0.890000   0.236000   -0.042690
 0.895000   0.235788   -0.040973
 0.900000   0.235590   -0.037704
 0.905000   0.235411   -0.032772
 0.910000   0.235262   -0.025351
 0.915000   0.235158   -0.014600
 0.920000   0.235116   0.000032
 0.925000   0.235158   0.019265
 0.930000   0.235309   0.035681
 0.935000   0.235515   0.024772
 0.940000   0.235557   -0.075315
 0.945000   0.234762   -0.410720
 0.950000   0.231450   -1.247049
 0.955000   0.222291   -2.829919
 0.960000   0.203150   -4.866616
 0.965000   0.173625   -6.138805
 0.970000   0.141762   -5.638257
 0.975000   0.117243   -3.946157
 0.980000   0.102301   -2.331949
 0.985000   0.093923   -1.346969
 0.990000   0.088831   -0.890541
 0.995000   0.085018   -0.724262
 1.000000   0.081588   -0.647426
201 psinorm ti(KeV) dti/dpsiN
 0.000000   5.322890   0.002226
 0.005000   5.322234   -0.264501
 0.010000   5.320245   -0.534411
 0.015000   5.316890   -0.810342
 0.020000   5.312141   -1.091533
 0.025000   5.305975   -1.377098
 0.030000   5.298370   -1.666069
 0.035000   5.289314   -1.957450
 0.040000   5.278796   -2.249938
 0.045000   5.266815   -2.542727
 0.050000   5.253369   -2.835285
 0.055000   5.238462   -3.126651
 0.060000   5.222102   -3.415934
 0.065000   5.204302   -3.702121
 0.070000   5.185081   -3.983254
 0.075000   5.164470   -4.258577
 0.080000   5.142495   -4.528562
 0.085000   5.119184   -4.792747
 0.090000   5.094568   -5.050758
 0.095000   5.068677   -5.302413
 0.100000   5.041543   -5.547183
 0.105000   5.013205   -5.785263
 0.110000   4.983691   -6.016964
 0.115000   4.953035   -6.241830
 0.120000   4.921273   -6.460024
 0.125000   4.888435   -6.672305
 0.130000   4.854549   -6.880580
 0.135000   4.819629   -7.085138
 0.140000   4.783698   -7.282741
 0.145000   4.746802   -7.471214
 0.150000   4.708986   -7.650001
 0.155000   4.670302   -7.818218
 0.160000   4.630804   -7.975221
 0.165000   4.590549   -8.119478
 0.170000   4.549609   -8.249385
 0.175000   4.508056   -8.364761
 0.180000   4.465961   -8.465508
 0.185000   4.423401   -8.551260
 0.190000   4.380449   -8.621006
 0.195000   4.337190   -8.673742
 0.200000   4.293711   -8.712374
 0.205000   4.250067   -8.740397
 0.210000   4.206307   -8.759497
 0.215000   4.162472   -8.771994
 0.220000   4.118587   -8.779999
 0.225000   4.074672   -8.786516
 0.230000   4.030722   -8.791892
 0.235000   3.986753   -8.794537
 0.240000   3.942777   -8.794436
 0.245000   3.898808   -8.791348
 0.250000   3.854863   -8.785648
 0.255000   3.810952   -8.779560
 0.260000   3.767068   -8.765912
 0.265000   3.723293   -8.739317
 0.270000   3.679675   -8.702784
 0.275000   3.636265   -8.655479
 0.280000   3.593120   -8.596871
 0.285000   3.550296   -8.527594
 0.290000   3.507844   -8.443314
 0.295000   3.465863   -8.342009
 0.300000   3.424424   -8.226101
 0.305000   3.383602   -8.094588
 0.310000   3.343478   -7.947159
 0.315000   3.304131   -7.782253
 0.320000   3.265655   -7.610309
 0.325000   3.228028   -7.441548
 0.330000   3.191240   -7.274530
 0.335000   3.155282   -7.110036
 0.340000   3.120140   -6.948798
 0.345000   3.085794   -6.791906
 0.350000   3.052221   -6.640911
 0.355000   3.019385   -6.495369
 0.360000   2.987267   -6.353905
 0.365000   2.955846   -6.216234
 0.370000   2.925105   -6.082016
 0.375000   2.895026   -5.953335
 0.380000   2.865571   -5.826199
 0.385000   2.836764   -5.692636
 0.390000   2.808645   -5.550769
 0.395000   2.781256   -5.400266
 0.400000   2.754642   -5.241319
 0.405000   2.728843   -5.072009
 0.410000   2.703922   -4.894321
 0.415000   2.679900   -4.716907
 0.420000   2.656753   -4.544596
 0.425000   2.634454   -4.378613
 0.430000   2.612967   -4.220131
 0.435000   2.592253   -4.067602
 0.440000   2.572291   -3.921698
 0.445000   2.553036   -3.785827
 0.450000   2.534433   -3.659415
 0.455000   2.516441   -3.541189
 0.460000   2.499021   -3.431325
 0.465000   2.482128   -3.329718
 0.470000   2.465724   -3.237308
 0.475000   2.449755   -3.154762
 0.480000   2.434176   -3.080882
 0.485000   2.418946   -3.014475
 0.490000   2.404031   -2.954369
 0.495000   2.389403   -2.898766
 0.500000   2.375043   -2.844023
 0.505000   2.360962   -2.787766
 0.510000   2.347166   -2.731392
 0.515000   2.333648   -2.676306
 0.520000   2.320403   -2.622847
 0.525000   2.307420   -2.570755
 0.530000   2.294695   -2.519058
 0.535000   2.282229   -2.469695
 0.540000   2.269998   -2.424156
 0.545000   2.257988   -2.381482
 0.550000   2.246183   -2.341816
 0.555000   2.234570   -2.305005
 0.560000   2.223133   -2.270180
 0.565000   2.211868   -2.239684
 0.570000   2.200737   -2.214857
 0.575000   2.189719   -2.194070
 0.580000   2.178796   -2.177370
 0.585000   2.167946   -2.164772
 0.590000   2.157148   -2.156451
 0.595000   2.146381   -2.152683
 0.600000   2.135621   -2.152953
 0.605000   2.124852   -2.156572
 0.610000   2.114056   -2.163362
 0.615000   2.103218   -2.173113
 0.620000   2.092324   -2.187101
 0.625000   2.081347   -2.203846
 0.630000   2.070286   -2.221213
 0.635000   2.059135   -2.239795
 0.640000   2.047888   -2.259236
 0.645000   2.036542   -2.279097
 0.650000   2.025097   -2.300440
 0.655000   2.013538   -2.322187
 0.660000   2.001875   -2.343046
 0.665000   1.990108   -2.364203
 0.670000   1.978233   -2.385584
 0.675000   1.966252   -2.406740
 0.680000   1.954166   -2.428088
 0.685000   1.941971   -2.446839
 0.690000   1.929697   -2.459882
 0.695000   1.917372   -2.468135
 0.700000   1.905016   -2.472264
 0.705000   1.892649   -2.472503
 0.710000   1.880291   -2.468363
 0.715000   1.867966   -2.459622
 0.720000   1.855695   -2.447412
 0.725000   1.843492   -2.432393
 0.730000   1.831371   -2.414658
 0.735000   1.819345   -2.394576
 0.740000   1.807425   -2.371440
 0.745000   1.795631   -2.346039
 0.750000   1.783965   -2.321860
 0.755000   1.772412   -2.300735
 0.760000   1.760957   -2.283426
 0.765000   1.749578   -2.271126
 0.770000   1.738246   -2.264846
 0.775000   1.726929   -2.264156
 0.780000   1.715605   -2.265597
 0.785000   1.704273   -2.266907
 0.790000   1.692935   -2.268241
 0.795000   1.681591   -2.269594
 0.800000   1.670240   -2.271681
 0.805000   1.658874   -2.276994
 0.810000   1.647470   -2.287216
 0.815000   1.636002   -2.302881
 0.820000   1.624441   -2.324629
 0.825000   1.612756   -2.352246
 0.830000   1.600918   -2.386273
 0.835000   1.588893   -2.428015
 0.840000   1.576638   -2.473013
 0.845000   1.564163   -2.521015
 0.850000   1.551428   -2.578013
 0.855000   1.538383   -2.645981
 0.860000   1.524968   -2.727028
 0.865000   1.511112   -2.827871
 0.870000   1.496689   -2.940823
 0.875000   1.481704   -3.059927
 0.880000   1.466090   -3.192895
 0.885000   1.449775   -3.341209
 0.890000   1.432678   -3.507384
 0.895000   1.414701   -3.713040
 0.900000   1.395548   -3.959822
 0.905000   1.375103   -4.241784
 0.910000   1.353130   -4.574162
 0.915000   1.329362   -4.963157
 0.920000   1.303498   -5.415927
 0.925000   1.275202   -5.977524
 0.930000   1.243723   -6.621322
 0.935000   1.208989   -7.300241
 0.940000   1.170721   -8.032422
 0.945000   1.128665   -8.805422
 0.950000   1.082666   -9.594715
 0.955000   1.032718   -10.400735
 0.960000   0.978659   -11.140479
 0.965000   0.921313   -11.718652
 0.970000   0.861473   -12.124733
 0.975000   0.800066   -12.326290
 0.980000   0.738210   -12.291598
 0.985000   0.677150   -12.003503
 0.990000   0.618175   -11.447423
 0.995000   0.562675   -10.651903
 1.000000   0.511656   -9.756003
201 psinorm nb(10^20/m^3) dnb/dpsiN
 0.000000   0.096764   0.034313
 0.005000   0.096705   -0.057898
 0.010000   0.096185   -0.129538
 0.015000   0.095410   -0.175410
 0.020000   0.094431   -0.212033
 0.025000   0.093290   -0.242577
 0.030000   0.092006   -0.268292
 0.035000   0.090607   -0.288891
 0.040000   0.089117   -0.305433
 0.045000   0.087553   -0.318284
 0.050000   0.085934   -0.327888
 0.055000   0.084274   -0.335094
 0.060000   0.082583   -0.340166
 0.065000   0.080872   -0.343293
 0.070000   0.079150   -0.344708
 0.075000   0.077425   -0.344723
 0.080000   0.075703   -0.343493
 0.085000   0.073990   -0.340833
 0.090000   0.072294   -0.337118
 0.095000   0.070619   -0.332758
 0.100000   0.068967   -0.327670
 0.105000   0.067342   -0.321939
 0.110000   0.065747   -0.315561
 0.115000   0.064186   -0.308507
 0.120000   0.062662   -0.301170
 0.125000   0.061175   -0.293722
 0.130000   0.059725   -0.286030
 0.135000   0.058314   -0.278151
 0.140000   0.056944   -0.270109
 0.145000   0.055613   -0.261988
 0.150000   0.054324   -0.253864
 0.155000   0.053075   -0.245756
 0.160000   0.051866   -0.237697
 0.165000   0.050698   -0.229727
 0.170000   0.049569   -0.221865
 0.175000   0.048479   -0.214141
 0.180000   0.047428   -0.206215
 0.185000   0.046417   -0.198426
 0.190000   0.045443   -0.191164
 0.195000   0.044505   -0.184125
 0.200000   0.043602   -0.177308
 0.205000   0.042732   -0.170722
 0.210000   0.041895   -0.164368
 0.215000   0.041089   -0.158249
 0.220000   0.040312   -0.152324
 0.225000   0.039565   -0.146151
 0.230000   0.038851   -0.140276
 0.235000   0.038163   -0.135142
 0.240000   0.037499   -0.130242
 0.245000   0.036860   -0.125567
 0.250000   0.036244   -0.121112
 0.255000   0.035649   -0.116487
 0.260000   0.035079   -0.111975
 0.265000   0.034529   -0.108089
 0.270000   0.033998   -0.104530
 0.275000   0.033484   -0.101148
 0.280000   0.032987   -0.097813
 0.285000   0.032506   -0.094358
 0.290000   0.032043   -0.091241
 0.295000   0.031593   -0.088620
 0.300000   0.031157   -0.086140
 0.305000   0.030732   -0.083702
 0.310000   0.030320   -0.081151
 0.315000   0.029921   -0.078865
 0.320000   0.029531   -0.076986
 0.325000   0.029151   -0.075216
 0.330000   0.028779   -0.073422
 0.335000   0.028416   -0.071623
 0.340000   0.028063   -0.070081
 0.345000   0.027716   -0.068757
 0.350000   0.027375   -0.067507
 0.355000   0.027041   -0.066128
 0.360000   0.026714   -0.064840
 0.365000   0.026392   -0.063843
 0.370000   0.026075   -0.062906
 0.375000   0.025763   -0.061928
 0.380000   0.025456   -0.060942
 0.385000   0.025154   -0.060112
 0.390000   0.024855   -0.059398
 0.395000   0.024560   -0.058689
 0.400000   0.024268   -0.057917
 0.405000   0.023981   -0.057216
 0.410000   0.023696   -0.056648
 0.415000   0.023414   -0.056097
 0.420000   0.023135   -0.055455
 0.425000   0.022860   -0.054822
 0.430000   0.022587   -0.054307
 0.435000   0.022316   -0.053805
 0.440000   0.022049   -0.053230
 0.445000   0.021784   -0.052632
 0.450000   0.021522   -0.052113
 0.455000   0.021263   -0.051622
 0.460000   0.021006   -0.051089
 0.465000   0.020752   -0.050512
 0.470000   0.020501   -0.049995
 0.475000   0.020252   -0.049543
 0.480000   0.020006   -0.049074
 0.485000   0.019761   -0.048541
 0.490000   0.019520   -0.048045
 0.495000   0.019281   -0.047631
 0.500000   0.019044   -0.047224
 0.505000   0.018809   -0.046741
 0.510000   0.018576   -0.046267
 0.515000   0.018346   -0.045884
 0.520000   0.018118   -0.045507
 0.525000   0.017891   -0.045082
 0.530000   0.017667   -0.044640
 0.535000   0.017445   -0.044259
 0.540000   0.017224   -0.043906
 0.545000   0.017006   -0.043534
 0.550000   0.016789   -0.043124
 0.555000   0.016574   -0.042750
 0.560000   0.016361   -0.042430
 0.565000   0.016150   -0.042117
 0.570000   0.015940   -0.041759
 0.575000   0.015732   -0.041412
 0.580000   0.015526   -0.041132
 0.585000   0.015321   -0.040866
 0.590000   0.015117   -0.040594
 0.595000   0.014915   -0.040312
 0.600000   0.014714   -0.040064
 0.605000   0.014515   -0.039856
 0.610000   0.014316   -0.039667
 0.615000   0.014118   -0.039475
 0.620000   0.013921   -0.039300
 0.625000   0.013725   -0.039166
 0.630000   0.013529   -0.039054
 0.635000   0.013334   -0.038958
 0.640000   0.013140   -0.038869
 0.645000   0.012946   -0.038802
 0.650000   0.012752   -0.038764
 0.655000   0.012558   -0.038741
 0.660000   0.012364   -0.038732
 0.665000   0.012171   -0.038741
 0.670000   0.011977   -0.038769
 0.675000   0.011783   -0.038812
 0.680000   0.011589   -0.038871
 0.685000   0.011394   -0.038947
 0.690000   0.011199   -0.039041
 0.695000   0.011004   -0.039147
 0.700000   0.010808   -0.039258
 0.705000   0.010611   -0.039372
 0.710000   0.010414   -0.039492
 0.715000   0.010216   -0.039620
 0.720000   0.010018   -0.039767
 0.725000   0.009819   -0.039912
 0.730000   0.009619   -0.040042
 0.735000   0.009418   -0.040170
 0.740000   0.009217   -0.040295
 0.745000   0.009015   -0.040419
 0.750000   0.008813   -0.040547
 0.755000   0.008610   -0.040664
 0.760000   0.008406   -0.040757
 0.765000   0.008202   -0.040836
 0.770000   0.007998   -0.040900
 0.775000   0.007793   -0.040954
 0.780000   0.007588   -0.040999
 0.785000   0.007383   -0.041028
 0.790000   0.007178   -0.041038
 0.795000   0.006973   -0.041030
 0.800000   0.006768   -0.041005
 0.805000   0.006563   -0.040960
 0.810000   0.006358   -0.040896
 0.815000   0.006154   -0.040810
 0.820000   0.005950   -0.040693
 0.825000   0.005747   -0.040543
 0.830000   0.005545   -0.040368
 0.835000   0.005343   -0.040166
 0.840000   0.005143   -0.039931
 0.845000   0.004944   -0.039659
 0.850000   0.004746   -0.039347
 0.855000   0.004551   -0.038993
 0.860000   0.004356   -0.038596
 0.865000   0.004165   -0.038160
 0.870000   0.003975   -0.037708
 0.875000   0.003787   -0.037264
 0.880000   0.003602   -0.036852
 0.885000   0.003419   -0.036475
 0.890000   0.003237   -0.036123
 0.895000   0.003058   -0.035800
 0.900000   0.002880   -0.035516
 0.905000   0.002703   -0.035284
 0.910000   0.002527   -0.035119
 0.915000   0.002351   -0.035046
 0.920000   0.002176   -0.035095
 0.925000   0.002000   -0.035276
 0.930000   0.001823   -0.035554
 0.935000   0.001645   -0.035833
 0.940000   0.001465   -0.035934
 0.945000   0.001286   -0.035604
 0.950000   0.001109   -0.034564
 0.955000   0.000940   -0.032574
 0.960000   0.000783   -0.029742
 0.965000   0.000642   -0.026466
 0.970000   0.000519   -0.022782
 0.975000   0.000415   -0.018579
 0.980000   0.000333   -0.014414
 0.985000   0.000271   -0.011634
 0.990000   0.000217   -0.010527
 0.995000   0.000165   -0.010524
 1.000000   0.000111   -0.011062
201 psinorm pb(KPa) dpb/dpsiN
 0.000000   40.244307   -12.401702
 0.005000   40.094262   -47.616221
 0.010000   39.768145   -75.174419
 0.015000   39.342518   -92.961136
 0.020000   38.838533   -106.782046
 0.025000   38.274698   -117.868602
 0.030000   37.659847   -126.912335
 0.035000   37.005574   -133.915088
 0.040000   36.320697   -139.333638
 0.045000   35.612238   -143.311876
 0.050000   34.887578   -146.070217
 0.055000   34.151536   -147.912665
 0.060000   33.408451   -148.935254
 0.065000   32.662183   -149.235832
 0.070000   31.916093   -148.895991
 0.075000   31.173223   -148.040440
 0.080000   30.435688   -146.757164
 0.085000   29.705652   -144.958762
 0.090000   28.986101   -142.804963
 0.095000   28.277602   -140.469640
 0.100000   27.581404   -137.894074
 0.105000   26.898661   -135.096918
 0.110000   26.230435   -132.084646
 0.115000   25.577815   -128.844979
 0.120000   24.941985   -125.530591
 0.125000   24.322509   -122.204731
 0.130000   23.719938   -118.812009
 0.135000   23.134389   -115.382626
 0.140000   22.566112   -111.920685
 0.145000   22.015182   -108.447952
 0.150000   21.481632   -104.986915
 0.155000   20.965313   -101.553805
 0.160000   20.466094   -98.158004
 0.165000   19.983733   -94.811644
 0.170000   19.517978   -91.523190
 0.175000   19.068501   -88.303827
 0.180000   18.634940   -85.014297
 0.185000   18.218358   -81.790535
 0.190000   17.817034   -78.789680
 0.195000   17.430461   -75.887921
 0.200000   17.058155   -73.083715
 0.205000   16.699624   -70.378607
 0.210000   16.354369   -67.773575
 0.215000   16.021888   -65.268958
 0.220000   15.701679   -62.847462
 0.225000   15.393414   -60.336519
 0.230000   15.098314   -57.948970
 0.235000   14.813924   -55.856734
 0.240000   14.539747   -53.862076
 0.245000   14.275303   -51.960964
 0.250000   14.020137   -50.148472
 0.255000   13.773818   -48.277690
 0.260000   13.537360   -46.454526
 0.265000   13.309273   -44.874144
 0.270000   13.088619   -43.421829
 0.275000   12.875055   -42.036286
 0.280000   12.668256   -40.671129
 0.285000   12.468344   -39.266293
 0.290000   12.275593   -37.995706
 0.295000   12.088386   -36.915492
 0.300000   11.906438   -35.890960
 0.305000   11.729477   -34.884307
 0.310000   11.557595   -33.836361
 0.315000   11.391113   -32.891734
 0.320000   11.228678   -32.104264
 0.325000   11.070071   -31.362238
 0.330000   10.915055   -30.625470
 0.335000   10.763816   -29.890859
 0.340000   10.616147   -29.242681
 0.345000   10.471389   -28.674592
 0.350000   10.329401   -28.135331
 0.355000   10.190036   -27.548957
 0.360000   10.053911   -26.998894
 0.365000   9.920047   -26.560614
 0.370000   9.788305   -26.146323
 0.375000   9.658584   -25.718537
 0.380000   9.531120   -25.289305
 0.385000   9.405691   -24.918669
 0.390000   9.281933   -24.590740
 0.395000   9.159783   -24.264956
 0.400000   9.039284   -23.919596
 0.405000   8.920587   -23.605126
 0.410000   8.803232   -23.340592
 0.415000   8.687181   -23.083183
 0.420000   8.572400   -22.791770
 0.425000   8.459264   -22.502558
 0.430000   8.347375   -22.256614
 0.435000   8.236697   -22.015155
 0.440000   8.127223   -21.745434
 0.445000   8.019243   -21.467151
 0.450000   7.912552   -21.218720
 0.455000   7.807056   -20.979749
 0.460000   7.702754   -20.726130
 0.465000   7.599795   -20.459026
 0.470000   7.498164   -20.217624
 0.475000   7.397618   -20.002749
 0.480000   7.298137   -19.783525
 0.485000   7.199783   -19.543938
 0.490000   7.102697   -19.320801
 0.495000   7.006575   -19.130381
 0.500000   6.911393   -18.944620
 0.505000   6.817129   -18.735598
 0.510000   6.724037   -18.531969
 0.515000   6.631809   -18.360754
 0.520000   6.540430   -18.192219
 0.525000   6.449887   -18.010235
 0.530000   6.360328   -17.823749
 0.535000   6.271650   -17.656406
 0.540000   6.183763   -17.499368
 0.545000   6.096656   -17.338067
 0.550000   6.010383   -17.163767
 0.555000   5.925018   -16.999431
 0.560000   5.840388   -16.853794
 0.565000   5.756480   -16.710686
 0.570000   5.673282   -16.552862
 0.575000   5.590952   -16.398429
 0.580000   5.509297   -16.266873
 0.585000   5.428283   -16.140468
 0.590000   5.347893   -16.010955
 0.595000   5.268173   -15.876814
 0.600000   5.189124   -15.753676
 0.605000   5.110637   -15.644948
 0.610000   5.032675   -15.543365
 0.615000   4.955203   -15.440644
 0.620000   4.878269   -15.343310
 0.625000   4.801770   -15.260469
 0.630000   4.725664   -15.184375
 0.635000   4.649926   -15.113378
 0.640000   4.574530   -15.045213
 0.645000   4.499474   -14.984026
 0.650000   4.424690   -14.931633
 0.655000   4.350158   -14.883295
 0.660000   4.275857   -14.839261
 0.665000   4.201765   -14.800998
 0.670000   4.127847   -14.768107
 0.675000   4.054084   -14.739849
 0.680000   3.980448   -14.717687
 0.685000   3.906907   -14.701828
 0.690000   3.833430   -14.690295
 0.695000   3.760004   -14.680352
 0.700000   3.686627   -14.671196
 0.705000   3.613292   -14.663087
 0.710000   3.539996   -14.655921
 0.715000   3.466733   -14.651079
 0.720000   3.393485   -14.651691
 0.725000   3.320216   -14.650992
 0.730000   3.246975   -14.644891
 0.735000   3.173767   -14.637379
 0.740000   3.100601   -14.628094
 0.745000   3.027486   -14.617695
 0.750000   2.954424   -14.607331
 0.755000   2.881413   -14.591635
 0.760000   2.808508   -14.567819
 0.765000   2.735735   -14.537403
 0.770000   2.663134   -14.500206
 0.775000   2.590733   -14.460119
 0.780000   2.518533   -14.417356
 0.785000   2.446559   -14.368308
 0.790000   2.374850   -14.313634
 0.795000   2.303423   -14.254579
 0.800000   2.232304   -14.190127
 0.805000   2.161522   -14.119641
 0.810000   2.091107   -14.042595
 0.815000   2.021096   -13.958635
 0.820000   1.951521   -13.863619
 0.825000   1.882459   -13.757025
 0.830000   1.813951   -13.643385
 0.835000   1.746026   -13.521727
 0.840000   1.678734   -13.389748
 0.845000   1.612128   -13.246194
 0.850000   1.546272   -13.089619
 0.855000   1.481232   -12.919716
 0.860000   1.417074   -12.736539
 0.865000   1.353866   -12.540358
 0.870000   1.291671   -12.334619
 0.875000   1.230520   -12.123140
 0.880000   1.170439   -11.915921
 0.885000   1.111361   -11.716761
 0.890000   1.053272   -11.521534
 0.895000   0.996146   -11.333250
 0.900000   0.939939   -11.157058
 0.905000   0.884575   -11.000308
 0.910000   0.829936   -10.871902
 0.915000   0.775856   -10.784395
 0.920000   0.722092   -10.753509
 0.925000   0.668321   -10.791093
 0.930000   0.614181   -10.897967
 0.935000   0.559341   -11.052719
 0.940000   0.503654   -11.198544
 0.945000   0.447356   -11.234394
 0.950000   0.391310   -11.019540
 0.955000   0.337161   -10.435634
 0.960000   0.286954   -9.568435
 0.965000   0.241476   -8.727222
 0.970000   0.199682   -8.057115
 0.975000   0.160905   -7.333625
 0.980000   0.126345   -6.348261
 0.985000   0.097422   -5.300471
 0.990000   0.073341   -4.350182
 0.995000   0.053921   -3.646077
 1.000000   0.036880   -3.170169
201 psinorm ptot(KPa) dptot/dpsiN
 0.000000   104.372209   -114.534948
 0.005000   103.729746   -142.450119
 0.010000   102.947708   -164.477447
 0.015000   102.084972   -178.959624
 0.020000   101.158112   -190.293577
 0.025000   100.182036   -199.439367
 0.030000   99.163718   -206.979228
 0.035000   98.112244   -212.935611
 0.040000   97.034362   -217.669527
 0.045000   95.935549   -221.289608
 0.050000   94.821466   -223.975532
 0.055000   93.695793   -225.954252
 0.060000   92.561923   -227.294014
 0.065000   91.422853   -228.070696
 0.070000   90.281216   -228.334822
 0.075000   89.139505   -228.180046
 0.080000   87.999416   -227.682249
 0.085000   86.862682   -226.765263
 0.090000   85.731763   -225.554202
 0.095000   84.607140   -224.186901
 0.100000   83.489894   -222.607113
 0.105000   82.381069   -220.826124
 0.110000   81.281633   -218.850565
 0.115000   80.192564   -216.666366
 0.120000   79.114969   -214.394413
 0.125000   78.048620   -212.087000
 0.130000   76.994099   -209.708355
 0.135000   75.951536   -207.284482
 0.140000   74.921254   -204.799912
 0.145000   73.903537   -202.257996
 0.150000   72.898675   -199.672013
 0.155000   71.906817   -197.051799
 0.160000   70.928157   -194.400666
 0.165000   69.962810   -191.719837
 0.170000   69.010958   -189.008053
 0.175000   68.072730   -186.273481
 0.180000   67.148223   -183.400631
 0.185000   66.238723   -180.499486
 0.190000   65.343228   -177.694891
 0.195000   64.461774   -174.880768
 0.200000   63.594421   -172.070988
 0.205000   62.741064   -169.285191
 0.210000   61.901569   -166.533583
 0.215000   61.075729   -163.828788
 0.220000   60.263281   -161.167575
 0.225000   59.464053   -158.421369
 0.230000   58.679067   -155.769120
 0.235000   57.906362   -153.346992
 0.240000   57.145597   -150.991475
 0.245000   56.396447   -148.698683
 0.250000   55.658611   -146.466716
 0.255000   54.931780   -144.183808
 0.260000   54.216772   -141.903591
 0.265000   53.512744   -139.764494
 0.270000   52.819128   -137.686370
 0.275000   52.135880   -135.613952
 0.280000   51.462988   -133.506425
 0.285000   50.800816   -131.316997
 0.290000   50.149818   -129.172983
 0.295000   49.509086   -127.113050
 0.300000   48.878688   -125.035513
 0.305000   48.258731   -122.903806
 0.310000   47.649649   -120.666178
 0.315000   47.052069   -118.440132
 0.320000   46.465248   -116.323518
 0.325000   45.888834   -114.270526
 0.330000   45.322543   -112.240813
 0.335000   44.766426   -110.233952
 0.340000   44.220203   -108.324744
 0.345000   43.683178   -106.514643
 0.350000   43.155057   -104.767648
 0.355000   42.635502   -103.015463
 0.360000   42.124902   -101.324248
 0.365000   41.622259   -99.758571
 0.370000   41.127317   -98.240058
 0.375000   40.639859   -96.745548
 0.380000   40.159861   -95.265736
 0.385000   39.687201   -93.814565
 0.390000   39.221715   -92.369414
 0.395000   38.763507   -90.893222
 0.400000   38.312783   -89.367932
 0.405000   37.869828   -87.828753
 0.410000   37.434496   -86.300826
 0.415000   37.006820   -84.786353
 0.420000   36.586632   -83.270845
 0.425000   36.174111   -81.791397
 0.430000   35.768718   -80.389569
 0.435000   35.370216   -79.023560
 0.440000   34.978483   -77.668023
 0.445000   34.593535   -76.357588
 0.450000   34.214907   -75.123505
 0.455000   33.842300   -73.941043
 0.460000   33.475496   -72.789476
 0.465000   33.114406   -71.669314
 0.470000   32.758803   -70.619457
 0.475000   32.408211   -69.641600
 0.480000   32.062387   -68.700468
 0.485000   31.721206   -67.775321
 0.490000   31.384634   -66.892975
 0.495000   31.052277   -66.059430
 0.500000   30.724040   -65.233138
 0.505000   30.399945   -64.378848
 0.510000   30.080251   -63.528569
 0.515000   29.764659   -62.712800
 0.520000   29.453123   -61.906963
 0.525000   29.145590   -61.096192
 0.530000   28.842161   -60.284525
 0.535000   28.542745   -59.501951
 0.540000   28.247142   -58.747606
 0.545000   27.955269   -58.004405
 0.550000   27.667098   -57.264855
 0.555000   27.382620   -56.548599
 0.560000   27.101612   -55.859865
 0.565000   26.824021   -55.193578
 0.570000   26.549676   -54.539381
 0.575000   26.278628   -53.906296
 0.580000   26.010613   -53.311935
 0.585000   25.745508   -52.740728
 0.590000   25.483206   -52.186258
 0.595000   25.223646   -51.648737
 0.600000   24.966718   -51.140533
 0.605000   24.712240   -50.662299
 0.610000   24.460095   -50.207172
 0.615000   24.210169   -49.766946
 0.620000   23.962426   -49.353184
 0.625000   23.716637   -48.967821
 0.630000   23.472748   -48.594799
 0.635000   23.230689   -48.235493
 0.640000   22.990393   -47.886556
 0.645000   22.751823   -47.549962
 0.650000   22.514893   -47.231530
 0.655000   22.279508   -46.922580
 0.660000   22.045667   -46.618465
 0.665000   21.813323   -46.324742
 0.670000   21.582420   -46.037504
 0.675000   21.352948   -45.748509
 0.680000   21.124935   -45.445157
 0.685000   20.898497   -45.108349
 0.690000   20.673851   -44.732076
 0.695000   20.451176   -44.321776
 0.700000   20.230634   -43.881618
 0.705000   20.012360   -43.417599
 0.710000   19.796458   -42.921556
 0.715000   19.583144   -42.407120
 0.720000   19.372386   -41.909983
 0.725000   19.164044   -41.430833
 0.730000   18.958078   -40.968630
 0.735000   18.754358   -40.536897
 0.740000   18.552709   -40.138796
 0.745000   18.352970   -39.791691
 0.750000   18.154792   -39.517169
 0.755000   17.957798   -39.307993
 0.760000   17.761712   -39.156572
 0.765000   17.566233   -39.061698
 0.770000   17.371095   -39.025047
 0.775000   17.175982   -39.038879
 0.780000   16.980706   -39.058323
 0.785000   16.785399   -39.056357
 0.790000   16.590143   -39.036640
 0.795000   16.395032   -38.995822
 0.800000   16.200185   -38.934312
 0.805000   16.005689   -38.857000
 0.810000   15.811615   -38.764820
 0.815000   15.618041   -38.668639
 0.820000   15.424928   -38.579088
 0.825000   15.232250   -38.498694
 0.830000   15.039941   -38.435418
 0.835000   14.847896   -38.393137
 0.840000   14.656010   -38.349846
 0.845000   14.464398   -38.302139
 0.850000   14.272989   -38.272574
 0.855000   14.081672   -38.268274
 0.860000   13.890306   -38.297214
 0.865000   13.698700   -38.384388
 0.870000   13.506462   -38.500981
 0.875000   13.313690   -38.630645
 0.880000   13.120156   -38.821727
 0.885000   12.925473   -39.095316
 0.890000   12.729202   -39.475084
 0.895000   12.530722   -40.070260
 0.900000   12.328500   -40.938465
 0.905000   12.121337   -42.139967
 0.910000   11.907100   -43.851588
 0.915000   11.682821   -46.285491
 0.920000   11.444245   -49.771167
 0.925000   11.185110   -54.947655
 0.930000   10.894769   -62.555645
 0.935000   10.559553   -73.913856
 0.940000   10.155630   -91.725862
 0.945000   9.642295   -120.360913
 0.950000   8.952021   -165.155777
 0.955000   7.990737   -225.797804
 0.960000   6.694043   -281.719333
 0.965000   5.173543   -293.891464
 0.970000   3.755128   -247.660919
 0.975000   2.696934   -175.491005
 0.980000   2.000218   -114.819866
 0.985000   1.548736   -75.851046
 0.990000   1.241708   -52.888595
 0.995000   1.019850   -39.212440
 1.000000   0.849583   -28.894095
201 psinorm omeg(kRad/s) domeg/dpsiN
 0.000000   64.367795   0.018138
 0.005000   64.367465   -0.150096
 0.010000   64.366294   -0.348154
 0.015000   64.363984   -0.610827
 0.020000   64.360186   -0.946498
 0.025000   64.354519   -1.360847
 0.030000   64.346577   -1.856772
 0.035000   64.335951   -2.433676
 0.040000   64.322241   -3.081597
 0.045000   64.305135   -3.790958
 0.050000   64.284331   -4.554591
 0.055000   64.259589   -5.359188
 0.060000   64.230739   -6.190530
 0.065000   64.197684   -7.033728
 0.070000   64.160402   -7.852737
 0.075000   64.119156   -8.647553
 0.080000   64.073926   -9.444829
 0.085000   64.024708   -10.241887
 0.090000   63.971507   -11.042374
 0.095000   63.914284   -11.855330
 0.100000   63.852954   -12.675175
 0.105000   63.787533   -13.509709
 0.110000   63.717857   -14.369705
 0.115000   63.643836   -15.245017
 0.120000   63.565407   -16.139039
 0.125000   63.482445   -17.068326
 0.130000   63.394724   -18.059981
 0.135000   63.301845   -19.139001
 0.140000   63.203334   -20.296512
 0.145000   63.098880   -21.516105
 0.150000   62.988173   -22.799539
 0.155000   62.870885   -24.149569
 0.160000   62.746677   -25.578646
 0.165000   62.615098   -27.080474
 0.170000   62.475872   -28.614843
 0.175000   62.328950   -30.164444
 0.180000   62.174228   -31.729039
 0.185000   62.011660   -33.296739
 0.190000   61.841260   -34.853627
 0.195000   61.663123   -36.372174
 0.200000   61.477539   -37.825473
 0.205000   61.284869   -39.190970
 0.210000   61.085629   -40.437784
 0.215000   60.880491   -41.536960
 0.220000   60.670259   -42.440109
 0.225000   60.456090   -43.073083
 0.230000   60.239528   -43.517842
 0.235000   60.020911   -43.848311
 0.240000   59.801045   -44.025129
 0.245000   59.580660   -44.065241
 0.250000   59.360393   -43.963943
 0.255000   59.141020   -43.651188
 0.260000   58.923881   -43.268745
 0.265000   58.708333   -42.923033
 0.270000   58.494651   -42.538943
 0.275000   58.282944   -42.150690
 0.280000   58.073144   -41.789032
 0.285000   57.865053   -41.463912
 0.290000   57.658505   -41.317605
 0.295000   57.451877   -41.411184
 0.300000   57.244393   -41.646517
 0.305000   57.035412   -41.988945
 0.310000   56.824503   -42.390263
 0.315000   56.611509   -42.829697
 0.320000   56.396206   -43.282013
 0.325000   56.178689   -43.730812
 0.330000   55.958898   -44.190022
 0.335000   55.736789   -44.655753
 0.340000   55.512341   -45.122893
 0.345000   55.285560   -45.611964
 0.350000   55.056221   -46.088670
 0.355000   54.824673   -46.511370
 0.360000   54.591107   -46.896556
 0.365000   54.355708   -47.241399
 0.370000   54.118693   -47.539224
 0.375000   53.880316   -47.787357
 0.380000   53.640820   -47.963398
 0.385000   53.400682   -48.053912
 0.390000   53.160281   -48.070098
 0.395000   52.919981   -48.013204
 0.400000   52.680149   -47.883369
 0.405000   52.441147   -47.663033
 0.410000   52.203518   -47.416483
 0.415000   51.966982   -47.326204
 0.420000   51.730256   -47.538240
 0.425000   51.491600   -48.124511
 0.430000   51.249011   -49.116700
 0.435000   51.000433   -50.655257
 0.440000   50.742459   -52.732103
 0.445000   50.473112   -55.024910
 0.450000   50.192210   -57.416806
 0.455000   49.898944   -59.937116
 0.460000   49.592838   -62.516942
 0.465000   49.273774   -65.232947
 0.470000   48.940509   -67.990493
 0.475000   48.593869   -70.340400
 0.480000   48.237105   -72.192104
 0.485000   47.871948   -73.668234
 0.490000   47.500423   -74.713705
 0.495000   47.124811   -75.297773
 0.500000   46.747445   -75.327358
 0.505000   46.371538   -74.792469
 0.510000   45.999520   -73.907985
 0.515000   45.632458   -72.838307
 0.520000   45.271137   -71.629908
 0.525000   44.916159   -70.301212
 0.530000   44.568125   -68.844144
 0.535000   44.227717   -67.329308
 0.540000   43.894832   -65.823393
 0.545000   43.569483   -64.327278
 0.550000   43.251559   -62.865624
 0.555000   42.940827   -61.454181
 0.560000   42.637017   -60.090667
 0.565000   42.339920   -58.856145
 0.570000   42.048456   -57.799254
 0.575000   41.761928   -56.887865
 0.580000   41.479577   -56.133383
 0.585000   41.200594   -55.545185
 0.590000   40.924125   -55.127186
 0.595000   40.649322   -54.825891
 0.600000   40.375866   -54.573427
 0.605000   40.103588   -54.354055
 0.610000   39.832326   -54.167728
 0.615000   39.561911   -54.017728
 0.620000   39.292149   -53.860049
 0.625000   39.023310   -53.733389
 0.630000   38.754815   -53.698887
 0.635000   38.486321   -53.732468
 0.640000   38.217490   -53.835962
 0.645000   37.947962   -54.013567
 0.650000   37.677354   -54.232969
 0.655000   37.405632   -54.563665
 0.660000   37.131718   -55.083173
 0.665000   36.854800   -55.761054
 0.670000   36.574107   -56.596790
 0.675000   36.288832   -57.593461
 0.680000   35.998173   -58.744746
 0.685000   35.701385   -59.905481
 0.690000   35.399118   -60.900921
 0.695000   35.092376   -61.723758
 0.700000   34.781880   -62.424786
 0.705000   34.468128   -63.050236
 0.710000   34.151378   -63.608312
 0.715000   33.832045   -64.135431
 0.720000   33.510024   -64.684373
 0.725000   33.185201   -65.241114
 0.730000   32.857612   -65.791885
 0.735000   32.527282   -66.338471
 0.740000   32.194228   -66.892049
 0.745000   31.858362   -67.483711
 0.750000   31.519391   -68.165604
 0.755000   31.176706   -69.042068
 0.760000   30.828970   -70.230937
 0.765000   30.474396   -71.795336
 0.770000   30.111017   -73.868610
 0.775000   29.735710   -76.371952
 0.780000   29.347297   -78.703970
 0.785000   28.948670   -80.565514
 0.790000   28.541642   -82.021789
 0.795000   28.128453   -83.003848
 0.800000   27.711603   -83.544790
 0.805000   27.293005   -83.753951
 0.810000   26.874064   -83.568498
 0.815000   26.457320   -83.025652
 0.820000   26.043807   -82.283109
 0.825000   25.634489   -81.364216
 0.830000   25.230165   -80.352253
 0.835000   24.830966   -79.381747
 0.840000   24.436348   -78.438934
 0.845000   24.046577   -77.768001
 0.850000   23.658668   -77.840771
 0.855000   23.268169   -78.944871
 0.860000   22.869219   -81.413798
 0.865000   22.454031   -85.901566
 0.870000   22.010203   -92.393722
 0.875000   21.530094   -100.895959
 0.880000   21.001244   -112.079340
 0.885000   20.409300   -126.269628
 0.890000   19.738548   -143.649251
 0.895000   18.972808   -164.632452
 0.900000   18.092223   -188.063750
 0.905000   17.092170   -212.351560
 0.910000   15.968707   -236.587588
 0.915000   14.726294   -258.931779
 0.920000   13.379390   -277.326729
 0.925000   11.953027   -289.578803
 0.930000   10.483602   -293.517326
 0.935000   9.017854   -287.886584
 0.940000   7.604736   -272.599124
 0.945000   6.291863   -248.500685
 0.950000   5.119729   -217.484910
 0.955000   4.117014   -181.451406
 0.960000   3.305215   -144.102429
 0.965000   2.675989   -109.188919
 0.970000   2.213326   -78.047352
 0.975000   1.895516   -51.596967
 0.980000   1.697356   -30.227391
 0.985000   1.593242   -13.798219
 0.990000   1.559374   -1.964235
 0.995000   1.573600   5.946738
 1.000000   1.618841   12.149906
201 psinorm omegp(kRad/s) domegp/dpsiN
 0.000000   -0.038008   118.585660
 0.005000   0.426382   67.170309
 0.010000   0.633695   38.568457
 0.015000   0.812067   34.859539
 0.020000   0.982291   33.132839
 0.025000   1.143395   31.356001
 0.030000   1.295851   29.527393
 0.035000   1.438669   27.745443
 0.040000   1.573305   26.071492
 0.045000   1.699384   24.267503
 0.050000   1.815980   22.626457
 0.055000   1.925648   21.339218
 0.060000   2.029372   20.258453
 0.065000   2.128233   19.415493
 0.070000   2.223527   18.702688
 0.075000   2.315260   18.120943
 0.080000   2.404737   17.629908
 0.085000   2.491559   17.173040
 0.090000   2.576467   16.803892
 0.095000   2.659598   16.344138
 0.100000   2.739908   15.944111
 0.105000   2.819039   15.633757
 0.110000   2.896246   15.575136
 0.115000   2.974790   15.693834
 0.120000   3.053184   16.016593
 0.125000   3.134956   16.570349
 0.130000   3.218888   17.122059
 0.135000   3.306177   17.721193
 0.140000   3.396100   18.261654
 0.145000   3.488793   18.683071
 0.150000   3.582930   18.881876
 0.155000   3.677612   18.798116
 0.160000   3.770912   18.552652
 0.165000   3.863139   18.190665
 0.170000   3.952818   17.570567
 0.175000   4.038844   16.802346
 0.180000   4.120842   15.736163
 0.185000   4.196206   14.475359
 0.190000   4.265595   13.058396
 0.195000   4.326790   11.469928
 0.200000   4.380295   9.916615
 0.205000   4.425956   8.329862
 0.210000   4.463593   6.966382
 0.215000   4.495620   5.895198
 0.220000   4.522545   4.860655
 0.225000   4.544226   3.890228
 0.230000   4.561448   2.828923
 0.235000   4.572516   1.619235
 0.240000   4.577640   0.267798
 0.245000   4.575194   -1.338227
 0.250000   4.564258   -2.932293
 0.255000   4.545871   -4.613728
 0.260000   4.518120   -6.453946
 0.265000   4.481331   -8.194920
 0.270000   4.436171   -9.907545
 0.275000   4.382256   -11.614360
 0.280000   4.320027   -13.178905
 0.285000   4.250467   -14.676511
 0.290000   4.173262   -16.127737
 0.295000   4.089189   -17.552449
 0.300000   3.997738   -19.087443
 0.305000   3.898315   -20.666253
 0.310000   3.791075   -22.288382
 0.315000   3.675431   -24.138837
 0.320000   3.549687   -26.212252
 0.325000   3.413309   -28.382665
 0.330000   3.265860   -30.550269
 0.335000   3.107806   -32.441326
 0.340000   2.941447   -33.994291
 0.345000   2.767863   -35.378888
 0.350000   2.587658   -36.413284
 0.355000   2.403730   -37.199410
 0.360000   2.215664   -38.042435
 0.365000   2.023306   -38.887267
 0.370000   1.826791   -39.772694
 0.375000   1.625579   -40.758613
 0.380000   1.419205   -41.953317
 0.385000   1.206046   -43.432944
 0.390000   0.984876   -45.097000
 0.395000   0.755076   -46.769340
 0.400000   0.517182   -48.239226
 0.405000   0.272684   -49.325158
 0.410000   0.023931   -50.042506
 0.415000   -0.227742   -50.848527
 0.420000   -0.484554   -52.310212
 0.425000   -0.750844   -54.719771
 0.430000   -1.031752   -58.214201
 0.435000   -1.332986   -62.878386
 0.440000   -1.660536   -69.003812
 0.445000   -2.023024   -75.678599
 0.450000   -2.417322   -82.068307
 0.455000   -2.843707   -88.151276
 0.460000   -3.298835   -93.302576
 0.465000   -3.776733   -97.269531
 0.470000   -4.271530   -99.088770
 0.475000   -4.767620   -97.747757
 0.480000   -5.249008   -93.724921
 0.485000   -5.704870   -87.650706
 0.490000   -6.125515   -79.796556
 0.495000   -6.502835   -70.397908
 0.500000   -6.829494   -60.189730
 0.505000   -7.104732   -50.600143
 0.510000   -7.335495   -42.233893
 0.515000   -7.527071   -35.041054
 0.520000   -7.685906   -29.198588
 0.525000   -7.819057   -24.669706
 0.530000   -7.932603   -21.710723
 0.535000   -8.036164   -20.195270
 0.540000   -8.134555   -19.122099
 0.545000   -8.227385   -18.100310
 0.550000   -8.315559   -17.192920
 0.555000   -8.399315   -16.254564
 0.560000   -8.478104   -15.168698
 0.565000   -8.551002   -13.896632
 0.570000   -8.617070   -12.495128
 0.575000   -8.675953   -10.995454
 0.580000   -8.727025   -9.372421
 0.585000   -8.769677   -7.711548
 0.590000   -8.804141   -6.038251
 0.595000   -8.830060   -4.352287
 0.600000   -8.847663   -2.725028
 0.605000   -8.857310   -1.235800
 0.610000   -8.860021   0.120778
 0.615000   -8.856102   1.365246
 0.620000   -8.846369   2.463236
 0.625000   -8.831470   3.405108
 0.630000   -8.812318   4.257303
 0.635000   -8.788897   5.062073
 0.640000   -8.761697   5.727508
 0.645000   -8.731622   6.338041
 0.650000   -8.698317   6.964960
 0.655000   -8.661972   7.517371
 0.660000   -8.623143   7.988861
 0.665000   -8.582083   8.412238
 0.670000   -8.539021   8.831601
 0.675000   -8.493767   9.200591
 0.680000   -8.447015   9.526948
 0.685000   -8.398498   9.853321
 0.690000   -8.348482   10.129462
 0.695000   -8.297203   10.403153
 0.700000   -8.244450   10.655519
 0.705000   -8.190648   10.855595
 0.710000   -8.135894   11.014373
 0.715000   -8.080504   11.090219
 0.720000   -8.024992   11.092043
 0.725000   -7.969584   11.015246
 0.730000   -7.914839   10.828688
 0.735000   -7.861297   10.567142
 0.740000   -7.809168   10.239707
 0.745000   -7.758900   9.820736
 0.750000   -7.710961   9.347894
 0.755000   -7.665421   8.851614
 0.760000   -7.622444   8.302866
 0.765000   -7.582392   7.765412
 0.770000   -7.544790   7.237161
 0.775000   -7.510021   6.723427
 0.780000   -7.477556   6.285810
 0.785000   -7.447163   5.829935
 0.790000   -7.419257   5.371952
 0.795000   -7.393443   4.897565
 0.800000   -7.370281   4.327836
 0.805000   -7.350165   3.609448
 0.810000   -7.334187   2.783263
 0.815000   -7.322332   1.896062
 0.820000   -7.315226   0.899925
 0.825000   -7.313333   -0.170367
 0.830000   -7.316930   -1.257930
 0.835000   -7.325912   -2.251196
 0.840000   -7.339442   -3.140526
 0.845000   -7.357318   -3.925881
 0.850000   -7.378700   -4.462649
 0.855000   -7.401944   -4.724289
 0.860000   -7.425943   -4.832695
 0.865000   -7.450271   -4.756783
 0.870000   -7.473511   -4.475474
 0.875000   -7.495026   -4.048521
 0.880000   -7.513996   -3.611257
 0.885000   -7.531138   -3.185518
 0.890000   -7.545852   -2.689411
 0.895000   -7.558032   -2.191457
 0.900000   -7.567766   -1.782365
 0.905000   -7.575856   -1.329968
 0.910000   -7.581066   -0.658844
 0.915000   -7.582444   0.378022
 0.920000   -7.577286   2.065956
 0.925000   -7.561785   4.202789
 0.930000   -7.535258   6.921633
 0.935000   -7.492569   12.402196
 0.940000   -7.411236   21.387619
 0.945000   -7.278692   31.671945
 0.950000   -7.094516   42.760495
 0.955000   -6.851087   53.629880
 0.960000   -6.558217   56.932533
 0.965000   -6.281762   41.527280
 0.970000   -6.142945   1.450633
 0.975000   -6.267256   -41.467070
 0.980000   -6.557615   -9.117069
 0.985000   -6.358426   208.256594
 0.990000   -4.475049   642.169772
 0.995000   0.063271   1112.567316
 1.000000   6.650624   1522.373683
201 psinorm omgvb(kRad/s) domgvb/dpsiN
 0.000000   64.329787   118.603798
 0.005000   64.793847   67.020213
 0.010000   64.999989   38.220303
 0.015000   65.176050   34.248712
 0.020000   65.342476   32.186341
 0.025000   65.497914   29.995154
 0.030000   65.642428   27.670621
 0.035000   65.774620   25.311767
 0.040000   65.895546   22.989895
 0.045000   66.004519   20.476545
 0.050000   66.100311   18.071866
 0.055000   66.185238   15.980030
 0.060000   66.260111   14.067923
 0.065000   66.325917   12.381765
 0.070000   66.383929   10.849950
 0.075000   66.434416   9.473390
 0.080000   66.478663   8.185079
 0.085000   66.516267   6.931153
 0.090000   66.547975   5.761518
 0.095000   66.573882   4.488808
 0.100000   66.592863   3.268935
 0.105000   66.606572   2.124048
 0.110000   66.614103   1.205432
 0.115000   66.618626   0.448816
 0.120000   66.618591   -0.122446
 0.125000   66.617401   -0.497977
 0.130000   66.613611   -0.937922
 0.135000   66.608022   -1.417807
 0.140000   66.599433   -2.034858
 0.145000   66.587674   -2.833034
 0.150000   66.571103   -3.917664
 0.155000   66.548497   -5.351453
 0.160000   66.517589   -7.025995
 0.165000   66.478237   -8.889809
 0.170000   66.428690   -11.044276
 0.175000   66.367794   -13.362098
 0.180000   66.295069   -15.992876
 0.185000   66.207866   -18.821380
 0.190000   66.106856   -21.795231
 0.195000   65.989913   -24.902246
 0.200000   65.857833   -27.908858
 0.205000   65.710825   -30.861107
 0.210000   65.549222   -33.471401
 0.215000   65.376111   -35.641763
 0.220000   65.192804   -37.579454
 0.225000   65.000316   -39.182855
 0.230000   64.800976   -40.688919
 0.235000   64.593427   -42.229076
 0.240000   64.378685   -43.757331
 0.245000   64.155854   -45.403468
 0.250000   63.924651   -46.896236
 0.255000   63.686891   -48.264916
 0.260000   63.442001   -49.722691
 0.265000   63.189664   -51.117953
 0.270000   62.930822   -52.446488
 0.275000   62.665199   -53.765050
 0.280000   62.393171   -54.967937
 0.285000   62.115520   -56.140422
 0.290000   61.831767   -57.445342
 0.295000   61.541067   -58.963633
 0.300000   61.242131   -60.733960
 0.305000   60.933727   -62.655198
 0.310000   60.615579   -64.678645
 0.315000   60.286941   -66.968534
 0.320000   59.945893   -69.494265
 0.325000   59.591998   -72.113477
 0.330000   59.224759   -74.740291
 0.335000   58.844595   -77.097079
 0.340000   58.453788   -79.117184
 0.345000   58.053423   -80.990852
 0.350000   57.643879   -82.501954
 0.355000   57.228404   -83.710780
 0.360000   56.806772   -84.938990
 0.365000   56.379014   -86.128666
 0.370000   55.945485   -87.311918
 0.375000   55.505895   -88.545970
 0.380000   55.060025   -89.916715
 0.385000   54.606727   -91.486856
 0.390000   54.145157   -93.167098
 0.395000   53.675056   -94.782544
 0.400000   53.197331   -96.122594
 0.405000   52.713831   -96.988191
 0.410000   52.227449   -97.458989
 0.415000   51.739241   -98.174731
 0.420000   51.245702   -99.848453
 0.425000   50.740756   -102.844282
 0.430000   50.217259   -107.330900
 0.435000   49.667447   -113.533642
 0.440000   49.081923   -121.735915
 0.445000   48.450088   -130.703510
 0.450000   47.774888   -139.485113
 0.455000   47.055237   -148.088391
 0.460000   46.294004   -155.819518
 0.465000   45.497042   -162.502478
 0.470000   44.668979   -167.079263
 0.475000   43.826249   -168.088156
 0.480000   42.988097   -165.917025
 0.485000   42.167079   -161.318940
 0.490000   41.374908   -154.510261
 0.495000   40.621976   -145.695680
 0.500000   39.917951   -135.517088
 0.505000   39.266805   -125.392612
 0.510000   38.664025   -116.141878
 0.515000   38.105386   -107.879360
 0.520000   37.585231   -100.828495
 0.525000   37.097102   -94.970918
 0.530000   36.635522   -90.554867
 0.535000   36.191553   -87.524578
 0.540000   35.760277   -84.945492
 0.545000   35.342098   -82.427588
 0.550000   34.936001   -80.058545
 0.555000   34.541512   -77.708745
 0.560000   34.158913   -75.259364
 0.565000   33.788919   -72.752778
 0.570000   33.431385   -70.294382
 0.575000   33.085975   -67.883319
 0.580000   32.752552   -65.505804
 0.585000   32.430917   -63.256733
 0.590000   32.119985   -61.165437
 0.595000   31.819263   -59.178179
 0.600000   31.528203   -57.298456
 0.605000   31.246278   -55.589855
 0.610000   30.972305   -54.046950
 0.615000   30.705809   -52.652482
 0.620000   30.445780   -51.396813
 0.625000   30.191840   -50.328281
 0.630000   29.942497   -49.441583
 0.635000   29.697425   -48.670395
 0.640000   29.455793   -48.108454
 0.645000   29.216340   -47.675526
 0.650000   28.979038   -47.268009
 0.655000   28.743660   -47.046294
 0.660000   28.508575   -47.094312
 0.665000   28.272717   -47.348816
 0.670000   28.035087   -47.765188
 0.675000   27.795065   -48.392870
 0.680000   27.551158   -49.217799
 0.685000   27.302887   -50.052160
 0.690000   27.050636   -50.771459
 0.695000   26.795172   -51.320605
 0.700000   26.537430   -51.769267
 0.705000   26.277480   -52.194641
 0.710000   26.015484   -52.593939
 0.715000   25.751540   -53.045212
 0.720000   25.485032   -53.592331
 0.725000   25.215617   -54.225868
 0.730000   24.942773   -54.963197
 0.735000   24.665985   -55.771330
 0.740000   24.385060   -56.652343
 0.745000   24.099462   -57.662976
 0.750000   23.808430   -58.817710
 0.755000   23.511285   -60.190454
 0.760000   23.206525   -61.928072
 0.765000   22.892004   -64.029924
 0.770000   22.566226   -66.631449
 0.775000   22.225689   -69.648525
 0.780000   21.869741   -72.418161
 0.785000   21.501508   -74.735579
 0.790000   21.122385   -76.649836
 0.795000   20.735009   -78.106282
 0.800000   20.341322   -79.216954
 0.805000   19.942840   -80.144502
 0.810000   19.539877   -80.785235
 0.815000   19.134987   -81.129590
 0.820000   18.728581   -81.383184
 0.825000   18.321156   -81.534583
 0.830000   17.913236   -81.610183
 0.835000   17.505054   -81.632943
 0.840000   17.096906   -81.579460
 0.845000   16.689259   -81.693882
 0.850000   16.279967   -82.303419
 0.855000   15.866225   -83.669159
 0.860000   15.443276   -86.246493
 0.865000   15.003760   -90.658348
 0.870000   14.536692   -96.869195
 0.875000   14.035068   -104.944481
 0.880000   13.487247   -115.690597
 0.885000   12.878162   -129.455146
 0.890000   12.192696   -146.338662
 0.895000   11.414776   -166.823909
 0.900000   10.524457   -189.846115
 0.905000   9.516314   -213.681528
 0.910000   8.387642   -237.246431
 0.915000   7.143850   -258.553757
 0.920000   5.802104   -275.260773
 0.925000   4.391242   -285.376014
 0.930000   2.948344   -286.595693
 0.935000   1.525285   -275.484388
 0.940000   0.193500   -251.211505
 0.945000   -0.986830   -216.828740
 0.950000   -1.974787   -174.724415
 0.955000   -2.734074   -127.821526
 0.960000   -3.253003   -87.169896
 0.965000   -3.605773   -67.661639
 0.970000   -3.929619   -76.596718
 0.975000   -4.371740   -93.064037
 0.980000   -4.860259   -39.344460
 0.985000   -4.765185   194.458375
 0.990000   -2.915676   640.205537
 0.995000   1.636871   1118.514055
 1.000000   8.269465   1534.523589
201 psinorm omgpp(kRad/s) domgpp/dpsiN
 0.000000   -0.041383   -20.442449
 0.005000   -0.165947   -29.383186
 0.010000   -0.335215   -34.209424
 0.015000   -0.508041   -34.875136
 0.020000   -0.683966   -35.434999
 0.025000   -0.862391   -35.870137
 0.030000   -1.042668   -36.194233
 0.035000   -1.224334   -36.408162
 0.040000   -1.406749   -36.500898
 0.045000   -1.589343   -36.481886
 0.050000   -1.771568   -36.340312
 0.055000   -1.952746   -36.079151
 0.060000   -2.132360   -35.748798
 0.065000   -2.310234   -35.294366
 0.070000   -2.485303   -34.675678
 0.075000   -2.656990   -33.959015
 0.080000   -2.824893   -33.160264
 0.085000   -2.988593   -32.299752
 0.090000   -3.147891   -31.539958
 0.095000   -3.303993   -30.797982
 0.100000   -3.455871   -29.934998
 0.105000   -3.603343   -29.038348
 0.110000   -3.746254   -28.109056
 0.115000   -3.884433   -27.199566
 0.120000   -4.018250   -26.440503
 0.125000   -4.148838   -25.794313
 0.130000   -4.276193   -25.112925
 0.135000   -4.399968   -24.327081
 0.140000   -4.519464   -23.371699
 0.145000   -4.633685   -22.337669
 0.150000   -4.742840   -20.970219
 0.155000   -4.843387   -19.355684
 0.160000   -4.936397   -17.797945
 0.165000   -5.021366   -16.142368
 0.170000   -5.097821   -14.396848
 0.175000   -5.165335   -12.450247
 0.180000   -5.222323   -10.441131
 0.185000   -5.269746   -8.523911
 0.190000   -5.307563   -6.604947
 0.195000   -5.335795   -4.728555
 0.200000   -5.354848   -2.970499
 0.205000   -5.365500   -1.342755
 0.210000   -5.368276   -0.392743
 0.215000   -5.369428   0.044895
 0.220000   -5.367827   0.583086
 0.225000   -5.363597   1.067848
 0.230000   -5.357148   1.485258
 0.235000   -5.348744   1.508405
 0.240000   -5.342064   1.605346
 0.245000   -5.332691   2.288261
 0.250000   -5.319182   3.095583
 0.255000   -5.301735   3.965002
 0.260000   -5.279532   4.996062
 0.265000   -5.251774   5.848078
 0.270000   -5.221051   7.089985
 0.275000   -5.180875   9.035263
 0.280000   -5.130698   10.845550
 0.285000   -5.072419   12.478373
 0.290000   -5.005914   14.129422
 0.295000   -4.931125   15.845602
 0.300000   -4.847458   17.973623
 0.305000   -4.751389   20.219039
 0.310000   -4.645268   21.884255
 0.315000   -4.532546   22.895138
 0.320000   -4.416317   23.319728
 0.325000   -4.299349   23.389632
 0.330000   -4.182420   23.114939
 0.335000   -4.068199   22.438777
 0.340000   -3.958033   21.804619
 0.345000   -3.850153   21.345671
 0.350000   -3.744576   20.891770
 0.355000   -3.641236   20.387629
 0.360000   -3.540700   19.749990
 0.365000   -3.443736   19.335068
 0.370000   -3.347349   19.153832
 0.375000   -3.252197   18.999946
 0.380000   -3.157349   19.066300
 0.385000   -3.061534   19.430496
 0.390000   -2.963044   20.345004
 0.395000   -2.858084   21.514188
 0.400000   -2.747903   22.279073
 0.405000   -2.635294   22.597040
 0.410000   -2.521932   22.554699
 0.415000   -2.409747   22.148889
 0.420000   -2.300443   21.559987
 0.425000   -2.194147   20.155471
 0.430000   -2.098889   18.439141
 0.435000   -2.009755   17.256150
 0.440000   -1.926327   16.142737
 0.445000   -1.848328   15.072119
 0.450000   -1.775606   14.193297
 0.455000   -1.706395   13.026813
 0.460000   -1.645338   11.655997
 0.465000   -1.589835   10.536397
 0.470000   -1.539974   9.387291
 0.475000   -1.495962   8.188466
 0.480000   -1.458089   6.810919
 0.485000   -1.427853   5.426538
 0.490000   -1.403824   4.415003
 0.495000   -1.383703   3.739984
 0.500000   -1.366424   3.218211
 0.505000   -1.351521   2.741597
 0.510000   -1.339008   2.309401
 0.515000   -1.328427   1.830291
 0.520000   -1.320705   1.255907
 0.525000   -1.315868   0.705283
 0.530000   -1.313652   0.192558
 0.535000   -1.313942   -0.299563
 0.540000   -1.316648   -0.612637
 0.545000   -1.320068   -1.020689
 0.550000   -1.326855   -1.699342
 0.555000   -1.337062   -2.327691
 0.560000   -1.350132   -2.915454
 0.565000   -1.366216   -3.535316
 0.570000   -1.385485   -4.126574
 0.575000   -1.407482   -4.838768
 0.580000   -1.433873   -5.669241
 0.585000   -1.464175   -6.363893
 0.590000   -1.497511   -6.937842
 0.595000   -1.533553   -7.446277
 0.600000   -1.571974   -7.932090
 0.605000   -1.612874   -8.403233
 0.610000   -1.656007   -8.749144
 0.615000   -1.700365   -8.995626
 0.620000   -1.745963   -9.217251
 0.625000   -1.792538   -9.387372
 0.630000   -1.839837   -9.580535
 0.635000   -1.888343   -9.764938
 0.640000   -1.937486   -9.691653
 0.645000   -1.985260   -9.513140
 0.650000   -2.032617   -9.433827
 0.655000   -2.079598   -9.365935
 0.660000   -2.126277   -9.383389
 0.665000   -2.173432   -9.687605
 0.670000   -2.223153   -10.295404
 0.675000   -2.276386   -11.432020
 0.680000   -2.337473   -13.106478
 0.685000   -2.407451   -14.910767
 0.690000   -2.486581   -16.950374
 0.695000   -2.576954   -19.836366
 0.700000   -2.684944   -20.982962
 0.705000   -2.786784   -20.553507
 0.710000   -2.890479   -20.702992
 0.715000   -2.993814   -20.349400
 0.720000   -3.093973   -19.481532
 0.725000   -3.188629   -18.436531
 0.730000   -3.278339   -14.904065
 0.735000   -3.337670   -9.768388
 0.740000   -3.376022   -5.330703
 0.745000   -3.390977   -0.512628
 0.750000   -3.381149   4.448768
 0.755000   -3.346489   10.442262
 0.760000   -3.276726   15.172405
 0.765000   -3.194765   17.672930
 0.770000   -3.099997   19.810612
 0.775000   -2.996659   21.098896
 0.780000   -2.889008   21.563833
 0.785000   -2.781021   22.179798
 0.790000   -2.667210   20.858840
 0.795000   -2.572432   17.816136
 0.800000   -2.489049   15.501585
 0.805000   -2.417417   13.101082
 0.810000   -2.358038   10.706643
 0.815000   -2.310350   8.386534
 0.820000   -2.274172   6.878323
 0.825000   -2.241567   6.287706
 0.830000   -2.211295   5.755162
 0.835000   -2.184015   5.108956
 0.840000   -2.160206   4.319043
 0.845000   -2.140825   2.766982
 0.850000   -2.132536   0.800593
 0.855000   -2.132819   -0.862721
 0.860000   -2.141163   -2.769041
 0.865000   -2.160509   -5.067355
 0.870000   -2.191837   -7.554945
 0.875000   -2.236059   -11.061506
 0.880000   -2.302452   -14.697731
 0.885000   -2.383036   -17.319684
 0.890000   -2.475649   -21.035665
 0.895000   -2.593393   -26.807254
 0.900000   -2.743721   -34.168692
 0.905000   -2.935080   -45.336756
 0.910000   -3.197089   -60.714000
 0.915000   -3.542220   -76.465449
 0.920000   -3.961743   -95.919988
 0.925000   -4.501420   -123.855070
 0.930000   -5.200294   -160.976809
 0.935000   -6.111188   -215.509911
 0.940000   -7.355393   -291.366035
 0.945000   -9.024848   -366.586423
 0.950000   -11.021257   -438.697107
 0.955000   -13.411819   -508.944633
 0.960000   -16.110704   -549.784508
 0.965000   -18.909664   -541.952330
 0.970000   -21.530227   -461.540269
 0.975000   -23.525067   -273.593481
 0.980000   -24.266162   -28.319646
 0.985000   -23.808263   199.235884
 0.990000   -22.273803   383.277266
 0.995000   -19.975491   495.027405
 1.000000   -17.323529   565.757320
201 psinorm omgeb(kRad/s) domgeb/dpsiN
 0.000000   64.288404   98.161349
 0.005000   64.627900   37.637028
 0.010000   64.664775   4.010879
 0.015000   64.668009   -0.626424
 0.020000   64.658510   -3.248659
 0.025000   64.635522   -5.874983
 0.030000   64.599760   -8.523613
 0.035000   64.550286   -11.096395
 0.040000   64.488796   -13.511002
 0.045000   64.415176   -16.005341
 0.050000   64.328743   -18.268446
 0.055000   64.232492   -20.099121
 0.060000   64.127752   -21.680875
 0.065000   64.015683   -22.912601
 0.070000   63.898626   -23.825728
 0.075000   63.777426   -24.485625
 0.080000   63.653770   -24.975185
 0.085000   63.527674   -25.368599
 0.090000   63.400084   -25.778439
 0.095000   63.269890   -26.309175
 0.100000   63.136992   -26.666063
 0.105000   63.003229   -26.914300
 0.110000   62.867849   -26.903625
 0.115000   62.734193   -26.750750
 0.120000   62.600341   -26.562949
 0.125000   62.468563   -26.292290
 0.130000   62.337418   -26.050847
 0.135000   62.208055   -25.744889
 0.140000   62.079970   -25.406557
 0.145000   61.953989   -25.170703
 0.150000   61.828263   -24.887882
 0.155000   61.705110   -24.707137
 0.160000   61.581191   -24.823940
 0.165000   61.456871   -25.032177
 0.170000   61.330869   -25.441124
 0.175000   61.202460   -25.812345
 0.180000   61.072746   -26.434007
 0.185000   60.938120   -27.345291
 0.190000   60.799293   -28.400178
 0.195000   60.654118   -29.630802
 0.200000   60.502985   -30.879357
 0.205000   60.345324   -32.203862
 0.210000   60.180946   -33.864144
 0.215000   60.006683   -35.596867
 0.220000   59.824978   -36.996368
 0.225000   59.636719   -38.115007
 0.230000   59.443828   -39.203661
 0.235000   59.244682   -40.720671
 0.240000   59.036621   -42.151985
 0.245000   58.823163   -43.115208
 0.250000   58.605469   -43.800653
 0.255000   58.385156   -44.299914
 0.260000   58.162470   -44.726629
 0.265000   57.937890   -45.269875
 0.270000   57.709771   -45.356503
 0.275000   57.484325   -44.729787
 0.280000   57.262473   -44.122387
 0.285000   57.043101   -43.662049
 0.290000   56.825853   -43.315919
 0.295000   56.609942   -43.118030
 0.300000   56.394672   -42.760336
 0.305000   56.182338   -42.436159
 0.310000   55.970311   -42.794390
 0.315000   55.754394   -44.073396
 0.320000   55.529577   -46.174537
 0.325000   55.292649   -48.723845
 0.330000   55.042338   -51.625352
 0.335000   54.776396   -54.658302
 0.340000   54.495755   -57.312565
 0.345000   54.203270   -59.645181
 0.350000   53.899303   -61.610184
 0.355000   53.587168   -63.323152
 0.360000   53.266072   -65.189001
 0.365000   52.935278   -66.793598
 0.370000   52.598136   -68.158086
 0.375000   52.253697   -69.546024
 0.380000   51.902676   -70.850415
 0.385000   51.545193   -72.056360
 0.390000   51.182112   -72.822094
 0.395000   50.816972   -73.268356
 0.400000   50.449429   -73.843521
 0.405000   50.078537   -74.391151
 0.410000   49.705517   -74.904290
 0.415000   49.329494   -76.025842
 0.420000   48.945259   -78.288466
 0.425000   48.546609   -82.688811
 0.430000   48.118371   -88.891760
 0.435000   47.657692   -96.277492
 0.440000   47.155596   -105.593177
 0.445000   46.601760   -115.631391
 0.450000   45.999282   -125.291816
 0.455000   45.348842   -135.061579
 0.460000   44.648666   -144.163521
 0.465000   43.907207   -151.966081
 0.470000   43.129005   -157.691972
 0.475000   42.330287   -159.899690
 0.480000   41.530008   -159.106107
 0.485000   40.739226   -155.892403
 0.490000   39.971084   -150.095257
 0.495000   39.238273   -141.955696
 0.500000   38.551527   -132.298877
 0.505000   37.915284   -122.651015
 0.510000   37.325017   -113.832476
 0.515000   36.776960   -106.049069
 0.520000   36.264526   -99.572589
 0.525000   35.781234   -94.265634
 0.530000   35.321870   -90.362309
 0.535000   34.877611   -87.824141
 0.540000   34.443629   -85.558129
 0.545000   34.022029   -83.448277
 0.550000   33.609146   -81.757886
 0.555000   33.204451   -80.036436
 0.560000   32.808782   -78.174818
 0.565000   32.422702   -76.288094
 0.570000   32.045901   -74.420956
 0.575000   31.678493   -72.722087
 0.580000   31.318680   -71.175045
 0.585000   30.966742   -69.620626
 0.590000   30.622473   -68.103279
 0.595000   30.285710   -66.624456
 0.600000   29.956229   -65.230545
 0.605000   29.633404   -63.993088
 0.610000   29.316298   -62.796094
 0.615000   29.005443   -61.648108
 0.620000   28.699817   -60.614064
 0.625000   28.399303   -59.715653
 0.630000   28.102660   -59.022119
 0.635000   27.809081   -58.435333
 0.640000   27.518307   -57.800107
 0.645000   27.231080   -57.188666
 0.650000   26.946420   -56.701836
 0.655000   26.664062   -56.412229
 0.660000   26.382298   -56.477701
 0.665000   26.099285   -57.036422
 0.670000   25.811934   -58.060592
 0.675000   25.518679   -59.824890
 0.680000   25.213685   -62.324277
 0.685000   24.895436   -64.962927
 0.690000   24.564056   -67.721832
 0.695000   24.218218   -71.156971
 0.700000   23.852486   -72.752229
 0.705000   23.490696   -72.748148
 0.710000   23.125005   -73.296930
 0.715000   22.757726   -73.394612
 0.720000   22.391058   -73.073863
 0.725000   22.026988   -72.662399
 0.730000   21.664434   -69.867263
 0.735000   21.328315   -65.539718
 0.740000   21.009037   -61.983045
 0.745000   20.708485   -58.175603
 0.750000   20.427281   -54.368942
 0.755000   20.164795   -49.748192
 0.760000   19.929799   -46.755666
 0.765000   19.697239   -46.356994
 0.770000   19.466229   -46.820837
 0.775000   19.229030   -48.549629
 0.780000   18.980733   -50.854327
 0.785000   18.720487   -52.555781
 0.790000   18.455175   -55.790997
 0.795000   18.162577   -60.290147
 0.800000   17.852274   -63.715369
 0.805000   17.525423   -67.043420
 0.810000   17.181840   -70.078592
 0.815000   16.824637   -72.743056
 0.820000   16.454409   -74.504861
 0.825000   16.079589   -75.246877
 0.830000   15.701940   -75.855022
 0.835000   15.321039   -76.523987
 0.840000   14.936700   -77.260417
 0.845000   14.548434   -78.926900
 0.850000   14.147431   -81.502827
 0.855000   13.733406   -84.531881
 0.860000   13.302113   -89.015534
 0.865000   12.843251   -95.725703
 0.870000   12.344856   -104.424140
 0.875000   11.799009   -116.005986
 0.880000   11.184796   -130.388328
 0.885000   10.495126   -146.774830
 0.890000   9.717047   -167.374327
 0.895000   8.821383   -193.631163
 0.900000   7.780736   -224.014806
 0.905000   6.581235   -259.018284
 0.910000   5.190553   -297.960431
 0.915000   3.601630   -335.019205
 0.920000   1.840361   -371.180761
 0.925000   -0.110177   -409.231085
 0.930000   -2.251950   -447.572502
 0.935000   -4.585902   -490.994299
 0.940000   -7.161893   -542.577541
 0.945000   -10.011678   -583.415163
 0.950000   -12.996045   -613.421522
 0.955000   -16.145893   -636.766159
 0.960000   -19.363706   -636.954404
 0.965000   -22.515437   -609.613969
 0.970000   -25.459846   -538.136988
 0.975000   -27.896807   -366.657518
 0.980000   -29.126421   -67.664106
 0.985000   -28.573448   393.694259
 0.990000   -25.189478   1023.482803
 0.995000   -18.338620   1613.541459
 1.000000   -9.054064   2100.280909
201 psinorm er(kV/m) der/dpsiN
 0.000000   0.673661   1224.301296
 0.005000   5.545887   724.589162
 0.010000   7.919552   419.577815
 0.015000   9.741665   335.439417
 0.020000   11.273947   288.766275
 0.025000   12.629328   257.428542
 0.030000   13.848232   233.102599
 0.035000   14.960354   213.917529
 0.040000   15.987407   198.523267
 0.045000   16.945586   185.125224
 0.050000   17.838659   174.510530
 0.055000   18.690692   165.697580
 0.060000   19.495635   155.951899
 0.065000   20.250211   146.867017
 0.070000   20.964305   141.509451
 0.075000   21.665305   135.242242
 0.080000   22.316728   127.876563
 0.085000   22.944071   124.485910
 0.090000   23.561587   117.687755
 0.095000   24.120948   113.674280
 0.100000   24.698330   109.930137
 0.105000   25.220250   105.208237
 0.110000   25.750412   101.937630
 0.115000   26.239626   97.937689
 0.120000   26.729789   94.930787
 0.125000   27.188934   91.739877
 0.130000   27.647188   88.643944
 0.135000   28.075373   86.240031
 0.140000   28.509588   83.015491
 0.145000   28.905528   81.316429
 0.150000   29.322752   77.850083
 0.155000   29.684029   76.885588
 0.160000   30.091608   72.933297
 0.165000   30.413362   70.516805
 0.170000   30.796776   70.170760
 0.175000   31.115070   65.365026
 0.180000   31.450427   66.015307
 0.185000   31.775223   60.466482
 0.190000   32.055091   60.296922
 0.195000   32.378192   56.025606
 0.200000   32.615347   52.375420
 0.205000   32.901946   54.243323
 0.210000   33.157781   47.264281
 0.215000   33.374589   47.109564
 0.220000   33.628876   43.393302
 0.225000   33.808522   39.324534
 0.230000   34.022122   41.880058
 0.235000   34.227323   34.809297
 0.240000   34.370215   33.247469
 0.245000   34.559797   33.981572
 0.250000   34.710030   28.026816
 0.255000   34.840065   29.105168
 0.260000   35.001082   26.543101
 0.265000   35.105496   22.505909
 0.270000   35.226141   25.765770
 0.275000   35.363154   20.922453
 0.280000   35.435366   18.936829
 0.285000   35.552522   23.426152
 0.290000   35.669627   17.400543
 0.295000   35.726528   16.033634
 0.300000   35.829964   19.960482
 0.305000   35.926133   14.332361
 0.310000   35.973287   13.052784
 0.315000   36.056661   15.149471
 0.320000   36.124782   8.566514
 0.325000   36.142326   5.940712
 0.330000   36.184189   6.581234
 0.335000   36.208138   -0.225140
 0.340000   36.181938   -3.105290
 0.345000   36.177085   -2.171778
 0.350000   36.160220   -8.002573
 0.355000   36.097059   -10.552399
 0.360000   36.054696   -9.365074
 0.365000   36.003409   -14.333387
 0.370000   35.911362   -16.993793
 0.375000   35.833471   -16.055998
 0.380000   35.750802   -19.586245
 0.385000   35.637608   -22.490051
 0.390000   35.525901   -22.091178
 0.395000   35.416696   -23.611482
 0.400000   35.289787   -26.377551
 0.405000   35.152921   -26.749119
 0.410000   35.022295   -27.180089
 0.415000   34.881120   -30.382261
 0.420000   34.718473   -32.641861
 0.425000   34.554701   -35.157914
 0.430000   34.366894   -41.921119
 0.435000   34.135490   -48.376086
 0.440000   33.883133   -54.439768
 0.445000   33.591093   -63.277334
 0.450000   33.250359   -71.843195
 0.455000   32.872661   -79.101029
 0.460000   32.459349   -86.372051
 0.465000   32.008940   -93.880372
 0.470000   31.520545   -98.915179
 0.475000   31.019788   -100.584317
 0.480000   30.514702   -101.785968
 0.485000   30.001929   -100.565416
 0.490000   29.509048   -96.228978
 0.495000   29.039639   -91.261949
 0.500000   28.596429   -85.396404
 0.505000   28.185675   -78.619458
 0.510000   27.810234   -72.252911
 0.515000   27.463146   -67.695882
 0.520000   27.133275   -63.489841
 0.525000   26.828247   -59.347529
 0.530000   26.539800   -57.261484
 0.535000   26.255633   -56.184810
 0.540000   25.977952   -54.529488
 0.545000   25.710338   -53.129027
 0.550000   25.446662   -52.807333
 0.555000   25.182264   -51.893155
 0.560000   24.927730   -50.271611
 0.565000   24.679548   -49.560225
 0.570000   24.432128   -48.767327
 0.575000   24.191875   -47.388308
 0.580000   23.958245   -46.339440
 0.585000   23.728481   -45.974954
 0.590000   23.498495   -45.059334
 0.595000   23.277887   -43.627261
 0.600000   23.062223   -43.169891
 0.605000   22.846188   -42.756729
 0.610000   22.634655   -41.666696
 0.615000   22.429521   -40.758946
 0.620000   22.227066   -40.791300
 0.625000   22.021608   -40.284845
 0.630000   21.824217   -39.289989
 0.635000   21.628708   -39.339867
 0.640000   21.430819   -39.422839
 0.645000   21.234480   -38.768503
 0.650000   21.043134   -38.136273
 0.655000   20.853117   -38.797222
 0.660000   20.655161   -39.096004
 0.665000   20.462157   -38.938869
 0.670000   20.265773   -40.058715
 0.675000   20.061570   -42.183003
 0.680000   19.843943   -44.062652
 0.685000   19.620944   -45.684471
 0.690000   19.387098   -48.621084
 0.695000   19.134733   -51.807045
 0.700000   18.869028   -52.587505
 0.705000   18.608858   -52.440185
 0.710000   18.344626   -54.034809
 0.715000   18.068510   -54.257367
 0.720000   17.802052   -53.133200
 0.725000   17.537178   -53.346201
 0.730000   17.268590   -52.005577
 0.735000   17.017122   -48.283332
 0.740000   16.785757   -44.831347
 0.745000   16.568808   -42.738882
 0.750000   16.358368   -40.193772
 0.755000   16.166871   -35.791738
 0.760000   16.000451   -33.151587
 0.765000   15.835355   -34.052354
 0.770000   15.659927   -34.556678
 0.775000   15.489788   -34.979409
 0.780000   15.310133   -37.233783
 0.785000   15.117450   -39.426758
 0.790000   14.915865   -41.931223
 0.795000   14.698138   -45.045463
 0.800000   14.465411   -48.406841
 0.805000   14.214070   -51.642537
 0.810000   13.948985   -53.839629
 0.815000   13.675673   -55.790315
 0.820000   13.391082   -57.972435
 0.825000   13.095949   -58.917927
 0.830000   12.801903   -59.008304
 0.835000   12.505866   -59.591443
 0.840000   12.205988   -60.993635
 0.845000   11.895930   -62.540086
 0.850000   11.580588   -64.196245
 0.855000   11.253967   -66.970855
 0.860000   10.910879   -71.298203
 0.865000   10.540985   -76.880031
 0.870000   10.142079   -83.747572
 0.875000   9.703509   -93.693675
 0.880000   9.205142   -106.103488
 0.885000   8.642474   -119.596322
 0.890000   8.009179   -136.436377
 0.895000   7.278111   -158.720012
 0.900000   6.421979   -184.332902
 0.905000   5.434782   -213.159639
 0.910000   4.290382   -245.365427
 0.915000   2.981127   -276.695393
 0.920000   1.523428   -306.799149
 0.925000   -0.086864   -338.127161
 0.930000   -1.857843   -370.629612
 0.935000   -3.793160   -410.585677
 0.940000   -5.963700   -454.621420
 0.945000   -8.339374   -486.783782
 0.950000   -10.831538   -519.913393
 0.955000   -13.538508   -572.436230
 0.960000   -16.555900   -574.280090
 0.965000   -19.281309   -528.048843
 0.970000   -21.836389   -477.537641
 0.975000   -24.056686   -356.485388
 0.980000   -25.401242   -88.330611
 0.985000   -24.939992   338.432720
 0.990000   -22.016915   889.729531
 0.995000   -16.042696   1409.823780
 1.000000   -7.918677   1839.783819
201 psinorm ommvb() dommvb/dpsiN
 0.000000   93.392528   21945.694741
 0.005000   183.888748   14252.793393
 0.010000   235.920462   9251.137313
 0.015000   276.400121   7429.423468
 0.020000   310.214696   6262.359006
 0.025000   339.023711   5348.553731
 0.030000   363.700234   4592.885165
 0.035000   384.952563   4004.481224
 0.040000   403.745046   3429.618918
 0.045000   419.248752   2880.007887
 0.050000   432.545125   2555.392180
 0.055000   444.802674   2228.858129
 0.060000   454.833706   1907.522673
 0.065000   463.877901   1667.835908
 0.070000   471.512065   1418.910838
 0.075000   478.067009   1184.789262
 0.080000   483.359958   989.955461
 0.085000   487.966564   832.526181
 0.090000   491.685220   640.259211
 0.095000   494.369156   409.158457
 0.100000   495.776804   270.377723
 0.105000   497.072933   184.795062
 0.110000   497.624755   46.074513
 0.115000   497.533678   -82.556994
 0.120000   496.799185   -216.728124
 0.125000   495.366397   -340.001979
 0.130000   493.399165   -450.010675
 0.135000   490.866290   -557.753343
 0.140000   487.821632   -662.895754
 0.145000   484.237333   -755.950175
 0.150000   480.262130   -836.729337
 0.155000   475.870039   -913.123994
 0.160000   471.130890   -981.375481
 0.165000   466.056284   -1043.669923
 0.170000   460.694191   -1096.934109
 0.175000   455.086943   -1145.185653
 0.180000   449.242334   -1190.181245
 0.185000   443.185131   -1223.880698
 0.190000   437.003527   -1247.548741
 0.195000   430.709643   -1267.872559
 0.200000   424.324802   -1365.996474
 0.205000   417.049679   -1493.782548
 0.210000   409.386976   -1418.231570
 0.215000   402.867363   -1299.663025
 0.220000   396.390346   -1289.035049
 0.225000   389.977013   -1278.308393
 0.230000   383.607262   -1264.837098
 0.235000   377.328642   -1307.468910
 0.240000   370.532573   -1456.687167
 0.245000   362.761770   -1356.912686
 0.250000   356.963446   -1141.901546
 0.255000   351.342754   -1111.126976
 0.260000   345.852176   -1083.224231
 0.265000   340.510512   -1150.960419
 0.270000   334.342572   -1244.591302
 0.275000   328.064599   -1094.788848
 0.280000   323.394684   -911.689616
 0.285000   318.947703   -870.098733
 0.290000   314.693696   -879.548741
 0.295000   310.152215   -998.863253
 0.300000   304.705064   -893.929976
 0.305000   301.212916   -680.890854
 0.310000   297.896155   -647.386813
 0.315000   294.739048   -677.259136
 0.320000   291.123564   -743.185961
 0.325000   287.307188   -602.121663
 0.330000   285.102347   -432.764641
 0.335000   282.979542   -420.708252
 0.340000   280.895265   -513.551795
 0.345000   277.844024   -515.131082
 0.350000   275.743954   -364.972998
 0.355000   274.194294   -299.647172
 0.360000   272.747482   -306.154654
 0.365000   271.132747   -362.570316
 0.370000   269.121779   -295.025211
 0.375000   268.182495   -179.205493
 0.380000   267.329724   -162.000766
 0.385000   266.562487   -229.173828
 0.390000   265.037986   -216.143221
 0.395000   264.401055   -104.439678
 0.400000   263.993589   -73.999827
 0.405000   263.661057   -105.496010
 0.410000   262.938629   -124.011666
 0.415000   262.420940   -67.045477
 0.420000   262.268174   -31.781408
 0.425000   262.103126   -60.651431
 0.430000   261.661660   -121.749997
 0.435000   260.885626   -105.003304
 0.440000   260.611627   -59.107058
 0.445000   260.294556   -72.751288
 0.450000   259.884114   -172.206218
 0.455000   258.572493   -178.456042
 0.460000   258.099553   -96.948069
 0.465000   257.603013   -101.283595
 0.470000   257.086717   -167.578443
 0.475000   255.927228   -169.832564
 0.480000   255.388392   -92.000990
 0.485000   255.007218   -71.023317
 0.490000   254.678159   -100.349111
 0.495000   254.003727   -104.202266
 0.500000   253.636136   -37.384627
 0.505000   253.629881   5.396656
 0.510000   253.690103   -2.852587
 0.515000   253.601355   -29.835731
 0.520000   253.391745   9.143124
 0.525000   253.692786   62.970815
 0.530000   254.021453   65.271858
 0.535000   254.345505   13.138606
 0.540000   254.152839   28.553749
 0.545000   254.631042   95.461503
 0.550000   255.107454   96.135729
 0.555000   255.592400   68.915289
 0.560000   255.796607   64.337976
 0.565000   256.235779   111.411988
 0.570000   256.910727   139.699840
 0.575000   257.632778   143.313357
 0.580000   258.343861   124.611720
 0.585000   258.878895   150.980013
 0.590000   259.853661   201.249449
 0.595000   260.891390   214.448395
 0.600000   261.998145   209.093882
 0.605000   262.982328   229.658281
 0.610000   264.294728   284.101141
 0.615000   265.823340   317.721554
 0.620000   267.471943   344.474957
 0.625000   269.268089   359.317099
 0.630000   271.065114   392.899053
 0.635000   273.197080   441.803219
 0.640000   275.483146   472.152716
 0.645000   277.918607   504.108914
 0.650000   280.524236   537.800967
 0.655000   283.296617   577.856421
 0.660000   286.302800   617.060825
 0.665000   289.467225   650.298040
 0.670000   292.805780   687.108880
 0.675000   296.338314   744.734035
 0.680000   300.253121   808.350140
 0.685000   304.421815   840.556358
 0.690000   308.658684   864.795609
 0.695000   313.069771   904.632011
 0.700000   317.705004   966.357486
 0.705000   322.733346   1029.443343
 0.710000   327.999438   1069.970188
 0.715000   333.433048   1111.109587
 0.720000   339.110534   1161.911651
 0.725000   345.052165   1216.763901
 0.730000   351.278173   1289.952849
 0.735000   357.951693   1353.773813
 0.740000   364.815911   1398.788762
 0.745000   371.939581   1455.254256
 0.750000   379.368453   1517.447749
 0.755000   387.114058   1582.705324
 0.760000   395.195506   1648.353015
 0.765000   403.597588   1691.178423
 0.770000   412.107291   1747.499201
 0.775000   421.072580   1831.816682
 0.780000   430.425458   1909.485445
 0.785000   440.167435   1991.435340
 0.790000   450.339811   2079.895189
 0.795000   460.966387   2168.787509
 0.800000   472.027686   2244.705833
 0.805000   483.413445   2336.421037
 0.810000   495.391896   2449.034050
 0.815000   507.903785   2557.582281
 0.820000   520.967719   2669.940413
 0.825000   534.603190   2786.482997
 0.830000   548.832549   2908.108743
 0.835000   563.684277   3033.917462
 0.840000   579.171724   3125.175960
 0.845000   594.936037   3198.001857
 0.850000   611.151742   3334.225891
 0.855000   628.278295   3488.687036
 0.860000   646.038613   3616.833673
 0.865000   664.446632   3792.698180
 0.870000   683.965594   4058.873097
 0.875000   705.035363   4397.717865
 0.880000   727.942773   4799.401197
 0.885000   753.029375   5281.838767
 0.890000   780.761161   5875.854945
 0.895000   811.787925   6628.698848
 0.900000   847.048149   7625.540105
 0.905000   888.043326   8969.033360
 0.910000   936.738483   10803.465031
 0.915000   996.077976   13396.915536
 0.920000   1070.707638   17059.632761
 0.925000   1166.674304   22008.944923
 0.930000   1290.797087   28421.103129
 0.935000   1450.885335   36031.250701
 0.940000   1651.109594   43914.760503
 0.945000   1890.032940   49941.144033
 0.950000   2150.521035   50863.656620
 0.955000   2398.669506   46679.784559
 0.960000   2617.318880   50216.606453
 0.965000   2900.835571   72662.693933
 0.970000   3343.945820   93006.765771
 0.975000   3830.903228   78024.002414
 0.980000   4124.185844   40119.190247
 0.985000   4232.095131   24782.385015
 0.990000   4372.009694   28956.484347
 0.995000   4521.659974   238309.855939
 1.000000   6755.108253   655069.455704
201 psinorm ommpp() dommpp/dpsiN
 0.000000   -29.104123   -21847.533392
 0.005000   -119.260848   -14215.156365
 0.010000   -171.255687   -9247.126434
 0.015000   -211.732112   -7430.049892
 0.020000   -245.556186   -6265.607665
 0.025000   -274.388189   -5354.428715
 0.030000   -299.100473   -4601.408778
 0.035000   -320.402277   -4015.577620
 0.040000   -339.256249   -3443.129921
 0.045000   -354.833576   -2896.013228
 0.050000   -368.216382   -2573.660626
 0.055000   -380.570182   -2248.957250
 0.060000   -390.705954   -1929.203548
 0.065000   -399.862218   -1690.748508
 0.070000   -407.613439   -1442.736566
 0.075000   -414.289583   -1209.274887
 0.080000   -419.706188   -1014.930646
 0.085000   -424.438890   -857.894780
 0.090000   -428.285136   -666.037650
 0.095000   -431.099266   -435.467631
 0.100000   -432.639812   -297.043785
 0.105000   -434.069704   -211.709362
 0.110000   -434.756906   -72.978138
 0.115000   -434.799485   55.806244
 0.120000   -434.198843   190.165176
 0.125000   -432.897834   313.709689
 0.130000   -431.061747   423.959828
 0.135000   -428.658235   532.008455
 0.140000   -425.741662   637.489197
 0.145000   -422.283343   730.779472
 0.150000   -418.433867   811.841454
 0.155000   -414.164929   888.416857
 0.160000   -409.549699   956.551541
 0.165000   -404.599413   1018.637746
 0.170000   -399.363321   1071.492984
 0.175000   -393.884484   1119.373307
 0.180000   -388.169588   1163.747238
 0.185000   -382.247011   1196.535407
 0.190000   -376.204234   1219.148563
 0.195000   -370.055526   1238.241758
 0.200000   -363.821817   1335.117117
 0.205000   -356.704354   1461.578686
 0.210000   -349.206030   1384.367425
 0.215000   -342.860680   1264.066158
 0.220000   -336.565368   1252.038681
 0.225000   -330.340293   1240.193387
 0.230000   -324.163434   1225.633438
 0.235000   -318.083959   1266.748238
 0.240000   -311.495952   1414.535183
 0.245000   -303.938607   1313.797478
 0.250000   -298.357977   1098.100893
 0.255000   -292.957598   1066.827062
 0.260000   -287.689706   1038.497602
 0.265000   -282.572622   1105.690544
 0.270000   -276.632801   1199.234799
 0.275000   -270.580274   1050.059061
 0.280000   -266.132210   867.567228
 0.285000   -261.904602   826.436684
 0.290000   -257.867844   836.232822
 0.295000   -253.542274   955.745222
 0.300000   -248.310391   851.169640
 0.305000   -245.030577   638.454694
 0.310000   -241.925844   604.592423
 0.315000   -238.984653   633.185740
 0.320000   -235.593987   697.011424
 0.325000   -232.014539   553.397818
 0.330000   -230.060009   381.139289
 0.335000   -228.203146   366.049950
 0.340000   -226.399509   456.239230
 0.345000   -223.640754   455.485901
 0.350000   -221.844650   303.362814
 0.355000   -220.607126   236.324021
 0.360000   -219.481410   240.965653
 0.365000   -218.197469   295.776718
 0.370000   -216.523643   226.867125
 0.375000   -215.928798   109.659469
 0.380000   -215.427048   91.150351
 0.385000   -215.017294   157.117468
 0.390000   -213.855874   143.321127
 0.395000   -213.584083   31.171322
 0.400000   -213.544160   0.156306
 0.405000   -213.582520   31.104859
 0.410000   -213.233112   49.107376
 0.415000   -213.091446   -8.980366
 0.420000   -213.322915   -46.507058
 0.425000   -213.556517   -22.037380
 0.430000   -213.543289   32.858237
 0.435000   -213.227934   8.725812
 0.440000   -213.456031   -46.486120
 0.445000   -213.692796   -42.880103
 0.450000   -213.884832   46.914401
 0.455000   -213.223652   43.394463
 0.460000   -213.450887   -47.215452
 0.465000   -213.695806   -50.682485
 0.470000   -213.957712   9.886471
 0.475000   -213.596941   9.932874
 0.480000   -213.858384   -67.105117
 0.485000   -214.267993   -84.869085
 0.490000   -214.707074   -49.746147
 0.495000   -214.765454   -37.753430
 0.500000   -215.084609   -94.914250
 0.505000   -215.714597   -128.047671
 0.510000   -216.365085   -110.979890
 0.515000   -216.824395   -76.213338
 0.520000   -217.127219   -108.715713
 0.525000   -217.911553   -157.236450
 0.530000   -218.699583   -155.634167
 0.535000   -219.467894   -100.962747
 0.540000   -219.709211   -114.111878
 0.545000   -220.609013   -178.909780
 0.550000   -221.498309   -177.893615
 0.555000   -222.387949   -148.951725
 0.560000   -222.987826   -142.512794
 0.565000   -223.813077   -187.700082
 0.570000   -224.864827   -214.120796
 0.575000   -225.954285   -216.035444
 0.580000   -227.025181   -195.786764
 0.585000   -227.912153   -220.600639
 0.590000   -229.231187   -269.352728
 0.595000   -230.605680   -281.072851
 0.600000   -232.041916   -274.324427
 0.605000   -233.348924   -293.651369
 0.610000   -234.978430   -346.897235
 0.615000   -236.817897   -379.369662
 0.620000   -238.772126   -405.089021
 0.625000   -240.868787   -419.032753
 0.630000   -242.962454   -451.921172
 0.635000   -245.387999   -500.238553
 0.640000   -247.964839   -529.952824
 0.645000   -250.687527   -561.297579
 0.650000   -253.577815   -594.502802
 0.655000   -256.632555   -634.268650
 0.660000   -259.920502   -673.538526
 0.665000   -263.367940   -707.334462
 0.670000   -266.993846   -745.169472
 0.675000   -270.819635   -804.558925
 0.680000   -275.039436   -870.674417
 0.685000   -279.526379   -905.519286
 0.690000   -284.094628   -932.517441
 0.695000   -288.851553   -975.788982
 0.700000   -293.852518   -1039.109715
 0.705000   -299.242650   -1102.191491
 0.710000   -304.874433   -1143.267118
 0.715000   -310.675322   -1184.504200
 0.720000   -316.719475   -1234.985514
 0.725000   -323.025177   -1289.426299
 0.730000   -329.613738   -1359.820111
 0.735000   -336.623378   -1419.313531
 0.740000   -343.806873   -1460.771807
 0.745000   -351.231096   -1513.429859
 0.750000   -358.941172   -1571.816691
 0.755000   -366.949263   -1632.453516
 0.760000   -375.265707   -1695.108681
 0.765000   -383.900350   -1737.535416
 0.770000   -392.641061   -1794.320038
 0.775000   -401.843550   -1880.366311
 0.780000   -411.444724   -1960.339772
 0.785000   -421.446948   -2043.991121
 0.790000   -431.884636   -2135.686185
 0.795000   -442.803810   -2229.077655
 0.800000   -454.175412   -2308.421202
 0.805000   -465.888022   -2403.464457
 0.810000   -478.210057   -2519.112642
 0.815000   -491.079148   -2630.325337
 0.820000   -504.513310   -2744.445274
 0.825000   -518.523601   -2861.729874
 0.830000   -533.130609   -2983.963764
 0.835000   -548.363238   -3110.441448
 0.840000   -564.235023   -3202.436378
 0.845000   -580.387602   -3276.928757
 0.850000   -597.004311   -3415.728717
 0.855000   -614.544889   -3573.218917
 0.860000   -632.736500   -3705.849208
 0.865000   -651.603381   -3888.423884
 0.870000   -671.620739   -4163.297237
 0.875000   -693.236354   -4513.723851
 0.880000   -716.757977   -4929.789526
 0.885000   -742.534249   -5428.613598
 0.890000   -771.044113   -6043.229271
 0.895000   -802.966542   -6822.330011
 0.900000   -839.267414   -7849.554911
 0.905000   -881.462091   -9228.051644
 0.910000   -931.547930   -11101.425463
 0.915000   -992.476346   -13731.934741
 0.920000   -1068.867277   -17430.813522
 0.925000   -1166.784481   -22418.176008
 0.930000   -1293.049037   -28868.675631
 0.935000   -1455.471237   -36522.244999
 0.940000   -1658.271487   -44457.338044
 0.945000   -1900.044618   -50524.559196
 0.950000   -2163.517079   -51477.078142
 0.955000   -2414.815399   -47316.550718
 0.960000   -2636.682587   -50853.560857
 0.965000   -2923.351008   -73272.307902
 0.970000   -3369.405666   -93544.902759
 0.975000   -3858.800035   -78390.659932
 0.980000   -4153.312265   -40186.854354
 0.985000   -4260.668579   -24388.690756
 0.990000   -4397.199172   -27933.001543
 0.995000   -4539.998594   -236696.314480
 1.000000   -6764.162317   -652969.174795
201 psinorm omevb() domevb/dpsiN
 0.000000   35.130994   119.914695
 0.005000   35.595206   65.770310
 0.010000   35.788697   35.295589
 0.015000   35.948162   30.580912
 0.020000   36.094506   27.880724
 0.025000   36.226969   25.175871
 0.030000   36.346265   22.448147
 0.035000   36.451451   19.795710
 0.040000   36.544222   17.300895
 0.045000   36.624460   14.725803
 0.050000   36.691480   12.381405
 0.055000   36.748274   10.468906
 0.060000   36.796169   8.804802
 0.065000   36.836322   7.490208
 0.070000   36.871071   6.493702
 0.075000   36.901259   5.749920
 0.080000   36.928570   5.175980
 0.085000   36.953019   4.697694
 0.090000   36.975547   4.202498
 0.095000   36.995044   3.585931
 0.100000   37.011406   3.142741
 0.105000   37.026471   2.807738
 0.110000   37.039484   2.731193
 0.115000   37.053783   2.796397
 0.120000   37.067448   2.896085
 0.125000   37.082744   3.078195
 0.130000   37.098230   3.230661
 0.135000   37.115051   3.447220
 0.140000   37.132702   3.695736
 0.145000   37.152008   3.841367
 0.150000   37.171116   4.033562
 0.155000   37.192344   4.123288
 0.160000   37.212349   3.915077
 0.165000   37.231494   3.615049
 0.170000   37.248499   3.113938
 0.175000   37.262634   2.650184
 0.180000   37.275001   1.935628
 0.185000   37.281990   0.931095
 0.190000   37.284312   -0.217389
 0.195000   37.279816   -1.541952
 0.200000   37.268892   -2.884781
 0.205000   37.250968   -4.303889
 0.210000   37.225853   -6.059095
 0.215000   37.190377   -7.887058
 0.220000   37.146983   -9.382107
 0.225000   37.096556   -10.596596
 0.230000   37.041017   -11.781397
 0.235000   36.978742   -13.394843
 0.240000   36.907068   -14.922875
 0.245000   36.829514   -15.983094
 0.250000   36.747238   -16.765805
 0.255000   36.661855   -17.362594
 0.260000   36.573612   -17.887097
 0.265000   36.482985   -18.528380
 0.270000   36.388328   -18.713291
 0.275000   36.295852   -18.185096
 0.280000   36.206477   -17.676449
 0.285000   36.119087   -17.315091
 0.290000   36.033326   -17.068160
 0.295000   35.948406   -16.969684
 0.300000   35.863629   -16.711611
 0.305000   35.781289   -16.487256
 0.310000   35.698756   -16.945504
 0.315000   35.611834   -18.324716
 0.320000   35.515509   -20.526247
 0.325000   35.406572   -23.176122
 0.330000   35.283748   -26.178367
 0.335000   35.144788   -29.312221
 0.340000   34.990626   -32.067546
 0.345000   34.824113   -34.501378
 0.350000   34.645612   -36.567745
 0.355000   34.458435   -38.382218
 0.360000   34.261790   -40.349709
 0.365000   34.054938   -42.056077
 0.370000   33.841229   -43.522461
 0.375000   33.619714   -45.012413
 0.380000   33.391105   -46.418932
 0.385000   33.155524   -47.727111
 0.390000   32.913834   -48.595181
 0.395000   32.669573   -49.143876
 0.400000   32.422395   -49.821563
 0.405000   32.171357   -50.471801
 0.410000   31.917677   -51.087627
 0.415000   31.660481   -52.311941
 0.420000   31.394558   -54.677393
 0.425000   31.113707   -59.180631
 0.430000   30.802751   -65.486531
 0.435000   30.458841   -72.975265
 0.440000   30.072999   -82.394001
 0.445000   29.634901   -92.535306
 0.450000   29.147646   -102.298859
 0.455000   28.611913   -112.171781
 0.460000   28.025928   -121.376910
 0.465000   27.398144   -129.282676
 0.470000   26.733101   -135.111790
 0.475000   26.047026   -137.422741
 0.480000   25.358874   -136.732397
 0.485000   24.679702   -133.621933
 0.490000   24.022654   -127.928024
 0.495000   23.400422   -119.891689
 0.500000   22.823738   -110.338083
 0.505000   22.297041   -100.793415
 0.510000   21.815803   -92.078047
 0.515000   21.376260   -84.397781
 0.520000   20.971826   -78.024409
 0.525000   20.596016   -72.820525
 0.530000   20.243620   -69.020228
 0.535000   19.905814   -66.585041
 0.540000   19.577770   -64.421958
 0.545000   19.261594   -62.414978
 0.550000   18.953620   -60.827398
 0.555000   18.653320   -59.208694
 0.560000   18.361533   -57.449752
 0.565000   18.078823   -55.665629
 0.570000   17.804877   -53.901014
 0.575000   17.539813   -52.304585
 0.580000   17.281831   -50.859894
 0.585000   17.031214   -49.407735
 0.590000   16.787754   -47.992552
 0.595000   16.551288   -46.615793
 0.600000   16.321596   -45.323842
 0.605000   16.098050   -44.188235
 0.610000   15.879713   -43.092979
 0.615000   15.667120   -42.046614
 0.620000   15.459247   -41.114071
 0.625000   15.255979   -40.317034
 0.630000   15.056077   -39.724745
 0.635000   14.858732   -39.239073
 0.640000   14.663686   -38.704821
 0.645000   14.471684   -38.194213
 0.650000   14.281744   -37.808070
 0.655000   14.093603   -37.619001
 0.660000   13.905554   -37.784854
 0.665000   13.715754   -38.443797
 0.670000   13.521116   -39.568024
 0.675000   13.320074   -41.432207
 0.680000   13.106794   -44.031301
 0.685000   12.879761   -46.769474
 0.690000   12.639099   -49.627707
 0.695000   12.383484   -53.161969
 0.700000   12.107480   -54.856133
 0.705000   11.834923   -54.950724
 0.710000   11.557972   -55.597924
 0.715000   11.278943   -55.793743
 0.720000   11.000035   -55.570816
 0.725000   10.723235   -55.256817
 0.730000   10.447467   -52.558731
 0.735000   10.197648   -48.327747
 0.740000   9.964189   -44.867049
 0.745000   9.748978   -41.154867
 0.750000   9.552641   -37.442584
 0.755000   9.374552   -32.915112
 0.760000   9.223490   -30.014479
 0.765000   9.074407   -29.705941
 0.770000   8.926430   -30.257677
 0.775000   8.771830   -32.071495
 0.780000   8.605715   -34.457551
 0.785000   8.427255   -36.235668
 0.790000   8.243358   -39.541552
 0.795000   8.031839   -44.103746
 0.800000   7.802321   -47.582368
 0.805000   7.556015   -50.951714
 0.810000   7.292804   -54.013147
 0.815000   7.015884   -56.685450
 0.820000   6.725949   -58.432939
 0.825000   6.431555   -59.134673
 0.830000   6.134603   -59.673231
 0.835000   5.834822   -60.241443
 0.840000   5.532188   -60.847329
 0.845000   5.226349   -62.361041
 0.850000   4.908578   -64.780556
 0.855000   4.578543   -67.686947
 0.860000   4.231708   -72.150202
 0.865000   3.857041   -79.061200
 0.870000   3.441096   -88.381106
 0.875000   2.973230   -101.331151
 0.880000   2.427785   -118.351964
 0.885000   1.789711   -139.475998
 0.890000   1.033025   -168.209620
 0.895000   0.107615   -208.010861
 0.900000   -1.047084   -260.453443
 0.905000   -2.496920   -330.794386
 0.910000   -4.355028   -425.651155
 0.915000   -6.753431   -550.408750
 0.920000   -9.859115   -723.398294
 0.925000   -13.987414   -974.651933
 0.930000   -19.605634   -1346.207687
 0.935000   -27.449491   -1913.354425
 0.940000   -38.739179   -2787.377700
 0.945000   -55.323268   -4073.922491
 0.950000   -79.478404   -5734.325499
 0.955000   -112.666523   -7045.778409
 0.960000   -149.936188   -6226.823515
 0.965000   -174.934758   -2183.367803
 0.970000   -171.769866   2898.713973
 0.975000   -145.947619   5705.831061
 0.980000   -114.711555   5866.430857
 0.985000   -87.283310   5041.416295
 0.990000   -64.297392   4317.447868
 0.995000   -44.108831   3814.015615
 1.000000   -26.157236   3366.622556
201 psinorm omepp() domepp/dpsiN
 0.000000   29.157410   -21.753346
 0.005000   29.032694   -28.133282
 0.010000   28.876078   -31.284710
 0.015000   28.719847   -31.207337
 0.020000   28.564004   -31.129382
 0.025000   28.408553   -31.050854
 0.030000   28.253496   -30.971760
 0.035000   28.098835   -30.892105
 0.040000   27.944575   -30.811897
 0.045000   27.790716   -30.731144
 0.050000   27.637263   -30.649851
 0.055000   27.484218   -30.568027
 0.060000   27.331583   -30.485677
 0.065000   27.179361   -30.402809
 0.070000   27.027555   -30.319430
 0.075000   26.876167   -30.235546
 0.080000   26.725199   -30.151165
 0.085000   26.574655   -30.066293
 0.090000   26.424536   -29.980938
 0.095000   26.274846   -29.895106
 0.100000   26.125585   -29.808804
 0.105000   25.976758   -29.722039
 0.110000   25.828365   -29.634817
 0.115000   25.680410   -29.547147
 0.120000   25.532894   -29.459034
 0.125000   25.385819   -29.370485
 0.130000   25.239189   -29.281508
 0.135000   25.093004   -29.192108
 0.140000   24.947268   -29.102293
 0.145000   24.801981   -29.012070
 0.150000   24.657147   -28.921445
 0.155000   24.512767   -28.830425
 0.160000   24.368843   -28.739017
 0.165000   24.225377   -28.647227
 0.170000   24.082370   -28.555062
 0.175000   23.939826   -28.462529
 0.180000   23.797745   -28.369635
 0.185000   23.656130   -28.276386
 0.190000   23.514981   -28.182789
 0.195000   23.374302   -28.088850
 0.200000   23.234093   -27.994576
 0.205000   23.094356   -27.899973
 0.210000   22.955093   -27.805049
 0.215000   22.816305   -27.709809
 0.220000   22.677995   -27.614261
 0.225000   22.540163   -27.518410
 0.230000   22.402811   -27.422264
 0.235000   22.265940   -27.325828
 0.240000   22.129553   -27.229109
 0.245000   21.993649   -27.132114
 0.250000   21.858231   -27.034849
 0.255000   21.723301   -26.937319
 0.260000   21.588858   -26.839533
 0.265000   21.454905   -26.741495
 0.270000   21.321443   -26.643212
 0.275000   21.188473   -26.544691
 0.280000   21.055996   -26.445938
 0.285000   20.924014   -26.346958
 0.290000   20.792527   -26.247759
 0.295000   20.661536   -26.148346
 0.300000   20.531043   -26.048725
 0.305000   20.401049   -25.948904
 0.310000   20.271554   -25.848886
 0.315000   20.142560   -25.748680
 0.320000   20.014067   -25.648290
 0.325000   19.886077   -25.547723
 0.330000   19.758590   -25.446985
 0.335000   19.631607   -25.346082
 0.340000   19.505129   -25.245019
 0.345000   19.379157   -25.143803
 0.350000   19.253691   -25.042439
 0.355000   19.128733   -24.940934
 0.360000   19.004282   -24.839292
 0.365000   18.880340   -24.737521
 0.370000   18.756907   -24.635625
 0.375000   18.633984   -24.533611
 0.380000   18.511571   -24.431483
 0.385000   18.389669   -24.329249
 0.390000   18.268278   -24.226913
 0.395000   18.147400   -24.124480
 0.400000   18.027033   -24.021958
 0.405000   17.907180   -23.919350
 0.410000   17.787840   -23.816663
 0.415000   17.669013   -23.713902
 0.420000   17.550701   -23.611072
 0.425000   17.432903   -23.508180
 0.430000   17.315619   -23.405229
 0.435000   17.198850   -23.302227
 0.440000   17.082597   -23.199177
 0.445000   16.966859   -23.096085
 0.450000   16.851636   -22.992957
 0.455000   16.736929   -22.889797
 0.460000   16.622738   -22.786612
 0.465000   16.509063   -22.683405
 0.470000   16.395904   -22.580182
 0.475000   16.283261   -22.476949
 0.480000   16.171134   -22.373710
 0.485000   16.059524   -22.270470
 0.490000   15.948430   -22.167234
 0.495000   15.837852   -22.064007
 0.500000   15.727790   -21.960794
 0.505000   15.618244   -21.857600
 0.510000   15.509214   -21.754430
 0.515000   15.400699   -21.651288
 0.520000   15.292701   -21.548179
 0.525000   15.185218   -21.445109
 0.530000   15.078250   -21.342081
 0.535000   14.971797   -21.239100
 0.540000   14.865859   -21.136171
 0.545000   14.760435   -21.033299
 0.550000   14.655526   -20.930488
 0.555000   14.551130   -20.827742
 0.560000   14.447248   -20.725066
 0.565000   14.343880   -20.622465
 0.570000   14.241024   -20.519942
 0.575000   14.138680   -20.417503
 0.580000   14.036849   -20.315151
 0.585000   13.935529   -20.212891
 0.590000   13.834720   -20.110727
 0.595000   13.734421   -20.008663
 0.600000   13.634633   -19.906703
 0.605000   13.535354   -19.804853
 0.610000   13.436585   -19.703115
 0.615000   13.338323   -19.601494
 0.620000   13.240570   -19.499994
 0.625000   13.143323   -19.398619
 0.630000   13.046583   -19.297373
 0.635000   12.950350   -19.196261
 0.640000   12.854621   -19.095286
 0.645000   12.759397   -18.994453
 0.650000   12.664676   -18.893765
 0.655000   12.570459   -18.793228
 0.660000   12.476744   -18.692847
 0.665000   12.383531   -18.592625
 0.670000   12.290818   -18.492569
 0.675000   12.198605   -18.392683
 0.680000   12.106891   -18.292976
 0.685000   12.015675   -18.193453
 0.690000   11.924956   -18.094125
 0.695000   11.834734   -17.995001
 0.700000   11.745006   -17.896096
 0.705000   11.655773   -17.797424
 0.710000   11.567032   -17.699006
 0.715000   11.478783   -17.600869
 0.720000   11.391023   -17.503047
 0.725000   11.303752   -17.405582
 0.730000   11.216968   -17.308532
 0.735000   11.130667   -17.211971
 0.740000   11.044848   -17.115997
 0.745000   10.959507   -17.020737
 0.750000   10.874641   -16.926358
 0.755000   10.790244   -16.833080
 0.760000   10.706310   -16.741187
 0.765000   10.622832   -16.651053
 0.770000   10.539799   -16.563160
 0.775000   10.457200   -16.478134
 0.780000   10.375018   -16.396776
 0.785000   10.293232   -16.320113
 0.790000   10.211817   -16.249445
 0.795000   10.130738   -16.186401
 0.800000   10.049953   -16.133001
 0.805000   9.969408   -16.091706
 0.810000   9.889036   -16.065445
 0.815000   9.808753   -16.057606
 0.820000   9.728460   -16.071922
 0.825000   9.648034   -16.112204
 0.830000   9.567338   -16.181791
 0.835000   9.486216   -16.282544
 0.840000   9.404512   -16.413088
 0.845000   9.322085   -16.565859
 0.850000   9.238854   -16.722270
 0.855000   9.154863   -16.844933
 0.860000   9.070404   -16.865332
 0.865000   8.986209   -16.664503
 0.870000   8.903759   -16.043034
 0.875000   8.825779   -14.674835
 0.880000   8.757011   -12.036364
 0.885000   8.705415   -7.298833
 0.890000   8.684023   0.835294
 0.895000   8.713768   14.379698
 0.900000   8.827820   36.438637
 0.905000   9.078155   71.776102
 0.910000   9.545581   127.690723
 0.915000   10.355062   215.389545
 0.920000   11.699476   352.217533
 0.925000   13.877237   565.420849
 0.930000   17.353684   898.635185
 0.935000   22.863589   1422.360126
 0.940000   31.577286   2244.800159
 0.945000   45.311591   3490.507328
 0.950000   66.482359   5120.903977
 0.955000   96.520630   6409.012250
 0.960000   130.572482   5589.869111
 0.965000   152.419322   1573.753833
 0.970000   146.310020   -3436.850961
 0.975000   118.050812   -6072.488579
 0.980000   85.585134   -5934.094964
 0.985000   58.709862   -4647.722036
 0.990000   39.107914   -3293.965064
 0.995000   25.770212   -2200.474155
 1.000000   17.103172   -1266.341646
201 psinorm kpol(km/s/T) dkpol/dpsiN
 0.000000   -0.037309   119.384917
 0.005000   0.434429   69.310304
 0.010000   0.655794   41.594758
 0.015000   0.850376   38.294091
 0.020000   1.038735   36.904286
 0.025000   1.219419   35.393846
 0.030000   1.392673   33.768453
 0.035000   1.557104   32.123392
 0.040000   1.713907   30.544902
 0.045000   1.862553   28.791630
 0.050000   2.001823   27.176501
 0.055000   2.134318   25.912912
 0.060000   2.260953   24.857019
 0.065000   2.382888   24.055453
 0.070000   2.501507   23.378177
 0.075000   2.616670   22.833869
 0.080000   2.729846   22.389284
 0.085000   2.840563   21.976544
 0.090000   2.949611   21.650463
 0.095000   3.057067   21.215828
 0.100000   3.161769   20.848198
 0.105000   3.265549   20.576558
 0.110000   3.367535   20.590475
 0.115000   3.471454   20.813116
 0.120000   3.575666   21.279185
 0.125000   3.684246   22.014501
 0.130000   3.795811   22.755871
 0.135000   3.911805   23.561729
 0.140000   4.031428   24.301671
 0.145000   4.154821   24.903609
 0.150000   4.280465   25.246017
 0.155000   4.407281   25.251132
 0.160000   4.532976   25.056939
 0.165000   4.657851   24.716880
 0.170000   4.780145   24.065099
 0.175000   4.898502   23.224262
 0.180000   5.012387   22.010256
 0.185000   5.118604   20.548011
 0.190000   5.217867   18.882032
 0.195000   5.307425   16.991371
 0.200000   5.387781   15.124886
 0.205000   5.458674   13.205687
 0.210000   5.519838   11.546807
 0.215000   5.574142   10.234828
 0.220000   5.622186   8.961629
 0.225000   5.663758   7.758400
 0.230000   5.699770   6.432597
 0.235000   5.728084   4.910608
 0.240000   5.748876   3.199092
 0.245000   5.760075   1.158992
 0.250000   5.760466   -0.884922
 0.255000   5.751226   -3.053895
 0.260000   5.729927   -5.433188
 0.265000   5.696894   -7.706194
 0.270000   5.652865   -9.958090
 0.275000   5.597313   -12.214940
 0.280000   5.530716   -14.305179
 0.285000   5.454261   -16.321370
 0.290000   5.367502   -18.289532
 0.295000   5.271366   -20.236013
 0.300000   5.165142   -22.334600
 0.305000   5.048020   -24.503814
 0.310000   4.920104   -26.743484
 0.315000   4.780585   -29.290020
 0.320000   4.627204   -32.143021
 0.325000   4.459155   -35.140873
 0.330000   4.275795   -38.149808
 0.335000   4.077657   -40.813376
 0.340000   3.867661   -43.048270
 0.345000   3.647174   -45.070712
 0.350000   3.416954   -46.639977
 0.355000   3.180774   -47.890119
 0.360000   2.938053   -49.220258
 0.365000   2.688572   -50.557678
 0.370000   2.432476   -51.955897
 0.375000   2.169013   -53.494392
 0.380000   1.897532   -55.319112
 0.385000   1.615821   -57.534999
 0.390000   1.322182   -60.009359
 0.395000   1.015728   -62.506838
 0.400000   0.697114   -64.744108
 0.405000   0.368287   -66.472846
 0.410000   0.032385   -67.709951
 0.415000   -0.308813   -69.072719
 0.420000   -0.658342   -71.332867
 0.425000   -1.022141   -74.895891
 0.430000   -1.407301   -79.958306
 0.435000   -1.821724   -86.647236
 0.440000   -2.273773   -95.376252
 0.445000   -2.775487   -104.906399
 0.450000   -3.322837   -114.094682
 0.455000   -3.916434   -122.909581
 0.460000   -4.551933   -130.486819
 0.465000   -5.221302   -136.461524
 0.470000   -5.916548   -139.486575
 0.475000   -6.616168   -138.138986
 0.480000   -7.297938   -133.046762
 0.485000   -7.946635   -125.058843
 0.490000   -8.548526   -114.539498
 0.495000   -9.092030   -101.799555
 0.500000   -9.566522   -87.845083
 0.505000   -9.970481   -74.681400
 0.510000   -10.313336   -63.170391
 0.515000   -10.602185   -53.243792
 0.520000   -10.845774   -45.166472
 0.525000   -11.053850   -38.906810
 0.530000   -11.234842   -34.838782
 0.535000   -11.402238   -32.791973
 0.540000   -11.562762   -31.363302
 0.545000   -11.715871   -30.004862
 0.550000   -11.862810   -28.797690
 0.555000   -12.003848   -27.536934
 0.560000   -12.138180   -26.061658
 0.565000   -12.264464   -24.312600
 0.570000   -12.381306   -22.361719
 0.575000   -12.488081   -20.259270
 0.580000   -12.583898   -17.974214
 0.585000   -12.667823   -15.616990
 0.590000   -12.740068   -13.225989
 0.595000   -12.800083   -10.809629
 0.600000   -12.848164   -8.466992
 0.605000   -12.884753   -6.306655
 0.610000   -12.911231   -4.329598
 0.615000   -12.928049   -2.511851
 0.620000   -12.936349   -0.895579
 0.625000   -12.937005   0.503287
 0.630000   -12.931317   1.774335
 0.635000   -12.919262   2.977874
 0.640000   -12.901538   3.989399
 0.645000   -12.879368   4.925671
 0.650000   -12.852281   5.882972
 0.655000   -12.820538   6.737453
 0.660000   -12.784907   7.480392
 0.665000   -12.745734   8.152446
 0.670000   -12.703382   8.817907
 0.675000   -12.657555   9.415984
 0.680000   -12.609222   9.955087
 0.685000   -12.558004   10.491657
 0.690000   -12.504306   10.953951
 0.695000   -12.448465   11.421055
 0.700000   -12.390095   11.857024
 0.705000   -12.329894   12.210117
 0.710000   -12.267994   12.505902
 0.715000   -12.204835   12.680428
 0.720000   -12.141190   12.740543
 0.725000   -12.077430   12.677991
 0.730000   -12.014410   12.453014
 0.735000   -11.952900   12.114168
 0.740000   -11.893268   11.667235
 0.745000   -11.836227   11.077957
 0.750000   -11.782489   10.408682
 0.755000   -11.732141   9.698559
 0.760000   -11.685503   8.899263
 0.765000   -11.643148   8.115723
 0.770000   -11.604346   7.345608
 0.775000   -11.569692   6.591433
 0.780000   -11.538431   5.947160
 0.785000   -11.510220   5.276091
 0.790000   -11.485671   4.599700
 0.795000   -11.464223   3.889824
 0.800000   -11.446772   3.026957
 0.805000   -11.433954   1.933657
 0.810000   -11.427436   0.667248
 0.815000   -11.427281   -0.706834
 0.820000   -11.434504   -2.256139
 0.825000   -11.449843   -3.924887
 0.830000   -11.473753   -5.630797
 0.835000   -11.506151   -7.200309
 0.840000   -11.545756   -8.611112
 0.845000   -11.592262   -9.861687
 0.850000   -11.644373   -10.728504
 0.855000   -11.699547   -11.166959
 0.860000   -11.756042   -11.360437
 0.865000   -11.813151   -11.261075
 0.870000   -11.868653   -10.838776
 0.875000   -11.921539   -10.184017
 0.880000   -11.970493   -9.504655
 0.885000   -12.016585   -8.840149
 0.890000   -12.058895   -8.065419
 0.895000   -12.097240   -7.283468
 0.900000   -12.131730   -6.635999
 0.905000   -12.163600   -5.916475
 0.910000   -12.190894   -4.846235
 0.915000   -12.212062   -3.179398
 0.920000   -12.222688   -0.450074
 0.925000   -12.216563   3.014840
 0.930000   -12.192540   7.434396
 0.935000   -12.142219   16.357906
 0.940000   -12.028961   31.019860
 0.945000   -11.832020   47.864595
 0.950000   -11.550315   66.103727
 0.955000   -11.170983   84.074943
 0.960000   -10.709565   89.755099
 0.965000   -10.273432   64.828932
 0.970000   -10.061276   -0.656478
 0.975000   -10.279997   -71.071848
 0.980000   -10.771995   -18.001384
 0.985000   -10.460011   339.955597
 0.990000   -7.372439   1056.439857
 0.995000   0.104388   1836.087576
 1.000000   10.988437   2517.532054
201 psinorm omghb() domghb/dpsiN
 0.000000   -0.000058   0.022049
 0.005000   -0.000018   -0.006012
 0.010000   -0.000118   0.004612
 0.015000   0.000028   0.032937
 0.020000   0.000211   0.045022
 0.025000   0.000479   0.057720
 0.030000   0.000789   0.071348
 0.035000   0.001192   0.090000
 0.040000   0.001689   0.109567
 0.045000   0.002288   0.123400
 0.050000   0.002923   0.121262
 0.055000   0.003500   0.124124
 0.060000   0.004164   0.127478
 0.065000   0.004775   0.113355
 0.070000   0.005297   0.111491
 0.075000   0.005890   0.115120
 0.080000   0.006449   0.102151
 0.085000   0.006911   0.105778
 0.090000   0.007506   0.110018
 0.095000   0.008012   0.106292
 0.100000   0.008569   0.108027
 0.105000   0.009092   0.100112
 0.110000   0.009570   0.081982
 0.115000   0.009912   0.067792
 0.120000   0.010248   0.063740
 0.125000   0.010549   0.073489
 0.130000   0.010983   0.068511
 0.135000   0.011234   0.040186
 0.140000   0.011385   0.039375
 0.145000   0.011628   0.059471
 0.150000   0.011980   0.062331
 0.155000   0.012251   0.085422
 0.160000   0.012834   0.089903
 0.165000   0.013150   0.089532
 0.170000   0.013729   0.127324
 0.175000   0.014424   0.149643
 0.180000   0.015226   0.167736
 0.185000   0.016101   0.185165
 0.190000   0.017077   0.198060
 0.195000   0.018082   0.242696
 0.200000   0.019504   0.291802
 0.205000   0.021000   0.296378
 0.210000   0.022468   0.291828
 0.215000   0.023918   0.289012
 0.220000   0.025358   0.307891
 0.225000   0.026997   0.299464
 0.230000   0.028353   0.288248
 0.235000   0.029879   0.261338
 0.240000   0.030966   0.248151
 0.245000   0.032361   0.290786
 0.250000   0.033874   0.328712
 0.255000   0.035648   0.199475
 0.260000   0.035869   0.085061
 0.265000   0.036498   0.104884
 0.270000   0.036918   0.081935
 0.275000   0.037318   0.069942
 0.280000   0.037617   0.085659
 0.285000   0.038174   0.019547
 0.290000   0.037813   -0.021467
 0.295000   0.037960   0.061948
 0.300000   0.038432   0.100728
 0.305000   0.038967   0.116899
 0.310000   0.039601   0.126646
 0.315000   0.040233   0.415872
 0.320000   0.043760   0.651576
 0.325000   0.046749   0.650494
 0.330000   0.050265   0.693004
 0.335000   0.053679   0.637735
 0.340000   0.056642   0.601245
 0.345000   0.059692   0.591982
 0.350000   0.062562   0.523968
 0.355000   0.064931   0.470096
 0.360000   0.067263   0.466855
 0.365000   0.069600   0.442941
 0.370000   0.071692   0.499361
 0.375000   0.074594   0.468233
 0.380000   0.076375   0.321545
 0.385000   0.077809   0.308591
 0.390000   0.079460   0.329395
 0.395000   0.081103   0.319072
 0.400000   0.082651   0.186181
 0.405000   0.082965   0.151317
 0.410000   0.084164   0.366590
 0.415000   0.086631   0.574630
 0.420000   0.089911   0.919737
 0.425000   0.095828   1.418339
 0.430000   0.104094   1.750807
 0.435000   0.113336   2.029380
 0.440000   0.124388   2.338513
 0.445000   0.136721   2.508651
 0.450000   0.149474   2.778013
 0.455000   0.164501   2.723698
 0.460000   0.176711   2.203670
 0.465000   0.186538   1.734999
 0.470000   0.194061   1.189763
 0.475000   0.198436   0.516642
 0.480000   0.199228   -0.250701
 0.485000   0.195929   -1.019542
 0.490000   0.189032   -1.593880
 0.495000   0.179990   -1.978966
 0.500000   0.169243   -2.189978
 0.505000   0.158090   -2.189301
 0.510000   0.147350   -2.166739
 0.515000   0.136423   -1.818357
 0.520000   0.129166   -1.321487
 0.525000   0.123208   -1.053222
 0.530000   0.118634   -0.712378
 0.535000   0.116084   -0.477807
 0.540000   0.113856   -0.424056
 0.545000   0.111844   -0.411800
 0.550000   0.109738   -0.411189
 0.555000   0.107732   -0.452681
 0.560000   0.105211   -0.398415
 0.565000   0.103747   -0.326207
 0.570000   0.101949   -0.383107
 0.575000   0.099916   -0.408575
 0.580000   0.097863   -0.384656
 0.585000   0.096070   -0.327582
 0.590000   0.094587   -0.311906
 0.595000   0.092951   -0.330427
 0.600000   0.091283   -0.316389
 0.605000   0.089787   -0.281818
 0.610000   0.088465   -0.272090
 0.615000   0.087066   -0.202401
 0.620000   0.086441   -0.174548
 0.625000   0.085321   -0.194455
 0.630000   0.084496   -0.158491
 0.635000   0.083736   -0.144833
 0.640000   0.083048   -0.106314
 0.645000   0.082672   -0.025118
 0.650000   0.082797   -0.029965
 0.655000   0.082373   -0.022160
 0.660000   0.082575   0.097955
 0.665000   0.083352   0.226741
 0.670000   0.084843   0.416298
 0.675000   0.087515   0.904495
 0.680000   0.093888   1.063414
 0.685000   0.098149   0.746610
 0.690000   0.101354   0.654476
 0.695000   0.104694   0.611293
 0.700000   0.107467   0.504760
 0.705000   0.109742   0.669625
 0.710000   0.114163   0.344699
 0.715000   0.113189   -0.331289
 0.720000   0.110850   -0.414065
 0.725000   0.109048   -0.468804
 0.730000   0.106162   -0.677622
 0.735000   0.102272   -0.910079
 0.740000   0.097061   -1.306190
 0.745000   0.089210   -1.412916
 0.750000   0.082932   -1.114735
 0.755000   0.078063   -0.804375
 0.760000   0.074888   -0.463795
 0.765000   0.073425   -0.287417
 0.770000   0.072014   0.012451
 0.775000   0.073549   0.812374
 0.780000   0.080138   1.148717
 0.785000   0.085036   1.082062
 0.790000   0.090958   1.112343
 0.795000   0.096160   0.985370
 0.800000   0.100812   1.120301
 0.805000   0.107363   1.311572
 0.810000   0.113928   1.010241
 0.815000   0.117465   0.654479
 0.820000   0.120473   0.505658
 0.825000   0.122522   0.373195
 0.830000   0.124205   0.363187
 0.835000   0.126154   0.229724
 0.840000   0.126502   0.282354
 0.845000   0.128977   0.670171
 0.850000   0.133204   1.029630
 0.855000   0.139274   1.456442
 0.860000   0.147768   2.227862
 0.865000   0.161552   2.561788
 0.870000   0.173386   2.997453
 0.875000   0.191527   4.217136
 0.880000   0.215557   5.353704
 0.885000   0.245064   6.471503
 0.890000   0.280272   8.717042
 0.895000   0.332234   9.906059
 0.900000   0.379333   10.449537
 0.905000   0.436730   11.969700
 0.910000   0.499030   12.677718
 0.915000   0.563507   12.889340
 0.920000   0.627923   15.846792
 0.925000   0.721975   14.700569
 0.930000   0.774929   12.363893
 0.935000   0.845614   14.087052
 0.940000   0.915799   15.322413
 0.945000   0.998838   16.166106
 0.950000   1.077460   20.355072
 0.955000   1.202388   9.874776
 0.960000   1.176208   -9.592167
 0.965000   1.106467   -21.317864
 0.970000   0.963030   -40.756522
 0.975000   0.698902   -75.642476
 0.980000   0.206605   -136.510680
 0.985000   -0.666205   -217.869403
 0.990000   -1.972089   -253.231436
 0.995000   -3.198520   -161.246722
 1.000000   -3.584556   6.832010
201 psinorm nz1(10^20/m^3) dnz1/dpsiN
 0.000000   0.017859   -0.000002
 0.005000   0.017859   -0.000078
 0.010000   0.017858   -0.000155
 0.015000   0.017858   -0.000231
 0.020000   0.017856   -0.000308
 0.025000   0.017854   -0.000385
 0.030000   0.017852   -0.000463
 0.035000   0.017850   -0.000540
 0.040000   0.017847   -0.000618
 0.045000   0.017844   -0.000696
 0.050000   0.017840   -0.000773
 0.055000   0.017836   -0.000850
 0.060000   0.017831   -0.000927
 0.065000   0.017827   -0.001003
 0.070000   0.017821   -0.001079
 0.075000   0.017816   -0.001154
 0.080000   0.017810   -0.001228
 0.085000   0.017804   -0.001301
 0.090000   0.017797   -0.001372
 0.095000   0.017790   -0.001442
 0.100000   0.017782   -0.001510
 0.105000   0.017775   -0.001576
 0.110000   0.017767   -0.001639
 0.115000   0.017758   -0.001701
 0.120000   0.017750   -0.001761
 0.125000   0.017741   -0.001818
 0.130000   0.017732   -0.001872
 0.135000   0.017722   -0.001924
 0.140000   0.017712   -0.001973
 0.145000   0.017702   -0.002019
 0.150000   0.017692   -0.002061
 0.155000   0.017682   -0.002100
 0.160000   0.017671   -0.002134
 0.165000   0.017660   -0.002164
 0.170000   0.017649   -0.002188
 0.175000   0.017638   -0.002208
 0.180000   0.017627   -0.002223
 0.185000   0.017616   -0.002233
 0.190000   0.017605   -0.002236
 0.195000   0.017594   -0.002234
 0.200000   0.017583   -0.002225
 0.205000   0.017572   -0.002211
 0.210000   0.017561   -0.002191
 0.215000   0.017550   -0.002165
 0.220000   0.017539   -0.002133
 0.225000   0.017528   -0.002097
 0.230000   0.017518   -0.002056
 0.235000   0.017508   -0.002012
 0.240000   0.017498   -0.001963
 0.245000   0.017488   -0.001908
 0.250000   0.017479   -0.001847
 0.255000   0.017470   -0.001780
 0.260000   0.017461   -0.001705
 0.265000   0.017453   -0.001621
 0.270000   0.017445   -0.001528
 0.275000   0.017437   -0.001425
 0.280000   0.017431   -0.001314
 0.285000   0.017424   -0.001193
 0.290000   0.017419   -0.001062
 0.295000   0.017414   -0.000922
 0.300000   0.017409   -0.000773
 0.305000   0.017406   -0.000618
 0.310000   0.017403   -0.000457
 0.315000   0.017401   -0.000291
 0.320000   0.017400   -0.000121
 0.325000   0.017400   0.000051
 0.330000   0.017401   0.000224
 0.335000   0.017402   0.000399
 0.340000   0.017405   0.000576
 0.345000   0.017408   0.000757
 0.350000   0.017412   0.000944
 0.355000   0.017418   0.001137
 0.360000   0.017424   0.001338
 0.365000   0.017431   0.001548
 0.370000   0.017439   0.001765
 0.375000   0.017449   0.001990
 0.380000   0.017459   0.002220
 0.385000   0.017471   0.002448
 0.390000   0.017484   0.002673
 0.395000   0.017498   0.002892
 0.400000   0.017513   0.003102
 0.405000   0.017529   0.003297
 0.410000   0.017546   0.003472
 0.415000   0.017563   0.003626
 0.420000   0.017582   0.003758
 0.425000   0.017601   0.003867
 0.430000   0.017620   0.003953
 0.435000   0.017640   0.004015
 0.440000   0.017661   0.004058
 0.445000   0.017681   0.004092
 0.450000   0.017702   0.004117
 0.455000   0.017722   0.004134
 0.460000   0.017743   0.004142
 0.465000   0.017764   0.004143
 0.470000   0.017784   0.004138
 0.475000   0.017805   0.004121
 0.480000   0.017825   0.004080
 0.485000   0.017846   0.004013
 0.490000   0.017866   0.003915
 0.495000   0.017885   0.003784
 0.500000   0.017903   0.003619
 0.505000   0.017921   0.003416
 0.510000   0.017938   0.003180
 0.515000   0.017953   0.002911
 0.520000   0.017967   0.002613
 0.525000   0.017979   0.002287
 0.530000   0.017990   0.001936
 0.535000   0.017998   0.001567
 0.540000   0.018005   0.001180
 0.545000   0.018010   0.000777
 0.550000   0.018013   0.000358
 0.555000   0.018014   -0.000076
 0.560000   0.018012   -0.000525
 0.565000   0.018009   -0.000992
 0.570000   0.018002   -0.001478
 0.575000   0.017994   -0.001983
 0.580000   0.017983   -0.002508
 0.585000   0.017969   -0.003051
 0.590000   0.017952   -0.003608
 0.595000   0.017933   -0.004175
 0.600000   0.017910   -0.004750
 0.605000   0.017885   -0.005330
 0.610000   0.017857   -0.005913
 0.615000   0.017826   -0.006496
 0.620000   0.017792   -0.007076
 0.625000   0.017755   -0.007654
 0.630000   0.017715   -0.008232
 0.635000   0.017673   -0.008807
 0.640000   0.017627   -0.009378
 0.645000   0.017579   -0.009945
 0.650000   0.017528   -0.010508
 0.655000   0.017474   -0.011068
 0.660000   0.017417   -0.011622
 0.665000   0.017358   -0.012175
 0.670000   0.017296   -0.012746
 0.675000   0.017230   -0.013374
 0.680000   0.017162   -0.014161
 0.685000   0.017089   -0.015163
 0.690000   0.017010   -0.016330
 0.695000   0.016925   -0.017640
 0.700000   0.016834   -0.019084
 0.705000   0.016735   -0.020633
 0.710000   0.016627   -0.022330
 0.715000   0.016511   -0.024091
 0.720000   0.016387   -0.025725
 0.725000   0.016254   -0.027200
 0.730000   0.016115   -0.028496
 0.735000   0.015969   -0.029549
 0.740000   0.015819   -0.030307
 0.745000   0.015666   -0.030668
 0.750000   0.015512   -0.030573
 0.755000   0.015360   -0.030081
 0.760000   0.015212   -0.029239
 0.765000   0.015068   -0.028089
 0.770000   0.014931   -0.026641
 0.775000   0.014801   -0.024959
 0.780000   0.014681   -0.023262
 0.785000   0.014569   -0.021656
 0.790000   0.014465   -0.020126
 0.795000   0.014368   -0.018707
 0.800000   0.014277   -0.017412
 0.805000   0.014193   -0.016279
 0.810000   0.014115   -0.015352
 0.815000   0.014040   -0.014566
 0.820000   0.013969   -0.013831
 0.825000   0.013902   -0.013116
 0.830000   0.013838   -0.012407
 0.835000   0.013778   -0.011707
 0.840000   0.013721   -0.011028
 0.845000   0.013667   -0.010376
 0.850000   0.013617   -0.009752
 0.855000   0.013570   -0.009161
 0.860000   0.013525   -0.008611
 0.865000   0.013484   -0.008127
 0.870000   0.013444   -0.007734
 0.875000   0.013406   -0.007433
 0.880000   0.013370   -0.007218
 0.885000   0.013334   -0.007093
 0.890000   0.013299   -0.007077
 0.895000   0.013263   -0.007271
 0.900000   0.013226   -0.007710
 0.905000   0.013186   -0.008411
 0.910000   0.013142   -0.009532
 0.915000   0.013091   -0.011289
 0.920000   0.013029   -0.014024
 0.925000   0.012951   -0.018575
 0.930000   0.012843   -0.025640
 0.935000   0.012694   -0.036069
 0.940000   0.012483   -0.051404
 0.945000   0.012180   -0.073037
 0.950000   0.011752   -0.101739
 0.955000   0.011163   -0.138190
 0.960000   0.010370   -0.178350
 0.965000   0.009379   -0.213988
 0.970000   0.008231   -0.237663
 0.975000   0.007003   -0.243410
 0.980000   0.005796   -0.229945
 0.985000   0.004703   -0.201698
 0.990000   0.003779   -0.165836
 0.995000   0.003045   -0.129760
 1.000000   0.002482   -0.095461
201 psinorm vtor1(km/s) dvtor1/dpsiN
 0.000000   112.898003   546.756422
 0.005000   115.019686   301.916519
 0.010000   115.917169   158.030315
 0.015000   116.599989   124.718087
 0.020000   117.164350   105.302897
 0.025000   117.653018   92.700772
 0.030000   118.091357   83.587651
 0.035000   118.488894   75.724349
 0.040000   118.848601   69.020229
 0.045000   119.179097   63.501173
 0.050000   119.483612   58.443034
 0.055000   119.763527   53.628712
 0.060000   120.019900   49.266989
 0.065000   120.256197   45.385843
 0.070000   120.473758   41.616622
 0.075000   120.672363   38.065469
 0.080000   120.854413   34.836605
 0.085000   121.020729   31.762111
 0.090000   121.172034   28.693237
 0.095000   121.307662   25.728686
 0.100000   121.429321   22.954281
 0.105000   121.537204   20.182724
 0.110000   121.631148   17.377026
 0.115000   121.710975   14.662293
 0.120000   121.777771   12.009829
 0.125000   121.831073   9.248300
 0.130000   121.870254   6.445248
 0.135000   121.895525   3.560105
 0.140000   121.905855   0.513030
 0.145000   121.900656   -2.633264
 0.150000   121.879522   -5.843945
 0.155000   121.842216   -9.141080
 0.160000   121.788111   -12.630080
 0.165000   121.715916   -16.245319
 0.170000   121.625658   -19.855718
 0.175000   121.517358   -23.491064
 0.180000   121.390748   -27.172664
 0.185000   121.245632   -30.840623
 0.190000   121.082341   -34.454506
 0.195000   120.901087   -38.009872
 0.200000   120.702243   -41.439057
 0.205000   120.486696   -44.666685
 0.210000   120.255576   -47.650478
 0.215000   120.010191   -50.359693
 0.220000   119.751979   -52.670335
 0.225000   119.483488   -54.416385
 0.230000   119.207815   -55.794636
 0.235000   118.925542   -56.945664
 0.240000   118.638358   -57.768034
 0.245000   118.347861   -58.298887
 0.250000   118.055370   -58.557052
 0.255000   117.762291   -58.381685
 0.260000   117.471553   -58.035307
 0.265000   117.181938   -57.757502
 0.270000   116.893978   -57.402660
 0.275000   116.607911   -57.026136
 0.280000   116.323716   -56.681720
 0.285000   116.041094   -56.407067
 0.290000   115.759646   -56.482246
 0.295000   115.476271   -57.018584
 0.300000   115.189460   -57.836095
 0.305000   114.897910   -58.878320
 0.310000   114.600677   -60.036519
 0.315000   114.297545   -61.254087
 0.320000   113.988136   -62.497242
 0.325000   113.672573   -63.733542
 0.330000   113.350800   -64.983961
 0.335000   113.022733   -66.250171
 0.340000   112.688299   -67.522495
 0.345000   112.347508   -68.829283
 0.350000   112.000006   -70.100018
 0.355000   111.646508   -71.271960
 0.360000   111.287286   -72.372560
 0.365000   110.922782   -73.376084
 0.370000   110.553525   -74.274540
 0.375000   110.180037   -75.082479
 0.380000   109.802701   -75.745459
 0.385000   109.422582   -76.217145
 0.390000   109.040529   -76.531421
 0.395000   108.657268   -76.701708
 0.400000   108.273512   -76.719160
 0.405000   107.890077   -76.536752
 0.410000   107.508144   -76.298056
 0.415000   107.127096   -76.384789
 0.420000   106.744297   -77.087653
 0.425000   106.356220   -78.556471
 0.430000   105.958732   -80.871339
 0.435000   105.547506   -84.324960
 0.440000   105.115482   -88.893289
 0.445000   104.658573   -93.918318
 0.450000   104.176299   -99.168519
 0.455000   103.666888   -104.693846
 0.460000   103.129361   -110.348365
 0.465000   102.563404   -116.307940
 0.470000   101.966281   -122.369220
 0.475000   101.339712   -127.584493
 0.480000   100.690436   -131.775073
 0.485000   100.021962   -135.194402
 0.490000   99.338492   -137.712832
 0.495000   98.644833   -139.266961
 0.500000   97.945823   -139.667648
 0.505000   97.248157   -138.879167
 0.510000   96.557031   -137.346989
 0.515000   95.874687   -135.423741
 0.520000   95.202794   -133.199822
 0.525000   94.542689   -130.711593
 0.530000   93.895678   -127.945161
 0.535000   93.263237   -125.046889
 0.540000   92.645209   -122.156651
 0.545000   92.041671   -119.278241
 0.550000   91.452426   -116.460893
 0.555000   90.877062   -113.740867
 0.560000   90.315018   -111.115406
 0.565000   89.765908   -108.750622
 0.570000   89.227511   -106.756588
 0.575000   88.698342   -105.067282
 0.580000   88.176839   -103.700817
 0.585000   87.661333   -102.684835
 0.590000   87.149990   -102.029821
 0.595000   86.641035   -101.617004
 0.600000   86.133820   -101.306372
 0.605000   85.627972   -101.065202
 0.610000   85.123168   -100.891673
 0.615000   84.619055   -100.795234
 0.620000   84.115216   -100.679065
 0.625000   83.612264   -100.628573
 0.630000   83.108930   -100.776406
 0.635000   82.604500   -101.065982
 0.640000   82.098270   -101.506967
 0.645000   81.589430   -102.109128
 0.650000   81.077179   -102.798668
 0.655000   80.561444   -103.729628
 0.660000   80.039883   -105.069792
 0.665000   79.510746   -106.753277
 0.670000   78.972350   -108.781656
 0.675000   78.422929   -111.160721
 0.680000   77.860743   -113.880462
 0.685000   77.284125   -116.626913
 0.690000   76.694474   -119.018071
 0.695000   76.093944   -121.042455
 0.700000   75.484049   -122.806145
 0.705000   74.865882   -124.407260
 0.710000   74.239977   -125.866046
 0.715000   73.607222   -127.259492
 0.720000   72.967382   -128.703409
 0.725000   72.320188   -130.166010
 0.730000   71.665722   -131.617737
 0.735000   71.004011   -133.064661
 0.740000   70.335075   -134.527534
 0.745000   69.658735   -136.076272
 0.750000   68.974312   -137.826735
 0.755000   68.280468   -140.005380
 0.760000   67.574258   -142.873644
 0.765000   66.851731   -146.571485
 0.770000   66.108544   -151.395797
 0.775000   65.337773   -157.175982
 0.780000   64.536784   -162.590130
 0.785000   63.711872   -166.982364
 0.790000   62.866960   -170.490404
 0.795000   62.006968   -172.958978
 0.800000   61.137370   -174.459285
 0.805000   60.262375   -175.228770
 0.810000   59.385083   -175.127115
 0.815000   58.511104   -174.231872
 0.820000   57.642764   -172.892091
 0.825000   56.782183   -171.157453
 0.830000   55.931189   -169.209458
 0.835000   55.090089   -167.348463
 0.840000   54.257705   -165.543010
 0.845000   53.434659   -164.337033
 0.850000   52.614334   -164.781025
 0.855000   51.786848   -167.521399
 0.860000   50.939120   -173.309128
 0.865000   50.053757   -183.610881
 0.870000   49.103012   -198.408879
 0.875000   48.069668   -217.730711
 0.880000   46.925704   -243.089928
 0.885000   45.638769   -275.233634
 0.890000   44.173368   -314.591214
 0.895000   42.492857   -362.113937
 0.900000   40.552229   -415.233378
 0.905000   38.340523   -470.396718
 0.910000   35.848262   -525.569698
 0.915000   33.084826   -576.615746
 0.920000   30.082104   -618.893658
 0.925000   26.895889   -647.437500
 0.930000   23.607729   -657.314816
 0.935000   20.322741   -645.637921
 0.940000   17.151350   -612.145528
 0.945000   14.201286   -558.681630
 0.950000   11.564534   -489.463122
 0.955000   9.306655   -408.734742
 0.960000   7.477186   -324.840629
 0.965000   6.058248   -246.266845
 0.970000   5.014518   -176.060359
 0.975000   4.297645   -116.334041
 0.980000   3.851177   -68.006089
 0.985000   3.617584   -30.792146
 0.990000   3.543256   -3.940866
 0.995000   3.578175   14.046311
 1.000000   3.683719   28.171149
201 psinorm vpol1(km/s) dvpol1/dpsiN
 0.000000   -0.000250   3.935937
 0.005000   0.020797   4.482813
 0.010000   0.044578   5.001563
 0.015000   0.070813   5.506250
 0.020000   0.099641   5.956250
 0.025000   0.130375   6.306250
 0.030000   0.162703   6.565625
 0.035000   0.196031   6.731250
 0.040000   0.230016   6.839063
 0.045000   0.264422   6.879687
 0.050000   0.298812   6.887500
 0.055000   0.333297   6.896875
 0.060000   0.367781   6.907812
 0.065000   0.402375   6.946875
 0.070000   0.437250   6.981250
 0.075000   0.472187   7.014062
 0.080000   0.507391   7.062500
 0.085000   0.542813   7.107813
 0.090000   0.578469   7.148437
 0.095000   0.614297   7.165625
 0.100000   0.650125   7.187500
 0.105000   0.686172   7.223437
 0.110000   0.722359   7.306250
 0.115000   0.759234   7.439063
 0.120000   0.796750   7.626562
 0.125000   0.835500   7.873437
 0.130000   0.875484   8.128125
 0.135000   0.916781   8.406250
 0.140000   0.959547   8.671875
 0.145000   1.003500   8.904688
 0.150000   1.048594   9.082812
 0.155000   1.094328   9.171875
 0.160000   1.140313   9.210937
 0.165000   1.186438   9.196875
 0.170000   1.232281   9.112500
 0.175000   1.277562   8.954688
 0.180000   1.321828   8.695313
 0.185000   1.364516   8.353125
 0.190000   1.405359   7.935937
 0.195000   1.443875   7.460938
 0.200000   1.479969   6.953125
 0.205000   1.513406   6.437500
 0.210000   1.544344   5.964062
 0.215000   1.573047   5.568750
 0.220000   1.600031   5.204688
 0.225000   1.625094   4.823437
 0.230000   1.648266   4.414062
 0.235000   1.669234   3.937500
 0.240000   1.687641   3.379688
 0.245000   1.703031   2.751563
 0.250000   1.715156   2.073438
 0.255000   1.723766   1.345313
 0.260000   1.728609   0.584375
 0.265000   1.729609   -0.196875
 0.270000   1.726641   -0.971875
 0.275000   1.719891   -1.739063
 0.280000   1.709250   -2.493750
 0.285000   1.694953   -3.214062
 0.290000   1.677109   -3.923438
 0.295000   1.655719   -4.654687
 0.300000   1.630563   -5.415625
 0.305000   1.601562   -6.212500
 0.310000   1.568437   -7.056250
 0.315000   1.531000   -7.978125
 0.320000   1.488656   -9.015625
 0.325000   1.440844   -10.123437
 0.330000   1.387422   -11.218750
 0.335000   1.328656   -12.217187
 0.340000   1.265250   -13.095313
 0.345000   1.197703   -13.887500
 0.350000   1.126375   -14.535938
 0.355000   1.052344   -15.093750
 0.360000   0.975438   -15.664062
 0.365000   0.895703   -16.234375
 0.370000   0.813094   -16.837500
 0.375000   0.727328   -17.479687
 0.380000   0.638297   -18.212500
 0.385000   0.545203   -19.089062
 0.390000   0.447406   -20.051562
 0.395000   0.344687   -21.017187
 0.400000   0.237234   -21.903125
 0.405000   0.125656   -22.615625
 0.410000   0.011078   -23.156250
 0.415000   -0.105906   -23.739063
 0.420000   -0.226312   -24.628125
 0.425000   -0.352187   -25.970312
 0.430000   -0.486016   -27.832812
 0.435000   -0.630516   -30.259375
 0.440000   -0.788609   -33.409375
 0.445000   -0.964609   -36.856250
 0.450000   -1.157172   -40.181250
 0.455000   -1.366422   -43.390625
 0.460000   -1.591078   -46.198437
 0.465000   -1.828406   -48.426562
 0.470000   -2.075344   -49.615625
 0.475000   -2.324562   -49.295313
 0.480000   -2.568297   -47.635938
 0.485000   -2.800922   -44.915625
 0.490000   -3.017453   -41.303125
 0.495000   -3.213953   -36.907812
 0.500000   -3.386531   -32.010937
 0.505000   -3.534063   -27.373437
 0.510000   -3.660266   -23.351562
 0.515000   -3.767578   -19.842188
 0.520000   -3.858688   -16.956250
 0.525000   -3.937141   -14.740625
 0.530000   -4.006094   -13.309375
 0.535000   -4.070234   -12.551562
 0.540000   -4.131609   -12.020312
 0.545000   -4.190437   -11.554687
 0.550000   -4.247156   -11.107813
 0.555000   -4.301516   -10.625000
 0.560000   -4.353406   -10.096875
 0.565000   -4.402484   -9.475000
 0.570000   -4.448156   -8.743750
 0.575000   -4.489922   -7.964063
 0.580000   -4.527797   -7.151563
 0.585000   -4.561438   -6.285937
 0.590000   -4.590656   -5.393750
 0.595000   -4.615375   -4.515625
 0.600000   -4.635813   -3.670312
 0.605000   -4.652078   -2.862500
 0.610000   -4.664438   -2.123437
 0.615000   -4.673312   -1.467188
 0.620000   -4.679109   -0.868750
 0.625000   -4.682000   -0.337500
 0.630000   -4.682484   0.134375
 0.635000   -4.680656   0.571875
 0.640000   -4.676766   0.959375
 0.645000   -4.671062   1.320312
 0.650000   -4.663563   1.670312
 0.655000   -4.654359   1.989063
 0.660000   -4.643672   2.276562
 0.665000   -4.631594   2.532812
 0.670000   -4.618344   2.778125
 0.675000   -4.603813   3.007812
 0.680000   -4.588266   3.218750
 0.685000   -4.571625   3.420313
 0.690000   -4.554062   3.593750
 0.695000   -4.535687   3.776562
 0.700000   -4.516297   3.946875
 0.705000   -4.496219   4.079688
 0.710000   -4.475500   4.195312
 0.715000   -4.454266   4.270313
 0.720000   -4.432797   4.300000
 0.725000   -4.411266   4.281250
 0.730000   -4.389984   4.208594
 0.735000   -4.369180   4.095312
 0.740000   -4.349031   3.936719
 0.745000   -4.329813   3.725781
 0.750000   -4.311773   3.491406
 0.755000   -4.294898   3.240625
 0.760000   -4.279367   2.950781
 0.765000   -4.265391   2.670313
 0.770000   -4.252664   2.399219
 0.775000   -4.241398   2.129687
 0.780000   -4.231367   1.895312
 0.785000   -4.222445   1.659375
 0.790000   -4.214773   1.424219
 0.795000   -4.208203   1.167969
 0.800000   -4.203094   0.852344
 0.805000   -4.199680   0.467187
 0.810000   -4.198422   0.017969
 0.815000   -4.199500   -0.486719
 0.820000   -4.203289   -1.050781
 0.825000   -4.210008   -1.643750
 0.830000   -4.219727   -2.256250
 0.835000   -4.232570   -2.834375
 0.840000   -4.248070   -3.340625
 0.845000   -4.265977   -3.774219
 0.850000   -4.285813   -4.080469
 0.855000   -4.306781   -4.242969
 0.860000   -4.328242   -4.289062
 0.865000   -4.349672   -4.217188
 0.870000   -4.370414   -4.052344
 0.875000   -4.390195   -3.811719
 0.880000   -4.408531   -3.518750
 0.885000   -4.425383   -3.228125
 0.890000   -4.440812   -2.939844
 0.895000   -4.454781   -2.643750
 0.900000   -4.467250   -2.348437
 0.905000   -4.478266   -2.034375
 0.910000   -4.487594   -1.639844
 0.915000   -4.494664   -1.100781
 0.920000   -4.498602   -0.321094
 0.925000   -4.497875   0.804688
 0.930000   -4.490555   2.433594
 0.935000   -4.473539   4.914063
 0.940000   -4.441414   8.796094
 0.945000   -4.385578   14.383594
 0.950000   -4.297578   21.337500
 0.955000   -4.172203   27.881250
 0.960000   -4.018766   29.731250
 0.965000   -3.874891   20.468750
 0.970000   -3.814078   -4.162500
 0.975000   -3.916516   -29.877344
 0.980000   -4.112852   -8.150000
 0.985000   -3.998016   129.195312
 0.990000   -2.820898   403.800000
 0.995000   0.039984   702.506641
 1.000000   4.204168   963.166797
3 N Z A of ION SPECIES
 6.000000   6.000000   12.010700
 1.000000   1.000000   2.000000
 1.000000   1.000000   2.000000
