201 psinorm ne(10^20/m^3) dne/dpsiN
 0.000000   0.735388   -0.636171
 0.005000   0.732219   -0.631679
 0.010000   0.729072   -0.627204
 0.015000   0.725947   -0.622764
 0.020000   0.722844   -0.618357
 0.025000   0.719763   -0.613984
 0.030000   0.716704   -0.609645
 0.035000   0.713667   -0.605339
 0.040000   0.710651   -0.601065
 0.045000   0.707656   -0.596824
 0.050000   0.704682   -0.592615
 0.055000   0.701730   -0.588438
 0.060000   0.698798   -0.584293
 0.065000   0.695887   -0.580179
 0.070000   0.692996   -0.576097
 0.075000   0.690126   -0.572045
 0.080000   0.687276   -0.568023
 0.085000   0.684446   -0.564032
 0.090000   0.681635   -0.560071
 0.095000   0.678845   -0.556139
 0.100000   0.676074   -0.552238
 0.105000   0.673323   -0.548365
 0.110000   0.670590   -0.544521
 0.115000   0.667877   -0.540706
 0.120000   0.665183   -0.536919
 0.125000   0.662508   -0.533161
 0.130000   0.659852   -0.529430
 0.135000   0.657214   -0.525727
 0.140000   0.654595   -0.522052
 0.145000   0.651993   -0.518404
 0.150000   0.649410   -0.514782
 0.155000   0.646846   -0.511188
 0.160000   0.644299   -0.507620
 0.165000   0.641769   -0.504078
 0.170000   0.639258   -0.500562
 0.175000   0.636764   -0.497072
 0.180000   0.634287   -0.493608
 0.185000   0.631828   -0.490169
 0.190000   0.629385   -0.486755
 0.195000   0.626960   -0.483366
 0.200000   0.624552   -0.480002
 0.205000   0.622160   -0.476662
 0.210000   0.619785   -0.473346
 0.215000   0.617427   -0.470055
 0.220000   0.615085   -0.466787
 0.225000   0.612759   -0.463543
 0.230000   0.610449   -0.460322
 0.235000   0.608156   -0.457125
 0.240000   0.605878   -0.453950
 0.245000   0.603616   -0.450798
 0.250000   0.601370   -0.447669
 0.255000   0.599139   -0.444563
 0.260000   0.596924   -0.441478
 0.265000   0.594725   -0.438416
 0.270000   0.592540   -0.435375
 0.275000   0.590371   -0.432356
 0.280000   0.588217   -0.429359
 0.285000   0.586077   -0.426383
 0.290000   0.583953   -0.423427
 0.295000   0.581843   -0.420493
 0.300000   0.579748   -0.417580
 0.305000   0.577667   -0.414687
 0.310000   0.575601   -0.411814
 0.315000   0.573549   -0.408962
 0.320000   0.571511   -0.406129
 0.325000   0.569488   -0.403316
 0.330000   0.567478   -0.400523
 0.335000   0.565482   -0.397750
 0.340000   0.563501   -0.394996
 0.345000   0.561533   -0.392261
 0.350000   0.559578   -0.389545
 0.355000   0.557637   -0.386848
 0.360000   0.555710   -0.384169
 0.365000   0.553795   -0.381509
 0.370000   0.551894   -0.378867
 0.375000   0.550007   -0.376244
 0.380000   0.548132   -0.373638
 0.385000   0.546270   -0.371051
 0.390000   0.544422   -0.368481
 0.395000   0.542586   -0.365928
 0.400000   0.540762   -0.363394
 0.405000   0.538952   -0.360876
 0.410000   0.537153   -0.358375
 0.415000   0.535368   -0.355892
 0.420000   0.533595   -0.353425
 0.425000   0.531834   -0.350975
 0.430000   0.530085   -0.348541
 0.435000   0.528348   -0.346124
 0.440000   0.526624   -0.343723
 0.445000   0.524911   -0.341338
 0.450000   0.523210   -0.338969
 0.455000   0.521521   -0.336616
 0.460000   0.519844   -0.334279
 0.465000   0.518178   -0.331957
 0.470000   0.516524   -0.329651
 0.475000   0.514882   -0.327360
 0.480000   0.513251   -0.325084
 0.485000   0.511631   -0.322823
 0.490000   0.510023   -0.320577
 0.495000   0.508425   -0.318346
 0.500000   0.506839   -0.316129
 0.505000   0.505264   -0.313927
 0.510000   0.503700   -0.311739
 0.515000   0.502147   -0.309566
 0.520000   0.500604   -0.307407
 0.525000   0.499073   -0.305262
 0.530000   0.497552   -0.303130
 0.535000   0.496041   -0.301013
 0.540000   0.494542   -0.298909
 0.545000   0.493052   -0.296819
 0.550000   0.491573   -0.294742
 0.555000   0.490105   -0.292678
 0.560000   0.488647   -0.290628
 0.565000   0.487199   -0.288591
 0.570000   0.485761   -0.286567
 0.575000   0.484333   -0.284555
 0.580000   0.482915   -0.282557
 0.585000   0.481507   -0.280571
 0.590000   0.480109   -0.278597
 0.595000   0.478721   -0.276636
 0.600000   0.477343   -0.274687
 0.605000   0.475974   -0.272751
 0.610000   0.474616   -0.270827
 0.615000   0.473266   -0.268914
 0.620000   0.471926   -0.267014
 0.625000   0.470596   -0.265125
 0.630000   0.469275   -0.263248
 0.635000   0.467964   -0.261383
 0.640000   0.466661   -0.259529
 0.645000   0.465368   -0.257687
 0.650000   0.464084   -0.255856
 0.655000   0.462810   -0.254036
 0.660000   0.461544   -0.252227
 0.665000   0.460287   -0.250429
 0.670000   0.459040   -0.248643
 0.675000   0.457801   -0.246867
 0.680000   0.456571   -0.245101
 0.685000   0.455350   -0.243347
 0.690000   0.454138   -0.241602
 0.695000   0.452934   -0.239869
 0.700000   0.451739   -0.238146
 0.705000   0.450553   -0.236433
 0.710000   0.449375   -0.234730
 0.715000   0.448205   -0.233037
 0.720000   0.447044   -0.231354
 0.725000   0.445892   -0.229681
 0.730000   0.444747   -0.228018
 0.735000   0.443611   -0.226365
 0.740000   0.442484   -0.224722
 0.745000   0.441364   -0.223087
 0.750000   0.440253   -0.221463
 0.755000   0.439150   -0.219847
 0.760000   0.438054   -0.218241
 0.765000   0.436967   -0.216643
 0.770000   0.435888   -0.215054
 0.775000   0.434817   -0.213473
 0.780000   0.433753   -0.211900
 0.785000   0.432698   -0.210333
 0.790000   0.431650   -0.208772
 0.795000   0.430610   -0.207216
 0.800000   0.429578   -0.205660
 0.805000   0.428553   -0.204103
 0.810000   0.427537   -0.202537
 0.815000   0.426528   -0.200956
 0.820000   0.425527   -0.199347
 0.825000   0.424535   -0.197692
 0.830000   0.423550   -0.195965
 0.835000   0.422575   -0.194128
 0.840000   0.421609   -0.192125
 0.845000   0.420654   -0.189873
 0.850000   0.419710   -0.187253
 0.855000   0.418781   -0.184096
 0.860000   0.417869   -0.180158
 0.865000   0.416980   -0.175096
 0.870000   0.416118   -0.168434
 0.875000   0.415295   -0.159519
 0.880000   0.414523   -0.147482
 0.885000   0.413820   -0.131198
 0.890000   0.413211   -0.109291
 0.895000   0.412727   -0.080222
 0.900000   0.412409   -0.042568
 0.905000   0.412302   0.004287
 0.910000   0.412452   0.058707
 0.915000   0.412889   0.113947
 0.920000   0.413591   0.152944
 0.925000   0.414418   0.139693
 0.930000   0.414988   0.007345
 0.935000   0.414492   -0.351779
 0.940000   0.411470   -1.076523
 0.945000   0.403726   -2.274378
 0.950000   0.388727   -3.889136
 0.955000   0.364835   -5.582448
 0.960000   0.332902   -6.822036
 0.965000   0.296615   -7.217840
 0.970000   0.260724   -6.788985
 0.975000   0.228725   -5.873091
 0.980000   0.201993   -4.837632
 0.985000   0.180349   -3.904527
 0.990000   0.162948   -3.149364
 0.995000   0.148855   -2.566855
 1.000000   0.137279   -2.063512
201 psinorm te(KeV) dte/dpsiN
 0.000000   3.636294   -1.545377
 0.005000   3.628492   -1.575271
 0.010000   3.620541   -1.605058
 0.015000   3.612442   -1.634633
 0.020000   3.604195   -1.663991
 0.025000   3.595802   -1.693128
 0.030000   3.587264   -1.722042
 0.035000   3.578581   -1.750729
 0.040000   3.569756   -1.779185
 0.045000   3.560790   -1.807407
 0.050000   3.551682   -1.835391
 0.055000   3.542436   -1.863136
 0.060000   3.533051   -1.890636
 0.065000   3.523529   -1.917890
 0.070000   3.513872   -1.944894
 0.075000   3.504080   -1.971645
 0.080000   3.494156   -1.998140
 0.085000   3.484099   -2.024376
 0.090000   3.473912   -2.050350
 0.095000   3.463596   -2.076060
 0.100000   3.453151   -2.101503
 0.105000   3.442581   -2.126675
 0.110000   3.431885   -2.151576
 0.115000   3.421065   -2.176201
 0.120000   3.410123   -2.200548
 0.125000   3.399059   -2.224615
 0.130000   3.387876   -2.248400
 0.135000   3.376575   -2.271900
 0.140000   3.365157   -2.295112
 0.145000   3.353624   -2.318036
 0.150000   3.341977   -2.340667
 0.155000   3.330217   -2.363005
 0.160000   3.318347   -2.385048
 0.165000   3.306367   -2.406793
 0.170000   3.294279   -2.428238
 0.175000   3.282085   -2.449382
 0.180000   3.269785   -2.470222
 0.185000   3.257382   -2.490758
 0.190000   3.244878   -2.510987
 0.195000   3.232273   -2.530908
 0.200000   3.219569   -2.550519
 0.205000   3.206767   -2.569819
 0.210000   3.193870   -2.588806
 0.215000   3.180879   -2.607480
 0.220000   3.167796   -2.625838
 0.225000   3.154621   -2.643879
 0.230000   3.141357   -2.661603
 0.235000   3.128005   -2.679008
 0.240000   3.114567   -2.696094
 0.245000   3.101044   -2.712858
 0.250000   3.087438   -2.729301
 0.255000   3.073751   -2.745421
 0.260000   3.059984   -2.761218
 0.265000   3.046139   -2.776691
 0.270000   3.032217   -2.791840
 0.275000   3.018220   -2.806662
 0.280000   3.004150   -2.821160
 0.285000   2.990009   -2.835330
 0.290000   2.975797   -2.849174
 0.295000   2.961517   -2.862691
 0.300000   2.947170   -2.875881
 0.305000   2.932758   -2.888743
 0.310000   2.918283   -2.901278
 0.315000   2.903745   -2.913484
 0.320000   2.889148   -2.925363
 0.325000   2.874492   -2.936913
 0.330000   2.859779   -2.948136
 0.335000   2.845010   -2.959032
 0.340000   2.830188   -2.969599
 0.345000   2.815314   -2.979840
 0.350000   2.800390   -2.989754
 0.355000   2.785417   -2.999341
 0.360000   2.770397   -3.008602
 0.365000   2.755331   -3.017537
 0.370000   2.740221   -3.026148
 0.375000   2.725069   -3.034433
 0.380000   2.709877   -3.042396
 0.385000   2.694645   -3.050034
 0.390000   2.679377   -3.057351
 0.395000   2.664072   -3.064346
 0.400000   2.648733   -3.071021
 0.405000   2.633362   -3.077376
 0.410000   2.617959   -3.083412
 0.415000   2.602528   -3.089130
 0.420000   2.587068   -3.094532
 0.425000   2.571582   -3.099618
 0.430000   2.556072   -3.104390
 0.435000   2.540538   -3.108849
 0.440000   2.524983   -3.112996
 0.445000   2.509408   -3.116833
 0.450000   2.493815   -3.120361
 0.455000   2.478205   -3.123581
 0.460000   2.462579   -3.126495
 0.465000   2.446940   -3.129105
 0.470000   2.431288   -3.131411
 0.475000   2.415626   -3.133417
 0.480000   2.399954   -3.135122
 0.485000   2.384275   -3.136530
 0.490000   2.368589   -3.137641
 0.495000   2.352898   -3.138458
 0.500000   2.337204   -3.138982
 0.505000   2.321508   -3.139216
 0.510000   2.305812   -3.139160
 0.515000   2.290117   -3.138818
 0.520000   2.274424   -3.138191
 0.525000   2.258735   -3.137281
 0.530000   2.243051   -3.136091
 0.535000   2.227374   -3.134622
 0.540000   2.211705   -3.132876
 0.545000   2.196045   -3.130856
 0.550000   2.180396   -3.128564
 0.555000   2.164759   -3.126002
 0.560000   2.149136   -3.123173
 0.565000   2.133528   -3.120078
 0.570000   2.117935   -3.116721
 0.575000   2.102361   -3.113103
 0.580000   2.086804   -3.109227
 0.585000   2.071268   -3.105095
 0.590000   2.055753   -3.100711
 0.595000   2.040261   -3.096075
 0.600000   2.024793   -3.091191
 0.605000   2.009349   -3.086062
 0.610000   1.993932   -3.080690
 0.615000   1.978542   -3.075077
 0.620000   1.963181   -3.069226
 0.625000   1.947850   -3.063140
 0.630000   1.932550   -3.056822
 0.635000   1.917282   -3.050273
 0.640000   1.902047   -3.043497
 0.645000   1.886847   -3.036497
 0.650000   1.871682   -3.029274
 0.655000   1.856554   -3.021832
 0.660000   1.841464   -3.014174
 0.665000   1.826412   -3.006302
 0.670000   1.811401   -2.998218
 0.675000   1.796430   -2.989926
 0.680000   1.781502   -2.981427
 0.685000   1.766616   -2.972725
 0.690000   1.751774   -2.963821
 0.695000   1.736978   -2.954719
 0.700000   1.722227   -2.945419
 0.705000   1.707524   -2.935925
 0.710000   1.692868   -2.926239
 0.715000   1.678261   -2.916360
 0.720000   1.663704   -2.906292
 0.725000   1.649198   -2.896035
 0.730000   1.634744   -2.885588
 0.735000   1.620342   -2.874953
 0.740000   1.605994   -2.864129
 0.745000   1.591701   -2.853113
 0.750000   1.577463   -2.841903
 0.755000   1.563282   -2.830495
 0.760000   1.549158   -2.818885
 0.765000   1.535093   -2.807065
 0.770000   1.521088   -2.795026
 0.775000   1.507143   -2.782758
 0.780000   1.493260   -2.770248
 0.785000   1.479440   -2.757480
 0.790000   1.465685   -2.744437
 0.795000   1.451996   -2.731097
 0.800000   1.438374   -2.717439
 0.805000   1.424822   -2.703440
 0.810000   1.411340   -2.689078
 0.815000   1.397931   -2.674336
 0.820000   1.384597   -2.659207
 0.825000   1.371339   -2.643698
 0.830000   1.358160   -2.627850
 0.835000   1.345060   -2.611745
 0.840000   1.332042   -2.595539
 0.845000   1.319105   -2.579497
 0.850000   1.306247   -2.564043
 0.855000   1.293465   -2.549842
 0.860000   1.280749   -2.537902
 0.865000   1.268086   -2.529729
 0.870000   1.255451   -2.527539
 0.875000   1.242810   -2.534558
 0.880000   1.230106   -2.555430
 0.885000   1.217256   -2.596777
 0.890000   1.204138   -2.667951
 0.895000   1.190576   -2.782029
 0.900000   1.176318   -2.957069
 0.905000   1.161006   -3.217631
 0.910000   1.144142   -3.596440
 0.915000   1.125041   -4.135860
 0.920000   1.102783   -4.888421
 0.925000   1.076157   -5.914960
 0.930000   1.043633   -7.277892
 0.935000   1.003378   -9.026089
 0.940000   0.953372   -11.167573
 0.945000   0.891702   -13.629069
 0.950000   0.817082   -16.210468
 0.955000   0.729598   -18.558919
 0.960000   0.631493   -20.203550
 0.965000   0.527562   -20.684003
 0.970000   0.424653   -19.748683
 0.975000   0.330075   -17.512944
 0.980000   0.249523   -14.445984
 0.985000   0.185616   -11.167807
 0.990000   0.137845   -8.194603
 0.995000   0.103669   -5.797736
 1.000000   0.079868   -3.722995
201 psinorm ni(10^20/m^3) dni/dpsiN
 0.000000   0.444369   -0.771143
 0.005000   0.440638   -0.721342
 0.010000   0.437156   -0.671983
 0.015000   0.433918   -0.624789
 0.020000   0.430908   -0.580718
 0.025000   0.428111   -0.540059
 0.030000   0.425507   -0.503096
 0.035000   0.423080   -0.469278
 0.040000   0.420815   -0.437664
 0.045000   0.418703   -0.408456
 0.050000   0.416730   -0.382085
 0.055000   0.414883   -0.357652
 0.060000   0.413153   -0.335480
 0.065000   0.411528   -0.315718
 0.070000   0.409996   -0.297477
 0.075000   0.408553   -0.281169
 0.080000   0.407185   -0.266763
 0.085000   0.405885   -0.253402
 0.090000   0.404651   -0.241168
 0.095000   0.403474   -0.230210
 0.100000   0.402348   -0.220314
 0.105000   0.401271   -0.211146
 0.110000   0.400237   -0.202799
 0.115000   0.399243   -0.195494
 0.120000   0.398282   -0.189073
 0.125000   0.397352   -0.183408
 0.130000   0.396448   -0.178444
 0.135000   0.395567   -0.174107
 0.140000   0.394707   -0.170502
 0.145000   0.393862   -0.167507
 0.150000   0.393032   -0.164893
 0.155000   0.392213   -0.162718
 0.160000   0.391405   -0.161016
 0.165000   0.390603   -0.159754
 0.170000   0.389807   -0.158889
 0.175000   0.389014   -0.158388
 0.180000   0.388223   -0.158219
 0.185000   0.387432   -0.158382
 0.190000   0.386639   -0.158932
 0.195000   0.385843   -0.160039
 0.200000   0.385039   -0.161580
 0.205000   0.384227   -0.163077
 0.210000   0.383408   -0.164443
 0.215000   0.382583   -0.165736
 0.220000   0.381751   -0.166778
 0.225000   0.380915   -0.167348
 0.230000   0.380077   -0.167847
 0.235000   0.379236   -0.168316
 0.240000   0.378394   -0.168317
 0.245000   0.377553   -0.168082
 0.250000   0.376713   -0.167812
 0.255000   0.375875   -0.167472
 0.260000   0.375039   -0.167827
 0.265000   0.374197   -0.168679
 0.270000   0.373352   -0.169509
 0.275000   0.372502   -0.170815
 0.280000   0.371644   -0.172652
 0.285000   0.370775   -0.175462
 0.290000   0.369889   -0.178953
 0.295000   0.368986   -0.182652
 0.300000   0.368063   -0.186786
 0.305000   0.367118   -0.191339
 0.310000   0.366149   -0.196356
 0.315000   0.365154   -0.201697
 0.320000   0.364132   -0.206853
 0.325000   0.363086   -0.211662
 0.330000   0.362016   -0.216340
 0.335000   0.360922   -0.220756
 0.340000   0.359808   -0.224711
 0.345000   0.358675   -0.228260
 0.350000   0.357525   -0.231368
 0.355000   0.356362   -0.234118
 0.360000   0.355184   -0.236623
 0.365000   0.353995   -0.238928
 0.370000   0.352795   -0.241168
 0.375000   0.351584   -0.243413
 0.380000   0.350361   -0.245559
 0.385000   0.349128   -0.247533
 0.390000   0.347886   -0.249417
 0.395000   0.346634   -0.251228
 0.400000   0.345373   -0.252892
 0.405000   0.344105   -0.254358
 0.410000   0.342830   -0.255669
 0.415000   0.341548   -0.256843
 0.420000   0.340261   -0.257882
 0.425000   0.338969   -0.258752
 0.430000   0.337674   -0.259435
 0.435000   0.336375   -0.259909
 0.440000   0.335075   -0.260136
 0.445000   0.333774   -0.260095
 0.450000   0.332474   -0.259803
 0.455000   0.331176   -0.259286
 0.460000   0.329881   -0.258571
 0.465000   0.328590   -0.257621
 0.470000   0.327305   -0.256413
 0.475000   0.326026   -0.255007
 0.480000   0.324755   -0.253419
 0.485000   0.323492   -0.251569
 0.490000   0.322239   -0.249404
 0.495000   0.320998   -0.246931
 0.500000   0.319770   -0.244180
 0.505000   0.318556   -0.241153
 0.510000   0.317358   -0.237815
 0.515000   0.316178   -0.234180
 0.520000   0.315016   -0.230292
 0.525000   0.313875   -0.226204
 0.530000   0.312754   -0.221958
 0.535000   0.311655   -0.217504
 0.540000   0.310579   -0.212825
 0.545000   0.309527   -0.207994
 0.550000   0.308499   -0.202988
 0.555000   0.307497   -0.197786
 0.560000   0.306521   -0.192395
 0.565000   0.305573   -0.186703
 0.570000   0.304654   -0.180654
 0.575000   0.303767   -0.174307
 0.580000   0.302911   -0.167709
 0.585000   0.302089   -0.160929
 0.590000   0.301302   -0.154039
 0.595000   0.300549   -0.147076
 0.600000   0.299831   -0.140054
 0.605000   0.299149   -0.132999
 0.610000   0.298501   -0.125907
 0.615000   0.297889   -0.118757
 0.620000   0.297314   -0.111478
 0.625000   0.296775   -0.104025
 0.630000   0.296273   -0.096428
 0.635000   0.295810   -0.088709
 0.640000   0.295386   -0.080878
 0.645000   0.295002   -0.072971
 0.650000   0.294657   -0.064940
 0.655000   0.294352   -0.056911
 0.660000   0.294087   -0.049084
 0.665000   0.293861   -0.041357
 0.670000   0.293674   -0.033484
 0.675000   0.293527   -0.025023
 0.680000   0.293424   -0.014694
 0.685000   0.293380   -0.001937
 0.690000   0.293404   0.012449
 0.695000   0.293504   0.028092
 0.700000   0.293685   0.044772
 0.705000   0.293952   0.062046
 0.710000   0.294306   0.080257
 0.715000   0.294754   0.098217
 0.720000   0.295288   0.113731
 0.725000   0.295892   0.126541
 0.730000   0.296553   0.136533
 0.735000   0.297257   0.143195
 0.740000   0.297985   0.146093
 0.745000   0.298718   0.144462
 0.750000   0.299430   0.138285
 0.755000   0.300101   0.128419
 0.760000   0.300714   0.115439
 0.765000   0.301255   0.099942
 0.770000   0.301713   0.082105
 0.775000   0.302076   0.062676
 0.780000   0.302340   0.043966
 0.785000   0.302516   0.026928
 0.790000   0.302609   0.011263
 0.795000   0.302629   -0.002777
 0.800000   0.302582   -0.015141
 0.805000   0.302477   -0.025542
 0.810000   0.302326   -0.033721
 0.815000   0.302140   -0.040444
 0.820000   0.301922   -0.046624
 0.825000   0.301674   -0.052587
 0.830000   0.301396   -0.058451
 0.835000   0.301089   -0.064139
 0.840000   0.300755   -0.069485
 0.845000   0.300394   -0.074329
 0.850000   0.300011   -0.078522
 0.855000   0.299609   -0.081885
 0.860000   0.299192   -0.084163
 0.865000   0.298767   -0.084938
 0.870000   0.298343   -0.083474
 0.875000   0.297933   -0.078827
 0.880000   0.297555   -0.070020
 0.885000   0.297233   -0.055897
 0.890000   0.296996   -0.034945
 0.895000   0.296883   -0.004561
 0.900000   0.296950   0.037193
 0.905000   0.297255   0.091889
 0.910000   0.297869   0.161338
 0.915000   0.298868   0.244421
 0.920000   0.300313   0.333400
 0.925000   0.302202   0.411157
 0.930000   0.304425   0.429305
 0.935000   0.306495   0.296109
 0.940000   0.307386   -0.114859
 0.945000   0.305347   -0.923649
 0.950000   0.298149   -2.123927
 0.955000   0.284108   -3.455196
 0.960000   0.263598   -4.494089
 0.965000   0.239167   -4.918006
 0.970000   0.214417   -4.716485
 0.975000   0.192002   -4.149793
 0.980000   0.172920   -3.495958
 0.985000   0.157042   -2.911268
 0.990000   0.143807   -2.436504
 0.995000   0.132677   -2.054082
 1.000000   0.123266   -1.710407
201 psinorm ti(KeV) dti/dpsiN
 0.000000   4.790931   0.002598
 0.005000   4.790505   -0.172777
 0.010000   4.789203   -0.352006
 0.015000   4.786985   -0.538653
 0.020000   4.783816   -0.732031
 0.025000   4.779665   -0.931228
 0.030000   4.774504   -1.135104
 0.035000   4.768314   -1.342335
 0.040000   4.761081   -1.550758
 0.045000   4.752806   -1.759081
 0.050000   4.743490   -1.966613
 0.055000   4.733140   -2.171848
 0.060000   4.721772   -2.373701
 0.065000   4.709403   -2.571453
 0.070000   4.696057   -2.763560
 0.075000   4.681768   -2.950877
 0.080000   4.666548   -3.134890
 0.085000   4.650419   -3.314752
 0.090000   4.633401   -3.490385
 0.095000   4.615515   -3.662072
 0.100000   4.596780   -3.829552
 0.105000   4.577219   -3.993337
 0.110000   4.556847   -4.154050
 0.115000   4.535679   -4.311307
 0.120000   4.513734   -4.464998
 0.125000   4.491029   -4.614933
 0.130000   4.467584   -4.760408
 0.135000   4.443425   -4.900337
 0.140000   4.418581   -5.034067
 0.145000   4.393084   -5.161393
 0.150000   4.366967   -5.282020
 0.155000   4.340264   -5.395611
 0.160000   4.313011   -5.501503
 0.165000   4.285249   -5.599148
 0.170000   4.257019   -5.688958
 0.175000   4.228359   -5.771151
 0.180000   4.199308   -5.845505
 0.185000   4.169904   -5.912168
 0.190000   4.140186   -5.971311
 0.195000   4.110191   -6.025088
 0.200000   4.079935   -6.077368
 0.205000   4.049417   -6.129771
 0.210000   4.018638   -6.182437
 0.215000   3.987593   -6.235817
 0.220000   3.956279   -6.291334
 0.225000   3.924680   -6.351746
 0.230000   3.892762   -6.412626
 0.235000   3.860553   -6.469942
 0.240000   3.828063   -6.524782
 0.245000   3.795306   -6.575421
 0.250000   3.762308   -6.620742
 0.255000   3.729098   -6.661120
 0.260000   3.695697   -6.689875
 0.265000   3.662199   -6.703565
 0.270000   3.628662   -6.705549
 0.275000   3.595144   -6.695022
 0.280000   3.561711   -6.671315
 0.285000   3.528431   -6.632330
 0.290000   3.495388   -6.576534
 0.295000   3.462665   -6.505104
 0.300000   3.430337   -6.419997
 0.305000   3.398466   -6.323750
 0.310000   3.367099   -6.219777
 0.315000   3.336268   -6.108571
 0.320000   3.306014   -5.997183
 0.325000   3.276296   -5.890585
 0.330000   3.247108   -5.785568
 0.335000   3.218440   -5.682746
 0.340000   3.190280   -5.582694
 0.345000   3.162613   -5.486878
 0.350000   3.135412   -5.396280
 0.355000   3.108651   -5.309655
 0.360000   3.082315   -5.225841
 0.365000   3.056392   -5.144182
 0.370000   3.030873   -5.063338
 0.375000   3.005759   -4.981910
 0.380000   2.981054   -4.892510
 0.385000   2.956834   -4.790082
 0.390000   2.933153   -4.677467
 0.395000   2.910059   -4.556240
 0.400000   2.887591   -4.427469
 0.405000   2.865784   -4.289165
 0.410000   2.844699   -4.143665
 0.415000   2.824348   -3.998974
 0.420000   2.804710   -3.858037
 0.425000   2.785767   -3.721409
 0.430000   2.767495   -3.590291
 0.435000   2.749864   -3.463572
 0.440000   2.732860   -3.342952
 0.445000   2.716435   -3.232312
 0.450000   2.700537   -3.130782
 0.455000   2.685127   -3.036960
 0.460000   2.670167   -2.950944
 0.465000   2.655618   -2.873044
 0.470000   2.641437   -2.804304
 0.475000   2.627575   -2.743864
 0.480000   2.613998   -2.689063
 0.485000   2.600684   -2.637878
 0.490000   2.587619   -2.588504
 0.495000   2.574799   -2.539629
 0.500000   2.562223   -2.490223
 0.505000   2.549897   -2.440597
 0.510000   2.537817   -2.392477
 0.515000   2.525972   -2.346906
 0.520000   2.514348   -2.304164
 0.525000   2.502930   -2.264261
 0.530000   2.491705   -2.226953
 0.535000   2.480661   -2.192815
 0.540000   2.469777   -2.162280
 0.545000   2.459038   -2.135066
 0.550000   2.448426   -2.111201
 0.555000   2.437926   -2.090624
 0.560000   2.427520   -2.073058
 0.565000   2.417195   -2.059118
 0.570000   2.406929   -2.049122
 0.575000   2.396704   -2.042555
 0.580000   2.386503   -2.039361
 0.585000   2.376310   -2.039466
 0.590000   2.366109   -2.042944
 0.595000   2.355881   -2.050121
 0.600000   2.345608   -2.061167
 0.605000   2.335269   -2.076028
 0.610000   2.324847   -2.094644
 0.615000   2.314323   -2.116874
 0.620000   2.303679   -2.143792
 0.625000   2.292885   -2.174197
 0.630000   2.281937   -2.206306
 0.635000   2.270822   -2.240569
 0.640000   2.259531   -2.276646
 0.645000   2.248055   -2.314111
 0.650000   2.236390   -2.354019
 0.655000   2.224515   -2.395991
 0.660000   2.212430   -2.439457
 0.665000   2.200121   -2.485634
 0.670000   2.187574   -2.534463
 0.675000   2.174776   -2.585427
 0.680000   2.161719   -2.639674
 0.685000   2.148379   -2.693580
 0.690000   2.134783   -2.741878
 0.695000   2.120961   -2.784726
 0.700000   2.106936   -2.822114
 0.705000   2.092739   -2.853417
 0.710000   2.078402   -2.877448
 0.715000   2.063965   -2.892784
 0.720000   2.049474   -2.899980
 0.725000   2.034965   -2.900104
 0.730000   2.020473   -2.893297
 0.735000   2.006032   -2.879924
 0.740000   1.991674   -2.858411
 0.745000   1.977448   -2.829663
 0.750000   1.963377   -2.799862
 0.755000   1.949449   -2.772574
 0.760000   1.935652   -2.749234
 0.765000   1.921957   -2.732135
 0.770000   1.908330   -2.723047
 0.775000   1.894727   -2.722478
 0.780000   1.881105   -2.726913
 0.785000   1.867457   -2.733031
 0.790000   1.853775   -2.740559
 0.795000   1.840052   -2.749238
 0.800000   1.826283   -2.759738
 0.805000   1.812455   -2.772907
 0.810000   1.798554   -2.787159
 0.815000   1.784583   -2.804358
 0.820000   1.770510   -2.829143
 0.825000   1.756292   -2.863228
 0.830000   1.741878   -2.908853
 0.835000   1.727203   -2.968991
 0.840000   1.712188   -3.032812
 0.845000   1.696875   -3.094059
 0.850000   1.681247   -3.160853
 0.855000   1.665266   -3.238365
 0.860000   1.648864   -3.335032
 0.865000   1.631916   -3.470358
 0.870000   1.614160   -3.638163
 0.875000   1.595534   -3.830375
 0.880000   1.575856   -4.061709
 0.885000   1.554917   -4.337867
 0.890000   1.532478   -4.666491
 0.895000   1.508252   -5.096307
 0.900000   1.481515   -5.620530
 0.905000   1.452047   -6.219244
 0.910000   1.419322   -6.928577
 0.915000   1.382761   -7.757549
 0.920000   1.341747   -8.711211
 0.925000   1.295649   -9.849084
 0.930000   1.243256   -11.087092
 0.935000   1.184778   -12.295519
 0.940000   1.120301   -13.449384
 0.945000   1.050284   -14.460905
 0.950000   0.975692   -15.229780
 0.955000   0.897987   -15.681665
 0.960000   0.818875   -15.704826
 0.965000   0.740938   -15.250010
 0.970000   0.666375   -14.392707
 0.975000   0.597011   -13.218298
 0.980000   0.534192   -11.831336
 0.985000   0.478698   -10.321651
 0.990000   0.430975   -8.796957
 0.995000   0.390728   -7.365173
 1.000000   0.357324   -5.996752
201 psinorm nb(10^20/m^3) dnb/dpsiN
 0.000000   0.061805   0.134921
 0.005000   0.062384   0.096491
 0.010000   0.062770   0.058552
 0.015000   0.062969   0.022866
 0.020000   0.062999   -0.009635
 0.025000   0.062873   -0.038690
 0.030000   0.062612   -0.064053
 0.035000   0.062232   -0.086309
 0.040000   0.061749   -0.106456
 0.045000   0.061168   -0.124312
 0.050000   0.060506   -0.139458
 0.055000   0.059773   -0.152823
 0.060000   0.058977   -0.164106
 0.065000   0.058132   -0.173178
 0.070000   0.057246   -0.180962
 0.075000   0.056322   -0.187028
 0.080000   0.055375   -0.191369
 0.085000   0.054409   -0.194847
 0.090000   0.053427   -0.197367
 0.095000   0.052435   -0.198765
 0.100000   0.051439   -0.199218
 0.105000   0.050443   -0.199049
 0.110000   0.049449   -0.198212
 0.115000   0.048461   -0.196525
 0.120000   0.047483   -0.194163
 0.125000   0.046519   -0.191273
 0.130000   0.045571   -0.187918
 0.135000   0.044640   -0.184199
 0.140000   0.043729   -0.180035
 0.145000   0.042840   -0.175557
 0.150000   0.041973   -0.171002
 0.155000   0.041130   -0.166325
 0.160000   0.040310   -0.161514
 0.165000   0.039514   -0.156622
 0.170000   0.038744   -0.151690
 0.175000   0.037998   -0.146752
 0.180000   0.037276   -0.141860
 0.185000   0.036579   -0.137020
 0.190000   0.035906   -0.132206
 0.195000   0.035257   -0.127254
 0.200000   0.034633   -0.122200
 0.205000   0.034035   -0.117446
 0.210000   0.033459   -0.113016
 0.215000   0.032905   -0.108722
 0.220000   0.032372   -0.104566
 0.225000   0.031859   -0.100545
 0.230000   0.031366   -0.096376
 0.235000   0.030895   -0.092234
 0.240000   0.030444   -0.088579
 0.245000   0.030010   -0.085241
 0.250000   0.029591   -0.082056
 0.255000   0.029189   -0.079021
 0.260000   0.028801   -0.075742
 0.265000   0.028432   -0.072652
 0.270000   0.028075   -0.070143
 0.275000   0.027730   -0.067772
 0.280000   0.027397   -0.065535
 0.285000   0.027075   -0.063116
 0.290000   0.026766   -0.060843
 0.295000   0.026466   -0.059038
 0.300000   0.026175   -0.057361
 0.305000   0.025893   -0.055740
 0.310000   0.025618   -0.054037
 0.315000   0.025352   -0.052526
 0.320000   0.025093   -0.051337
 0.325000   0.024839   -0.050232
 0.330000   0.024590   -0.049123
 0.335000   0.024348   -0.048071
 0.340000   0.024110   -0.047215
 0.345000   0.023876   -0.046477
 0.350000   0.023645   -0.045767
 0.355000   0.023418   -0.045042
 0.360000   0.023195   -0.044431
 0.365000   0.022974   -0.043964
 0.370000   0.022755   -0.043535
 0.375000   0.022538   -0.043081
 0.380000   0.022324   -0.042680
 0.385000   0.022111   -0.042383
 0.390000   0.021900   -0.042094
 0.395000   0.021691   -0.041788
 0.400000   0.021482   -0.041525
 0.405000   0.021275   -0.041345
 0.410000   0.021069   -0.041193
 0.415000   0.020863   -0.041040
 0.420000   0.020659   -0.040883
 0.425000   0.020455   -0.040745
 0.430000   0.020251   -0.040623
 0.435000   0.020048   -0.040490
 0.440000   0.019846   -0.040334
 0.445000   0.019645   -0.040184
 0.450000   0.019444   -0.040056
 0.455000   0.019244   -0.039931
 0.460000   0.019045   -0.039785
 0.465000   0.018847   -0.039628
 0.470000   0.018649   -0.039482
 0.475000   0.018452   -0.039336
 0.480000   0.018255   -0.039160
 0.485000   0.018060   -0.038984
 0.490000   0.017866   -0.038841
 0.495000   0.017672   -0.038704
 0.500000   0.017479   -0.038552
 0.505000   0.017286   -0.038395
 0.510000   0.017095   -0.038260
 0.515000   0.016904   -0.038136
 0.520000   0.016713   -0.038001
 0.525000   0.016524   -0.037849
 0.530000   0.016335   -0.037708
 0.535000   0.016147   -0.037586
 0.540000   0.015959   -0.037463
 0.545000   0.015772   -0.037322
 0.550000   0.015586   -0.037183
 0.555000   0.015400   -0.037069
 0.560000   0.015215   -0.036960
 0.565000   0.015030   -0.036844
 0.570000   0.014847   -0.036724
 0.575000   0.014663   -0.036622
 0.580000   0.014480   -0.036534
 0.585000   0.014298   -0.036451
 0.590000   0.014116   -0.036365
 0.595000   0.013934   -0.036288
 0.600000   0.013753   -0.036228
 0.605000   0.013572   -0.036174
 0.610000   0.013391   -0.036135
 0.615000   0.013211   -0.036112
 0.620000   0.013030   -0.036106
 0.625000   0.012850   -0.036112
 0.630000   0.012669   -0.036129
 0.635000   0.012488   -0.036157
 0.640000   0.012307   -0.036203
 0.645000   0.012126   -0.036261
 0.650000   0.011945   -0.036323
 0.655000   0.011763   -0.036392
 0.660000   0.011581   -0.036469
 0.665000   0.011398   -0.036566
 0.670000   0.011215   -0.036669
 0.675000   0.011032   -0.036766
 0.680000   0.010848   -0.036867
 0.685000   0.010663   -0.036975
 0.690000   0.010478   -0.037094
 0.695000   0.010292   -0.037226
 0.700000   0.010106   -0.037355
 0.705000   0.009918   -0.037479
 0.710000   0.009731   -0.037603
 0.715000   0.009542   -0.037726
 0.720000   0.009353   -0.037855
 0.725000   0.009164   -0.037984
 0.730000   0.008974   -0.038099
 0.735000   0.008783   -0.038200
 0.740000   0.008592   -0.038292
 0.745000   0.008400   -0.038374
 0.750000   0.008208   -0.038446
 0.755000   0.008015   -0.038510
 0.760000   0.007823   -0.038555
 0.765000   0.007630   -0.038578
 0.770000   0.007437   -0.038584
 0.775000   0.007244   -0.038571
 0.780000   0.007051   -0.038541
 0.785000   0.006859   -0.038492
 0.790000   0.006666   -0.038425
 0.795000   0.006474   -0.038336
 0.800000   0.006283   -0.038231
 0.805000   0.006092   -0.038111
 0.810000   0.005902   -0.037973
 0.815000   0.005712   -0.037813
 0.820000   0.005524   -0.037632
 0.825000   0.005336   -0.037427
 0.830000   0.005150   -0.037199
 0.835000   0.004964   -0.036948
 0.840000   0.004780   -0.036661
 0.845000   0.004597   -0.036347
 0.850000   0.004417   -0.036021
 0.855000   0.004237   -0.035671
 0.860000   0.004060   -0.035294
 0.865000   0.003884   -0.034888
 0.870000   0.003711   -0.034454
 0.875000   0.003540   -0.034006
 0.880000   0.003371   -0.033562
 0.885000   0.003204   -0.033140
 0.890000   0.003040   -0.032747
 0.895000   0.002877   -0.032390
 0.900000   0.002716   -0.032078
 0.905000   0.002556   -0.031826
 0.910000   0.002397   -0.031641
 0.915000   0.002240   -0.031524
 0.920000   0.002082   -0.031467
 0.925000   0.001925   -0.031441
 0.930000   0.001768   -0.031373
 0.935000   0.001611   -0.031127
 0.940000   0.001456   -0.030547
 0.945000   0.001306   -0.029546
 0.950000   0.001161   -0.028260
 0.955000   0.001023   -0.027077
 0.960000   0.000890   -0.026302
 0.965000   0.000760   -0.025759
 0.970000   0.000633   -0.024811
 0.975000   0.000512   -0.022674
 0.980000   0.000406   -0.019314
 0.985000   0.000319   -0.015867
 0.990000   0.000247   -0.013370
 0.995000   0.000185   -0.015896
 1.000000   0.000088   -0.022854
201 psinorm pb(KPa) dpb/dpsiN
 0.000000   24.953221   42.429004
 0.005000   25.135836   30.616714
 0.010000   25.259389   17.265294
 0.015000   25.308489   3.194589
 0.020000   25.291334   -9.611241
 0.025000   25.212376   -21.161126
 0.030000   25.079723   -31.242259
 0.035000   24.899954   -40.050529
 0.040000   24.679218   -47.945573
 0.045000   24.420498   -54.889538
 0.050000   24.130323   -60.728396
 0.055000   23.813214   -65.842677
 0.060000   23.471896   -70.127514
 0.065000   23.111939   -73.531033
 0.070000   22.736585   -76.416209
 0.075000   22.347777   -78.604596
 0.080000   21.950539   -80.110322
 0.085000   21.546674   -81.294599
 0.090000   21.137593   -82.111631
 0.095000   20.725557   -82.489858
 0.100000   20.312695   -82.514905
 0.105000   19.900408   -82.355127
 0.110000   19.489144   -81.951964
 0.115000   19.080889   -81.159578
 0.120000   18.677548   -80.076089
 0.125000   18.280128   -78.794060
 0.130000   17.889607   -77.338176
 0.135000   17.506746   -75.745584
 0.140000   17.132151   -73.942817
 0.145000   16.767318   -72.018248
 0.150000   16.411969   -70.116442
 0.155000   16.066153   -68.183998
 0.160000   15.730129   -66.206466
 0.165000   15.404089   -64.203069
 0.170000   15.088098   -62.189158
 0.175000   14.782197   -60.181819
 0.180000   14.486280   -58.204667
 0.185000   14.200150   -56.256284
 0.190000   13.923717   -54.314077
 0.195000   13.657010   -52.315408
 0.200000   13.400563   -50.282538
 0.205000   13.154184   -48.369196
 0.210000   12.916871   -46.583807
 0.215000   12.688346   -44.854637
 0.220000   12.468325   -43.178794
 0.225000   12.256558   -41.549149
 0.230000   12.052833   -39.862811
 0.235000   11.857930   -38.201442
 0.240000   11.670819   -36.736542
 0.245000   11.490565   -35.395384
 0.250000   11.316865   -34.114971
 0.255000   11.149415   -32.894881
 0.260000   10.987916   -31.585099
 0.265000   10.833564   -30.349916
 0.270000   10.684417   -29.338334
 0.275000   10.540181   -28.384428
 0.280000   10.400573   -27.485456
 0.285000   10.265326   -26.515271
 0.290000   10.135420   -25.596013
 0.295000   10.009366   -24.854529
 0.300000   9.886875   -24.162656
 0.305000   9.767739   -23.493310
 0.310000   9.651942   -22.792788
 0.315000   9.539811   -22.166580
 0.320000   9.430276   -21.663942
 0.325000   9.323172   -21.195405
 0.330000   9.218322   -20.735366
 0.335000   9.115818   -20.299697
 0.340000   9.015325   -19.930269
 0.345000   8.916516   -19.603685
 0.350000   8.819288   -19.287285
 0.355000   8.723643   -18.965753
 0.360000   8.629630   -18.687822
 0.365000   8.536765   -18.466261
 0.370000   8.444968   -18.259623
 0.375000   8.354168   -18.043227
 0.380000   8.264536   -17.848420
 0.385000   8.175684   -17.690474
 0.390000   8.087631   -17.530023
 0.395000   8.000384   -17.358341
 0.400000   7.914047   -17.210798
 0.405000   7.828276   -17.105940
 0.410000   7.742988   -17.011981
 0.415000   7.658156   -16.918180
 0.420000   7.573806   -16.822497
 0.425000   7.489931   -16.733055
 0.430000   7.406476   -16.648913
 0.435000   7.323442   -16.560069
 0.440000   7.240875   -16.461042
 0.445000   7.158832   -16.364520
 0.450000   7.077230   -16.278515
 0.455000   6.996047   -16.196920
 0.460000   6.915261   -16.110156
 0.465000   6.834945   -16.017580
 0.470000   6.755085   -15.926942
 0.475000   6.675676   -15.837746
 0.480000   6.596707   -15.740344
 0.485000   6.518272   -15.645845
 0.490000   6.440249   -15.565956
 0.495000   6.362613   -15.490198
 0.500000   6.285347   -15.413617
 0.505000   6.208476   -15.339341
 0.510000   6.131954   -15.273381
 0.515000   6.055743   -15.211555
 0.520000   5.979838   -15.148379
 0.525000   5.904259   -15.083063
 0.530000   5.829007   -15.020242
 0.535000   5.754056   -14.961380
 0.540000   5.679394   -14.905491
 0.545000   5.605001   -14.847721
 0.550000   5.530916   -14.788428
 0.555000   5.457117   -14.732536
 0.560000   5.383591   -14.678753
 0.565000   5.310330   -14.624578
 0.570000   5.237345   -14.569916
 0.575000   5.164630   -14.518131
 0.580000   5.092164   -14.469820
 0.585000   5.019932   -14.424242
 0.590000   4.947921   -14.376880
 0.595000   4.876163   -14.330280
 0.600000   4.804619   -14.286364
 0.605000   4.733300   -14.242969
 0.610000   4.662189   -14.207246
 0.615000   4.591227   -14.178945
 0.620000   4.520400   -14.153094
 0.625000   4.449696   -14.129523
 0.630000   4.379104   -14.108479
 0.635000   4.308612   -14.090461
 0.640000   4.238200   -14.079984
 0.645000   4.167812   -14.071447
 0.650000   4.097485   -14.060073
 0.655000   4.027211   -14.050193
 0.660000   3.956983   -14.041117
 0.665000   3.886800   -14.038747
 0.670000   3.816596   -14.036413
 0.675000   3.746436   -14.027862
 0.680000   3.676317   -14.019769
 0.685000   3.606238   -14.011964
 0.690000   3.536198   -14.006937
 0.695000   3.466169   -14.005052
 0.700000   3.396147   -14.000505
 0.705000   3.326164   -13.992572
 0.710000   3.256221   -13.983824
 0.715000   3.186325   -13.973774
 0.720000   3.116484   -13.964713
 0.725000   3.046678   -13.955061
 0.730000   2.976933   -13.939435
 0.735000   2.907284   -13.918489
 0.740000   2.837748   -13.894030
 0.745000   2.768344   -13.865752
 0.750000   2.699091   -13.833236
 0.755000   2.630011   -13.796919
 0.760000   2.561121   -13.753462
 0.765000   2.492477   -13.700905
 0.770000   2.424112   -13.641442
 0.775000   2.356062   -13.575042
 0.780000   2.288362   -13.501587
 0.785000   2.221046   -13.421567
 0.790000   2.154146   -13.334871
 0.795000   2.087698   -13.240649
 0.800000   2.021740   -13.141602
 0.805000   1.956282   -13.038743
 0.810000   1.891352   -12.929999
 0.815000   1.826982   -12.814996
 0.820000   1.763202   -12.693247
 0.825000   1.700049   -12.564744
 0.830000   1.637555   -12.430180
 0.835000   1.575747   -12.289448
 0.840000   1.514660   -12.137933
 0.845000   1.454368   -11.980536
 0.850000   1.394855   -11.822433
 0.855000   1.336144   -11.659128
 0.860000   1.278264   -11.489357
 0.865000   1.221250   -11.312081
 0.870000   1.165143   -11.127259
 0.875000   1.109978   -10.937850
 0.880000   1.055764   -10.748810
 0.885000   1.002489   -10.564033
 0.890000   0.950124   -10.386390
 0.895000   0.898626   -10.219250
 0.900000   0.847932   -10.067396
 0.905000   0.797952   -9.937477
 0.910000   0.748557   -9.835909
 0.915000   0.699592   -9.767157
 0.920000   0.650885   -9.732946
 0.925000   0.602263   -9.727027
 0.930000   0.553615   -9.725918
 0.935000   0.505004   -9.684184
 0.940000   0.456773   -9.542565
 0.945000   0.409578   -9.256214
 0.950000   0.364211   -8.845489
 0.955000   0.321123   -8.422308
 0.960000   0.279988   -8.114134
 0.965000   0.239982   -7.939332
 0.970000   0.200595   -7.753145
 0.975000   0.162451   -7.293988
 0.980000   0.127655   -6.447917
 0.985000   0.097971   -5.397686
 0.990000   0.073678   -4.386444
 0.995000   0.054107   -4.570604
 1.000000   0.027972   -5.883422
201 psinorm ptot(KPa) dptot/dpsiN
 0.000000   104.838630   -72.024541
 0.005000   104.455173   -81.358380
 0.010000   104.025047   -92.280467
 0.015000   103.532368   -104.117075
 0.020000   102.983876   -114.954212
 0.025000   102.382826   -124.817939
 0.030000   101.735696   -133.509983
 0.035000   101.047726   -141.175548
 0.040000   100.323941   -148.087478
 0.045000   99.566852   -154.215384
 0.050000   98.781787   -159.434365
 0.055000   97.972508   -164.046648
 0.060000   97.141321   -167.964882
 0.065000   96.292859   -171.143911
 0.070000   95.429882   -173.868871
 0.075000   94.554170   -175.999179
 0.080000   93.669890   -177.558034
 0.085000   92.778590   -178.836527
 0.090000   91.881524   -179.794931
 0.095000   90.980641   -180.374953
 0.100000   90.077775   -180.644899
 0.105000   89.174192   -180.752312
 0.110000   88.270252   -180.649111
 0.115000   87.367701   -180.202175
 0.120000   86.468230   -179.496687
 0.125000   85.572734   -178.613897
 0.130000   84.682091   -177.569296
 0.135000   83.797041   -176.386447
 0.140000   82.918227   -174.994341
 0.145000   82.047097   -173.470748
 0.150000   81.183519   -171.941793
 0.155000   80.327680   -170.355634
 0.160000   79.479963   -168.695295
 0.165000   78.640727   -166.973634
 0.170000   77.810226   -165.205743
 0.175000   76.988669   -163.407887
 0.180000   76.176148   -161.599705
 0.185000   75.372672   -159.780820
 0.190000   74.578339   -157.932938
 0.195000   73.793343   -156.018926
 0.200000   73.018150   -154.079329
 0.205000   72.252549   -152.248048
 0.210000   71.495670   -150.529598
 0.215000   70.747253   -148.860593
 0.220000   70.007064   -147.238380
 0.225000   69.274870   -145.662977
 0.230000   68.550434   -144.026257
 0.235000   67.834607   -142.383858
 0.240000   67.126595   -140.887681
 0.245000   66.425730   -139.468225
 0.250000   65.731913   -138.067658
 0.255000   65.045054   -136.686895
 0.260000   64.365044   -135.174158
 0.265000   63.693312   -133.657318
 0.270000   63.028471   -132.278169
 0.275000   62.370530   -130.894785
 0.280000   61.719523   -129.502744
 0.285000   61.075503   -127.986095
 0.290000   60.439662   -126.439948
 0.295000   59.811104   -124.973884
 0.300000   59.189923   -123.486660
 0.305000   58.576237   -121.967701
 0.310000   57.970246   -120.388450
 0.315000   57.372352   -118.848908
 0.320000   56.781757   -117.419638
 0.325000   56.198156   -116.038076
 0.330000   55.621376   -114.668992
 0.335000   55.051466   -113.326357
 0.340000   54.488113   -112.046384
 0.345000   53.931002   -110.818428
 0.350000   53.379929   -109.615678
 0.355000   52.834846   -108.419291
 0.360000   52.295736   -107.274688
 0.365000   51.762099   -106.192465
 0.370000   51.233811   -105.129519
 0.375000   50.710803   -104.055997
 0.380000   50.193251   -102.953963
 0.385000   49.681264   -101.805485
 0.390000   49.175196   -100.593820
 0.395000   48.675326   -99.321532
 0.400000   48.181981   -98.028066
 0.405000   47.695045   -96.718740
 0.410000   47.214794   -95.378780
 0.415000   46.741257   -94.046653
 0.420000   46.274327   -92.737944
 0.425000   45.813878   -91.462502
 0.430000   45.359702   -90.225632
 0.435000   44.911621   -89.010052
 0.440000   44.469601   -87.818572
 0.445000   44.033436   -86.685231
 0.450000   43.602749   -85.612889
 0.455000   43.177307   -84.587821
 0.460000   42.756871   -83.601717
 0.465000   42.341290   -82.653779
 0.470000   41.930333   -81.756163
 0.475000   41.523728   -80.905188
 0.480000   41.121281   -80.076289
 0.485000   40.722965   -79.265916
 0.490000   40.328622   -78.473410
 0.495000   39.938231   -77.681473
 0.500000   39.551807   -76.880664
 0.505000   39.169424   -76.076083
 0.510000   38.791047   -75.282047
 0.515000   38.416604   -74.500718
 0.520000   38.046039   -73.729659
 0.525000   37.679307   -72.969836
 0.530000   37.316341   -72.225679
 0.535000   36.957051   -71.499891
 0.540000   36.601342   -70.793278
 0.545000   36.249118   -70.101751
 0.550000   35.900325   -69.424808
 0.555000   35.554870   -68.766001
 0.560000   35.212665   -68.122838
 0.565000   34.873641   -67.492397
 0.570000   34.537741   -66.874453
 0.575000   34.204897   -66.271263
 0.580000   33.875028   -65.684596
 0.585000   33.548051   -65.115559
 0.590000   33.223872   -64.562284
 0.595000   32.902428   -64.029950
 0.600000   32.583573   -63.521716
 0.605000   32.267211   -63.035860
 0.610000   31.953214   -62.578953
 0.615000   31.641421   -62.149270
 0.620000   31.331722   -61.745182
 0.625000   31.023969   -61.358941
 0.630000   30.718132   -60.982560
 0.635000   30.414144   -60.619675
 0.640000   30.111935   -60.273413
 0.645000   29.811410   -59.937225
 0.650000   29.512563   -59.610536
 0.655000   29.215304   -59.299599
 0.660000   28.919567   -59.006761
 0.665000   28.625237   -58.741135
 0.670000   28.332156   -58.488682
 0.675000   28.040350   -58.228050
 0.680000   27.749875   -57.935435
 0.685000   27.460996   -57.577606
 0.690000   27.174099   -57.154812
 0.695000   26.889447   -56.680314
 0.700000   26.607296   -56.155743
 0.705000   26.327890   -55.590535
 0.710000   26.051391   -54.972448
 0.715000   25.778166   -54.326945
 0.720000   25.508121   -53.718932
 0.725000   25.240976   -53.157367
 0.730000   24.976548   -52.638396
 0.735000   24.714592   -52.175908
 0.740000   24.454789   -51.772253
 0.745000   24.196870   -51.448694
 0.750000   23.940302   -51.233651
 0.755000   23.684533   -51.120266
 0.760000   23.429099   -51.095170
 0.765000   23.173582   -51.150952
 0.770000   22.917589   -51.292625
 0.775000   22.660655   -51.502436
 0.780000   22.402565   -51.703106
 0.785000   22.143624   -51.854498
 0.790000   21.884020   -51.963530
 0.795000   21.623989   -52.022610
 0.800000   21.363794   -52.037533
 0.805000   21.103614   -52.007752
 0.810000   20.843717   -51.917822
 0.815000   20.584435   -51.796402
 0.820000   20.325753   -51.689072
 0.825000   20.067545   -51.612091
 0.830000   19.809632   -51.579915
 0.835000   19.551746   -51.605276
 0.840000   19.293579   -51.623749
 0.845000   19.035508   -51.604377
 0.850000   18.777535   -51.590920
 0.855000   18.519599   -51.602143
 0.860000   18.261514   -51.675615
 0.865000   18.002843   -51.903096
 0.870000   17.742483   -52.241814
 0.875000   17.480425   -52.641986
 0.880000   17.216063   -53.177668
 0.885000   16.948648   -53.882324
 0.890000   16.677240   -54.807567
 0.895000   16.400572   -56.219110
 0.900000   16.115048   -58.162847
 0.905000   15.818944   -60.702718
 0.910000   15.508021   -64.301781
 0.915000   15.175926   -69.530608
 0.920000   14.812715   -77.341331
 0.925000   14.402513   -89.507269
 0.930000   13.917643   -107.964401
 0.935000   13.322869   -135.143225
 0.940000   12.566210   -173.494470
 0.945000   11.587924   -221.941642
 0.950000   10.346794   -272.340832
 0.955000   8.864516   -309.067605
 0.960000   7.256118   -316.606348
 0.965000   5.698452   -291.114035
 0.970000   4.344977   -243.215591
 0.975000   3.266296   -188.893712
 0.980000   2.456040   -139.815477
 0.985000   1.868141   -100.776187
 0.990000   1.448278   -71.952449
 0.995000   1.148617   -52.566265
 1.000000   0.922616   -37.834174
201 psinorm omeg(kRad/s) domeg/dpsiN
 0.000000   73.111669   0.011307
 0.005000   73.111179   -0.207113
 0.010000   73.109598   -0.443184
 0.015000   73.106748   -0.715512
 0.020000   73.102443   -1.025405
 0.025000   73.096494   -1.373111
 0.030000   73.088712   -1.757906
 0.035000   73.078914   -2.178057
 0.040000   73.066931   -2.628531
 0.045000   73.052629   -3.105660
 0.050000   73.035874   -3.606953
 0.055000   73.016560   -4.127265
 0.060000   72.994602   -4.662361
 0.065000   72.969936   -5.209318
 0.070000   72.942509   -5.761168
 0.075000   72.912324   -6.320976
 0.080000   72.879299   -6.894397
 0.085000   72.843380   -7.476697
 0.090000   72.804532   -8.066806
 0.095000   72.762712   -8.665880
 0.100000   72.717873   -9.270768
 0.105000   72.670005   -9.887606
 0.110000   72.618997   -10.529024
 0.115000   72.564714   -11.201041
 0.120000   72.506987   -11.911869
 0.125000   72.445596   -12.669727
 0.130000   72.380289   -13.483700
 0.135000   72.310759   -14.355937
 0.140000   72.236730   -15.279464
 0.145000   72.157964   -16.254718
 0.150000   72.074183   -17.285223
 0.155000   71.985112   -18.368670
 0.160000   71.890496   -19.506755
 0.165000   71.790044   -20.687401
 0.170000   71.683622   -21.883398
 0.175000   71.571210   -23.087990
 0.180000   71.452742   -24.301526
 0.185000   71.328195   -25.514488
 0.190000   71.197597   -26.711695
 0.195000   71.061078   -27.862257
 0.200000   70.918975   -28.950490
 0.205000   70.771573   -29.974677
 0.210000   70.619228   -30.923634
 0.215000   70.462337   -31.789827
 0.220000   70.301330   -32.551487
 0.225000   70.136822   -33.174676
 0.230000   69.969583   -33.723463
 0.235000   69.799587   -34.242157
 0.240000   69.627161   -34.694625
 0.245000   69.452641   -35.077702
 0.250000   69.276384   -35.371898
 0.255000   69.098922   -35.531620
 0.260000   68.921068   -35.661609
 0.265000   68.742306   -35.843510
 0.270000   68.562633   -36.037115
 0.275000   68.381935   -36.264970
 0.280000   68.199983   -36.548816
 0.285000   68.016447   -36.915797
 0.290000   67.830825   -37.398043
 0.295000   67.642466   -37.949375
 0.300000   67.451332   -38.489849
 0.305000   67.257568   -38.987997
 0.310000   67.061452   -39.424643
 0.315000   66.863321   -39.763691
 0.320000   66.663815   -40.018910
 0.325000   66.463132   -40.222532
 0.330000   66.261589   -40.364451
 0.335000   66.059488   -40.448582
 0.340000   65.857104   -40.480693
 0.345000   65.654681   -40.429554
 0.350000   65.452808   -40.341909
 0.355000   65.251262   -40.277557
 0.360000   65.050032   -40.214461
 0.365000   64.849117   -40.155106
 0.370000   64.648481   -40.103438
 0.375000   64.448083   -40.031290
 0.380000   64.248168   -39.933522
 0.385000   64.048748   -39.825710
 0.390000   63.849911   -39.696371
 0.395000   63.651784   -39.545569
 0.400000   63.454456   -39.380274
 0.405000   63.257981   -39.194639
 0.410000   63.062509   -39.076290
 0.415000   62.867218   -39.217074
 0.420000   62.670339   -39.763196
 0.425000   62.469586   -40.796500
 0.430000   62.262374   -42.355566
 0.435000   62.046031   -44.627612
 0.440000   61.816097   -47.605849
 0.445000   61.569972   -50.882985
 0.450000   61.307268   -54.325885
 0.455000   61.026713   -57.984653
 0.460000   60.727421   -61.778719
 0.465000   60.408926   -65.810905
 0.470000   60.069312   -69.960328
 0.475000   59.709323   -73.649035
 0.480000   59.332822   -76.753040
 0.485000   58.941792   -79.417547
 0.490000   58.538646   -81.561963
 0.495000   58.126173   -83.142068
 0.500000   57.707225   -84.045239
 0.505000   57.285720   -84.247508
 0.510000   56.864750   -83.992224
 0.515000   56.445798   -83.468841
 0.520000   56.030062   -82.723869
 0.525000   55.618559   -81.772019
 0.530000   55.212342   -80.596271
 0.535000   54.812597   -79.274905
 0.540000   54.419593   -77.887133
 0.545000   54.033725   -76.435736
 0.550000   53.655235   -74.951311
 0.555000   53.284212   -73.454541
 0.560000   52.920690   -71.945060
 0.565000   52.564762   -70.527136
 0.570000   52.215419   -69.264638
 0.575000   51.872115   -68.120551
 0.580000   51.534213   -67.111635
 0.585000   51.200999   -66.251974
 0.590000   50.871693   -65.549592
 0.595000   50.545503   -64.930887
 0.600000   50.222385   -64.306045
 0.605000   49.902443   -63.662708
 0.610000   49.585757   -63.009047
 0.615000   49.272352   -62.359063
 0.620000   48.962167   -61.663519
 0.625000   48.655717   -60.985965
 0.630000   48.352307   -60.419857
 0.635000   48.051518   -59.941944
 0.640000   47.752888   -59.563308
 0.645000   47.455885   -59.297801
 0.650000   47.159910   -59.124114
 0.655000   46.864644   -59.187653
 0.660000   46.568033   -59.645405
 0.665000   46.268190   -60.484929
 0.670000   45.963184   -61.722630
 0.675000   45.650964   -63.376378
 0.680000   45.329420   -65.538486
 0.685000   44.995579   -68.014400
 0.690000   44.649276   -70.462184
 0.695000   44.290957   -72.856501
 0.700000   43.920711   -75.235787
 0.705000   43.538599   -77.606477
 0.710000   43.144646   -79.971447
 0.715000   42.738885   -82.263473
 0.720000   42.322012   -84.422883
 0.725000   41.894656   -86.453706
 0.730000   41.457475   -88.338773
 0.735000   41.011268   -90.050791
 0.740000   40.556967   -91.518951
 0.745000   40.096079   -92.732120
 0.750000   39.629645   -93.896820
 0.755000   39.157110   -95.286968
 0.760000   38.676776   -97.130007
 0.765000   38.185810   -99.615234
 0.770000   37.680623   -102.998291
 0.775000   37.155827   -107.295529
 0.780000   36.607668   -111.788639
 0.785000   36.037941   -116.008035
 0.790000   35.447588   -119.950603
 0.795000   34.838435   -123.438863
 0.800000   34.213199   -126.420205
 0.805000   33.574233   -128.788902
 0.810000   32.925310   -130.091461
 0.815000   32.273318   -130.416916
 0.820000   31.621141   -130.208759
 0.825000   30.971231   -129.493535
 0.830000   30.326206   -128.304333
 0.835000   29.688187   -126.702318
 0.840000   29.059182   -123.819017
 0.845000   28.449997   -119.279292
 0.850000   27.866390   -113.802732
 0.855000   27.311970   -107.894044
 0.860000   26.787449   -102.282633
 0.865000   26.289144   -98.184929
 0.870000   25.805600   -96.026471
 0.875000   25.328879   -96.638132
 0.880000   24.839218   -102.189292
 0.885000   24.306986   -114.794947
 0.890000   23.691269   -136.720639
 0.895000   22.939780   -170.914857
 0.900000   21.982120   -217.931757
 0.905000   20.760462   -276.504387
 0.910000   19.217077   -344.645378
 0.915000   17.314008   -416.980973
 0.920000   15.047267   -485.442531
 0.925000   12.459583   -540.741328
 0.930000   9.639854   -570.211941
 0.935000   6.757464   -563.037006
 0.940000   4.009483   -515.826203
 0.945000   1.599202   -431.059997
 0.950000   -0.301116   -318.336825
 0.955000   -1.584167   -192.318315
 0.960000   -2.224300   -70.958283
 0.965000   -2.293750   30.486630
 0.970000   -1.919433   103.898112
 0.975000   -1.254768   146.833967
 0.980000   -0.451094   161.916345
 0.985000   0.364395   154.296375
 0.990000   1.091870   132.096867
 0.995000   1.685364   103.338286
 1.000000   2.125253   72.617419
201 psinorm omegp(kRad/s) domegp/dpsiN
 0.000000   -0.007776   153.719182
 0.005000   0.593878   86.942427
 0.010000   0.861648   49.191224
 0.015000   1.085790   42.829239
 0.020000   1.289940   39.411733
 0.025000   1.479907   36.647936
 0.030000   1.656420   34.066419
 0.035000   1.820571   32.052575
 0.040000   1.976945   30.533093
 0.045000   2.125902   29.378117
 0.050000   2.270727   28.832419
 0.055000   2.414226   28.962888
 0.060000   2.560355   29.715024
 0.065000   2.711377   30.724215
 0.070000   2.867598   31.775198
 0.075000   3.029129   32.649465
 0.080000   3.194092   33.253612
 0.085000   3.361665   33.479387
 0.090000   3.528886   33.261251
 0.095000   3.694277   32.607092
 0.100000   3.854957   31.680394
 0.105000   4.011081   30.718805
 0.110000   4.162145   29.692709
 0.115000   4.308008   28.676801
 0.120000   4.448913   27.752590
 0.125000   4.585534   27.065889
 0.130000   4.719572   26.499143
 0.135000   4.850526   25.892950
 0.140000   4.978501   25.234726
 0.145000   5.102873   24.289455
 0.150000   5.221396   23.115584
 0.155000   5.334029   21.736974
 0.160000   5.438766   20.308601
 0.165000   5.537115   18.770332
 0.170000   5.626469   17.074086
 0.175000   5.707856   15.225088
 0.180000   5.778720   13.217535
 0.185000   5.840031   11.315761
 0.190000   5.891878   9.349216
 0.195000   5.933523   7.587666
 0.200000   5.967754   5.927021
 0.205000   5.992793   4.322528
 0.210000   6.010979   3.021240
 0.215000   6.023006   1.702483
 0.220000   6.028004   0.421224
 0.225000   6.027218   -0.960784
 0.230000   6.018396   -2.610496
 0.235000   6.001113   -4.260334
 0.240000   5.975793   -6.083762
 0.245000   5.940275   -8.047741
 0.250000   5.895316   -9.975050
 0.255000   5.840525   -12.030030
 0.260000   5.775015   -13.996002
 0.265000   5.700565   -15.896630
 0.270000   5.616049   -18.006782
 0.275000   5.520497   -20.090997
 0.280000   5.415139   -22.308750
 0.285000   5.297410   -24.838037
 0.290000   5.166759   -27.414093
 0.295000   5.023269   -30.213779
 0.300000   4.864621   -33.260415
 0.305000   4.690664   -36.278101
 0.310000   4.501840   -39.398338
 0.315000   4.296681   -42.638101
 0.320000   4.075459   -45.712349
 0.325000   3.839558   -48.499189
 0.330000   3.590467   -50.799346
 0.335000   3.331564   -52.373006
 0.340000   3.066737   -53.293461
 0.345000   2.798630   -53.705141
 0.350000   2.529686   -53.624324
 0.355000   2.262386   -53.629704
 0.360000   1.993389   -54.243441
 0.365000   1.719952   -55.398825
 0.370000   1.439400   -57.170962
 0.375000   1.148242   -59.659272
 0.380000   0.842808   -63.155868
 0.385000   0.516684   -67.181672
 0.390000   0.170991   -70.837594
 0.395000   -0.191692   -74.001771
 0.400000   -0.569027   -76.748609
 0.405000   -0.959178   -79.339372
 0.410000   -1.362421   -82.840679
 0.415000   -1.787585   -87.645950
 0.420000   -2.238880   -93.244796
 0.425000   -2.720033   -99.515421
 0.430000   -3.234034   -106.204275
 0.435000   -3.782076   -113.017500
 0.440000   -4.364209   -119.806051
 0.445000   -4.980136   -125.126468
 0.450000   -5.615474   -127.930960
 0.455000   -6.259446   -128.402655
 0.460000   -6.899500   -126.316962
 0.465000   -7.522616   -121.431103
 0.470000   -8.113812   -112.985332
 0.475000   -8.652469   -101.601338
 0.480000   -9.129825   -89.015645
 0.485000   -9.542625   -75.950417
 0.490000   -9.889329   -63.040597
 0.495000   -10.173031   -50.735012
 0.500000   -10.396679   -39.719920
 0.505000   -10.570231   -31.034452
 0.510000   -10.707024   -24.578333
 0.515000   -10.816014   -19.920562
 0.520000   -10.906229   -16.692469
 0.525000   -10.982939   -14.474472
 0.530000   -11.050974   -13.070664
 0.535000   -11.113645   -11.997574
 0.540000   -11.170950   -10.876005
 0.545000   -11.222405   -9.693111
 0.550000   -11.267881   -8.527409
 0.555000   -11.307679   -7.252910
 0.560000   -11.340410   -5.688136
 0.565000   -11.364561   -3.933256
 0.570000   -11.379743   -2.068019
 0.575000   -11.385241   -0.056778
 0.580000   -11.380310   2.027413
 0.585000   -11.364967   3.930254
 0.590000   -11.341008   5.676927
 0.595000   -11.308198   7.305376
 0.600000   -11.267954   8.614508
 0.605000   -11.222052   9.590266
 0.610000   -11.172051   10.328171
 0.615000   -11.118771   10.847163
 0.620000   -11.063580   11.095778
 0.625000   -11.007813   11.204899
 0.630000   -10.951531   11.288124
 0.635000   -10.894932   11.326454
 0.640000   -10.838266   11.277312
 0.645000   -10.782159   11.222662
 0.650000   -10.726040   11.198163
 0.655000   -10.670177   11.094285
 0.660000   -10.615097   10.903093
 0.665000   -10.561146   10.685473
 0.670000   -10.508242   10.443843
 0.675000   -10.456708   10.114649
 0.680000   -10.407096   9.731200
 0.685000   -10.359396   9.344532
 0.690000   -10.313650   8.920475
 0.695000   -10.270191   8.421945
 0.700000   -10.229431   7.886956
 0.705000   -10.191321   7.337250
 0.710000   -10.156058   6.735505
 0.715000   -10.123966   6.079672
 0.720000   -10.095262   5.402511
 0.725000   -10.069941   4.707311
 0.730000   -10.048188   3.975944
 0.735000   -10.030182   3.224638
 0.740000   -10.015942   2.474109
 0.745000   -10.005441   1.727375
 0.750000   -9.998668   0.977398
 0.755000   -9.995667   0.235900
 0.760000   -9.996309   -0.480514
 0.765000   -10.000472   -1.178701
 0.770000   -10.008096   -1.905426
 0.775000   -10.019526   -2.713500
 0.780000   -10.035231   -3.674212
 0.785000   -10.056268   -4.884129
 0.790000   -10.084073   -6.542492
 0.795000   -10.121693   -8.597869
 0.800000   -10.170051   -10.868716
 0.805000   -10.230380   -13.376628
 0.810000   -10.303818   -16.039510
 0.815000   -10.390775   -18.724479
 0.820000   -10.491062   -21.391373
 0.825000   -10.604689   -23.701445
 0.830000   -10.728077   -25.294610
 0.835000   -10.857635   -26.109112
 0.840000   -10.989168   -26.064432
 0.845000   -11.118279   -25.193417
 0.850000   -11.241102   -23.349693
 0.855000   -11.351776   -20.714164
 0.860000   -11.448244   -17.778459
 0.865000   -11.529561   -14.882523
 0.870000   -11.597069   -12.069377
 0.875000   -11.650255   -9.301319
 0.880000   -11.690082   -6.728939
 0.885000   -11.717544   -4.241129
 0.890000   -11.732493   -1.372247
 0.895000   -11.731267   2.286910
 0.900000   -11.709624   7.078334
 0.905000   -11.660483   13.634485
 0.910000   -11.573280   22.381780
 0.915000   -11.436665   33.459904
 0.920000   -11.238680   47.596362
 0.925000   -10.960702   64.671054
 0.930000   -10.591970   82.416465
 0.935000   -10.136537   100.678645
 0.940000   -9.585183   121.527882
 0.945000   -8.921258   141.861127
 0.950000   -8.166572   155.311974
 0.955000   -7.368139   160.001029
 0.960000   -6.566562   156.311142
 0.965000   -5.805027   147.176973
 0.970000   -5.094792   139.440680
 0.975000   -4.410620   148.146777
 0.980000   -3.613324   193.937159
 0.985000   -2.471249   286.453583
 0.990000   -0.748789   406.910020
 0.995000   1.597851   497.451321
 1.000000   4.225725   553.697982
201 psinorm omgvb(kRad/s) domgvb/dpsiN
 0.000000   73.103893   153.730489
 0.005000   73.705057   86.735314
 0.010000   73.971246   48.748039
 0.015000   74.192537   42.113727
 0.020000   74.392383   38.386328
 0.025000   74.576401   35.274825
 0.030000   74.745131   32.308512
 0.035000   74.899486   29.874518
 0.040000   75.043876   27.904562
 0.045000   75.178531   26.272457
 0.050000   75.306601   25.225466
 0.055000   75.430786   24.835623
 0.060000   75.554957   25.052662
 0.065000   75.681313   25.514897
 0.070000   75.810106   26.014030
 0.075000   75.941453   26.328489
 0.080000   76.073391   26.359215
 0.085000   76.205045   26.002690
 0.090000   76.333418   25.194444
 0.095000   76.456990   23.941212
 0.100000   76.572830   22.409626
 0.105000   76.681086   20.831199
 0.110000   76.781142   19.163685
 0.115000   76.872723   17.475760
 0.120000   76.955900   15.840721
 0.125000   77.031130   14.396163
 0.130000   77.099861   13.015443
 0.135000   77.161284   11.537013
 0.140000   77.215231   9.955263
 0.145000   77.260837   8.034737
 0.150000   77.295579   5.830360
 0.155000   77.319141   3.368304
 0.160000   77.329262   0.801846
 0.165000   77.327159   -1.917069
 0.170000   77.310091   -4.809312
 0.175000   77.279066   -7.862902
 0.180000   77.231462   -11.083991
 0.185000   77.168226   -14.198727
 0.190000   77.089475   -17.362479
 0.195000   76.994601   -20.274591
 0.200000   76.886729   -23.023469
 0.205000   76.764367   -25.652149
 0.210000   76.630207   -27.902395
 0.215000   76.485343   -30.087345
 0.220000   76.329334   -32.130263
 0.225000   76.164040   -34.135460
 0.230000   75.987979   -36.333959
 0.235000   75.800700   -38.502491
 0.240000   75.602954   -40.778387
 0.245000   75.392917   -43.125444
 0.250000   75.171700   -45.346948
 0.255000   74.939447   -47.561650
 0.260000   74.696084   -49.657611
 0.265000   74.442871   -51.740140
 0.270000   74.178682   -54.043897
 0.275000   73.902432   -56.355967
 0.280000   73.615122   -58.857567
 0.285000   73.313856   -61.753833
 0.290000   72.997584   -64.812136
 0.295000   72.665735   -68.163154
 0.300000   72.315953   -71.750264
 0.305000   71.948232   -75.266098
 0.310000   71.563292   -78.822981
 0.315000   71.160002   -82.401791
 0.320000   70.739274   -85.731259
 0.325000   70.302690   -88.721721
 0.330000   69.852056   -91.163798
 0.335000   69.391052   -92.821588
 0.340000   68.923841   -93.774154
 0.345000   68.453310   -94.134695
 0.350000   67.982494   -93.966233
 0.355000   67.513648   -93.907261
 0.360000   67.043421   -94.457902
 0.365000   66.569069   -95.553932
 0.370000   66.087882   -97.274401
 0.375000   65.596325   -99.690562
 0.380000   65.090976   -103.089391
 0.385000   64.565431   -107.007382
 0.390000   64.020902   -110.533964
 0.395000   63.460091   -113.547340
 0.400000   62.885429   -116.128883
 0.405000   62.298803   -118.534011
 0.410000   61.700089   -121.916968
 0.415000   61.079633   -126.863024
 0.420000   60.431459   -133.007992
 0.425000   59.749553   -140.311921
 0.430000   59.028339   -148.559840
 0.435000   58.263955   -157.645112
 0.440000   57.451888   -167.411900
 0.445000   56.589836   -176.009454
 0.450000   55.691794   -182.256845
 0.455000   54.767267   -186.387308
 0.460000   53.827921   -188.095681
 0.465000   52.886310   -187.242008
 0.470000   51.955500   -182.945660
 0.475000   51.056854   -175.250373
 0.480000   50.202997   -165.768685
 0.485000   49.399167   -155.367964
 0.490000   48.649317   -144.602560
 0.495000   47.953141   -133.877081
 0.500000   47.310546   -123.765159
 0.505000   46.715490   -115.281960
 0.510000   46.157727   -108.570557
 0.515000   45.629784   -103.389403
 0.520000   45.123833   -99.416338
 0.525000   44.635621   -96.246491
 0.530000   44.161368   -93.666934
 0.535000   43.698951   -91.272479
 0.540000   43.248643   -88.763138
 0.545000   42.811320   -86.128847
 0.550000   42.387355   -83.478720
 0.555000   41.976533   -80.707452
 0.560000   41.580280   -77.633195
 0.565000   41.200201   -74.460392
 0.570000   40.835676   -71.332656
 0.575000   40.486874   -68.177329
 0.580000   40.153903   -65.084222
 0.585000   39.836032   -62.321720
 0.590000   39.530686   -59.872665
 0.595000   39.237305   -57.625511
 0.600000   38.954430   -55.691537
 0.605000   38.680390   -54.072443
 0.610000   38.413706   -52.680876
 0.615000   38.153581   -51.511900
 0.620000   37.898587   -50.567742
 0.625000   37.647904   -49.781066
 0.630000   37.400776   -49.131733
 0.635000   37.156587   -48.615490
 0.640000   36.914621   -48.285996
 0.645000   36.673727   -48.075139
 0.650000   36.433870   -47.925951
 0.655000   36.194467   -48.093368
 0.660000   35.952936   -48.742311
 0.665000   35.707044   -49.799457
 0.670000   35.454942   -51.278787
 0.675000   35.194256   -53.261730
 0.680000   34.922325   -55.807287
 0.685000   34.636183   -58.669868
 0.690000   34.335626   -61.541709
 0.695000   34.020766   -64.434556
 0.700000   33.691280   -67.348831
 0.705000   33.347278   -70.269227
 0.710000   32.988588   -73.235942
 0.715000   32.614918   -76.183801
 0.720000   32.226750   -79.020372
 0.725000   31.824715   -81.746395
 0.730000   31.409286   -84.362830
 0.735000   30.981086   -86.826154
 0.740000   30.541025   -89.044842
 0.745000   30.090638   -91.004745
 0.750000   29.630977   -92.919423
 0.755000   29.161444   -95.051068
 0.760000   28.680466   -97.610520
 0.765000   28.185339   -100.793935
 0.770000   27.672527   -104.903718
 0.775000   27.136301   -110.009029
 0.780000   26.572437   -115.462850
 0.785000   25.981673   -120.892164
 0.790000   25.363515   -126.493095
 0.795000   24.716742   -132.036732
 0.800000   24.043148   -137.288922
 0.805000   23.343853   -142.165530
 0.810000   22.621493   -146.130971
 0.815000   21.882543   -149.141396
 0.820000   21.130079   -151.600132
 0.825000   20.366542   -153.194980
 0.830000   19.598129   -153.598944
 0.835000   18.830552   -152.811430
 0.840000   18.070014   -149.883449
 0.845000   17.331718   -144.472709
 0.850000   16.625287   -137.152425
 0.855000   15.960194   -128.608208
 0.860000   15.339205   -120.061092
 0.865000   14.759583   -113.067452
 0.870000   14.208531   -108.095847
 0.875000   13.678624   -105.939451
 0.880000   13.149136   -108.918231
 0.885000   12.589442   -119.036076
 0.890000   11.958776   -138.092885
 0.895000   11.208513   -168.627946
 0.900000   10.272496   -210.853424
 0.905000   9.099979   -262.869902
 0.910000   7.643797   -322.263598
 0.915000   5.877343   -383.521069
 0.920000   3.808586   -437.846169
 0.925000   1.498881   -476.070273
 0.930000   -0.952116   -487.795476
 0.935000   -3.379074   -462.358361
 0.940000   -5.575700   -394.298320
 0.945000   -7.322057   -289.198870
 0.950000   -8.467689   -163.024851
 0.955000   -8.952305   -32.317286
 0.960000   -8.790862   85.352860
 0.965000   -8.098777   177.663603
 0.970000   -7.014226   243.338792
 0.975000   -5.665389   294.980745
 0.980000   -4.064418   355.853504
 0.985000   -2.106854   440.749958
 0.990000   0.343081   539.006887
 0.995000   3.283215   600.789607
 1.000000   6.350978   626.315401
201 psinorm omgpp(kRad/s) domgpp/dpsiN
 0.000000   -0.045752   -22.777069
 0.005000   -0.185540   -33.137934
 0.010000   -0.377131   -38.914213
 0.015000   -0.574682   -40.033918
 0.020000   -0.777471   -40.973636
 0.025000   -0.984418   -41.668916
 0.030000   -1.194160   -42.132639
 0.035000   -1.405745   -42.361387
 0.040000   -1.617774   -42.320374
 0.045000   -1.828948   -42.028688
 0.050000   -2.038061   -41.432652
 0.055000   -2.243275   -40.535775
 0.060000   -2.443418   -39.696112
 0.065000   -2.640236   -38.877273
 0.070000   -2.832191   -37.882118
 0.075000   -3.019057   -36.858519
 0.080000   -3.200776   -35.791442
 0.085000   -3.376971   -34.749011
 0.090000   -3.548266   -34.046296
 0.095000   -3.717434   -33.458249
 0.100000   -3.882849   -32.701447
 0.105000   -4.044449   -31.917088
 0.110000   -4.202020   -31.084046
 0.115000   -4.355289   -30.265546
 0.120000   -4.504675   -29.361242
 0.125000   -4.648902   -28.257181
 0.130000   -4.787247   -27.027957
 0.135000   -4.919181   -25.701973
 0.140000   -5.044267   -24.299787
 0.145000   -5.162179   -22.789010
 0.150000   -5.272157   -21.179738
 0.155000   -5.373977   -19.525558
 0.160000   -5.467412   -17.827240
 0.165000   -5.552249   -16.088888
 0.170000   -5.628301   -14.317060
 0.175000   -5.695420   -12.304234
 0.180000   -5.751344   -10.398528
 0.185000   -5.799405   -8.775734
 0.190000   -5.839101   -7.211164
 0.195000   -5.871517   -5.892666
 0.200000   -5.898028   -4.864974
 0.205000   -5.920166   -4.327392
 0.210000   -5.941302   -4.454344
 0.215000   -5.964710   -4.901370
 0.220000   -5.990315   -5.350461
 0.225000   -6.018214   -5.756973
 0.230000   -6.047885   -6.011353
 0.235000   -6.078328   -6.906907
 0.240000   -6.116954   -6.924057
 0.245000   -6.147568   -5.156339
 0.250000   -6.168517   -3.366534
 0.255000   -6.181234   -1.571948
 0.260000   -6.184237   0.503332
 0.265000   -6.176200   2.539610
 0.270000   -6.158841   5.408216
 0.275000   -6.122118   9.156603
 0.280000   -6.067275   12.533458
 0.285000   -5.996784   15.662642
 0.290000   -5.910648   18.758817
 0.295000   -5.809196   22.256628
 0.300000   -5.688082   25.642263
 0.305000   -5.552773   27.333750
 0.310000   -5.414745   27.936227
 0.315000   -5.273411   28.375319
 0.320000   -5.130991   28.405581
 0.325000   -4.989355   28.331806
 0.330000   -4.847673   27.744808
 0.335000   -4.711907   26.140840
 0.340000   -4.586265   24.508952
 0.345000   -4.466817   23.280801
 0.350000   -4.353457   22.115248
 0.355000   -4.245665   21.011128
 0.360000   -4.143346   19.961083
 0.365000   -4.046054   19.542894
 0.370000   -3.947917   19.771683
 0.375000   -3.848337   20.221966
 0.380000   -3.745697   20.931962
 0.385000   -3.639017   21.799942
 0.390000   -3.527698   22.928817
 0.395000   -3.409729   23.830922
 0.400000   -3.289388   24.229758
 0.405000   -3.167432   24.430453
 0.410000   -3.045084   24.370278
 0.415000   -2.923729   24.080409
 0.420000   -2.804280   23.840630
 0.425000   -2.685323   22.680409
 0.430000   -2.577476   20.929544
 0.435000   -2.476027   19.620735
 0.440000   -2.381268   18.267552
 0.445000   -2.293352   16.890041
 0.450000   -2.212368   15.500978
 0.455000   -2.138342   13.897889
 0.460000   -2.073389   12.304581
 0.465000   -2.015296   10.943855
 0.470000   -1.963950   9.606274
 0.475000   -1.919233   8.306946
 0.480000   -1.880881   6.917749
 0.485000   -1.850056   6.077508
 0.490000   -1.820106   5.752345
 0.495000   -1.792532   5.224052
 0.500000   -1.767865   4.607741
 0.505000   -1.746455   3.914315
 0.510000   -1.728722   3.232070
 0.515000   -1.714134   2.511532
 0.520000   -1.703607   1.695100
 0.525000   -1.697183   0.908693
 0.530000   -1.694520   0.175797
 0.535000   -1.695425   -0.520293
 0.540000   -1.699723   -1.041953
 0.545000   -1.705845   -1.666995
 0.550000   -1.716393   -2.551552
 0.555000   -1.731360   -3.392064
 0.560000   -1.750314   -4.216348
 0.565000   -1.773524   -5.095026
 0.570000   -1.801264   -6.011014
 0.575000   -1.833634   -6.940893
 0.580000   -1.870673   -7.748645
 0.585000   -1.911120   -8.380893
 0.590000   -1.954482   -8.940047
 0.595000   -2.000521   -9.467194
 0.600000   -2.049154   -10.002818
 0.605000   -2.100549   -10.567513
 0.610000   -2.154829   -11.117462
 0.615000   -2.211724   -11.669618
 0.620000   -2.271525   -12.250643
 0.625000   -2.334230   -12.821981
 0.630000   -2.399745   -13.483933
 0.635000   -2.469069   -14.188893
 0.640000   -2.541634   -14.476283
 0.645000   -2.613832   -14.535338
 0.650000   -2.686987   -14.711720
 0.655000   -2.760949   -14.860722
 0.660000   -2.835594   -15.106289
 0.665000   -2.912012   -15.801686
 0.670000   -2.993611   -16.955361
 0.675000   -3.081566   -18.924533
 0.680000   -3.182856   -21.694854
 0.685000   -3.298515   -24.513721
 0.690000   -3.427994   -27.507491
 0.695000   -3.573589   -31.524104
 0.700000   -3.743235   -32.320161
 0.705000   -3.896791   -30.352582
 0.710000   -4.046761   -29.185073
 0.715000   -4.188642   -27.055946
 0.720000   -4.317320   -23.983353
 0.725000   -4.428475   -20.218423
 0.730000   -4.519504   -13.299162
 0.735000   -4.561467   -4.859232
 0.740000   -4.568097   2.327958
 0.745000   -4.538187   9.590249
 0.750000   -4.472194   16.572279
 0.755000   -4.372465   24.857502
 0.760000   -4.223619   30.429273
 0.765000   -4.068172   32.197162
 0.770000   -3.901647   33.775460
 0.775000   -3.730417   34.120504
 0.780000   -3.560442   33.354474
 0.785000   -3.396872   32.688459
 0.790000   -3.233558   29.543824
 0.795000   -3.101434   24.582302
 0.800000   -2.987735   21.079699
 0.805000   -2.890637   17.867875
 0.810000   -2.809056   14.940526
 0.815000   -2.741232   11.944426
 0.820000   -2.689612   9.724932
 0.825000   -2.643983   8.698630
 0.830000   -2.602625   7.753468
 0.835000   -2.566448   6.751394
 0.840000   -2.535112   5.804568
 0.845000   -2.508402   4.223227
 0.850000   -2.492879   2.360314
 0.855000   -2.484799   0.330450
 0.860000   -2.489575   -2.828899
 0.865000   -2.513088   -6.933792
 0.870000   -2.558913   -11.779998
 0.875000   -2.630888   -19.354261
 0.880000   -2.752455   -28.257674
 0.885000   -2.913465   -35.120562
 0.890000   -3.103661   -43.216104
 0.895000   -3.345626   -54.994585
 0.900000   -3.653607   -70.166270
 0.905000   -4.047289   -93.848977
 0.910000   -4.592097   -126.845907
 0.915000   -5.315748   -163.282845
 0.920000   -6.224925   -212.269639
 0.925000   -7.438444   -282.556946
 0.930000   -9.050494   -370.883113
 0.935000   -11.147275   -480.073448
 0.940000   -13.851229   -594.061201
 0.945000   -17.087887   -652.295168
 0.950000   -20.374181   -631.619566
 0.955000   -23.404083   -531.024836
 0.960000   -25.684429   -334.414194
 0.965000   -26.748225   -65.795267
 0.970000   -26.342382   231.416727
 0.975000   -24.434058   489.826519
 0.980000   -21.444116   646.016774
 0.985000   -17.973890   692.260814
 0.990000   -14.521508   652.005283
 0.995000   -11.453837   558.813037
 1.000000   -8.933378   449.370594
201 psinorm omgeb(kRad/s) domgeb/dpsiN
 0.000000   73.058140   130.953420
 0.005000   73.519517   53.597380
 0.010000   73.594114   9.833826
 0.015000   73.617856   2.079808
 0.020000   73.614912   -2.587308
 0.025000   73.591983   -6.394091
 0.030000   73.550971   -9.824127
 0.035000   73.493741   -12.486869
 0.040000   73.426103   -14.415813
 0.045000   73.349583   -15.756231
 0.050000   73.268540   -16.207185
 0.055000   73.187511   -15.700152
 0.060000   73.111539   -14.643450
 0.065000   73.041077   -13.362376
 0.070000   72.977915   -11.868088
 0.075000   72.922396   -10.530030
 0.080000   72.872615   -9.432227
 0.085000   72.828074   -8.746321
 0.090000   72.785152   -8.851852
 0.095000   72.739555   -9.517038
 0.100000   72.689981   -10.291821
 0.105000   72.636637   -11.085889
 0.110000   72.579122   -11.920361
 0.115000   72.517433   -12.789787
 0.120000   72.451224   -13.520521
 0.125000   72.382228   -13.861019
 0.130000   72.312614   -14.012514
 0.135000   72.242103   -14.164960
 0.140000   72.170965   -14.344524
 0.145000   72.098658   -14.754273
 0.150000   72.023422   -15.349378
 0.155000   71.945164   -16.157254
 0.160000   71.861849   -17.025394
 0.165000   71.774910   -18.005957
 0.170000   71.681790   -19.126372
 0.175000   71.583646   -20.167135
 0.180000   71.480118   -21.482519
 0.185000   71.368821   -22.974461
 0.190000   71.250374   -24.573643
 0.195000   71.123085   -26.167257
 0.200000   70.988701   -27.888443
 0.205000   70.844200   -29.979541
 0.210000   70.688906   -32.356738
 0.215000   70.520633   -34.988715
 0.220000   70.339019   -37.480724
 0.225000   70.145826   -39.892434
 0.230000   69.940094   -42.345312
 0.235000   69.722373   -45.409398
 0.240000   69.486000   -47.702444
 0.245000   69.245348   -48.281783
 0.250000   69.003183   -48.713483
 0.255000   68.758213   -49.133598
 0.260000   68.511847   -49.154280
 0.265000   68.266670   -49.200531
 0.270000   68.019841   -48.635681
 0.275000   67.780314   -47.199364
 0.280000   67.547848   -46.324108
 0.285000   67.317073   -46.091191
 0.290000   67.086936   -46.053319
 0.295000   66.856539   -45.906526
 0.300000   66.627870   -46.108001
 0.305000   66.395459   -47.932348
 0.310000   66.148547   -50.886754
 0.315000   65.886592   -54.026473
 0.320000   65.608282   -57.325678
 0.325000   65.313335   -60.389915
 0.330000   65.004383   -63.418990
 0.335000   64.679145   -66.680748
 0.340000   64.337576   -69.265202
 0.345000   63.986493   -70.853893
 0.350000   63.629037   -71.850985
 0.355000   63.267983   -72.896133
 0.360000   62.900075   -74.496819
 0.365000   62.523015   -76.011038
 0.370000   62.139965   -77.502718
 0.375000   61.747988   -79.468596
 0.380000   61.345279   -82.157428
 0.385000   60.926414   -85.207440
 0.390000   60.493205   -87.605147
 0.395000   60.050362   -89.716418
 0.400000   59.596040   -91.899126
 0.405000   59.131371   -94.103558
 0.410000   58.655005   -97.546690
 0.415000   58.155904   -102.782615
 0.420000   57.627179   -109.167361
 0.425000   57.064230   -117.631512
 0.430000   56.450864   -127.630297
 0.435000   55.787927   -138.024376
 0.440000   55.070620   -149.144348
 0.445000   54.296484   -159.119412
 0.450000   53.479426   -166.755868
 0.455000   52.628925   -172.489420
 0.460000   51.754532   -175.791100
 0.465000   50.871014   -176.298154
 0.470000   49.991550   -173.339386
 0.475000   49.137620   -166.943427
 0.480000   48.322116   -158.850936
 0.485000   47.549111   -149.290456
 0.490000   46.829211   -138.850215
 0.495000   46.160609   -128.653028
 0.500000   45.542681   -119.157418
 0.505000   44.969035   -111.367645
 0.510000   44.429004   -105.338487
 0.515000   43.915650   -100.877871
 0.520000   43.420226   -97.721238
 0.525000   42.938437   -95.337798
 0.530000   42.466848   -93.491137
 0.535000   42.003526   -91.792772
 0.540000   41.548920   -89.805091
 0.545000   41.105475   -87.795842
 0.550000   40.670962   -86.030272
 0.555000   40.245172   -84.099515
 0.560000   39.829966   -81.849543
 0.565000   39.426677   -79.555418
 0.570000   39.034412   -77.343670
 0.575000   38.653240   -75.118222
 0.580000   38.283230   -72.832867
 0.585000   37.924912   -70.702613
 0.590000   37.576204   -68.812712
 0.595000   37.236785   -67.092705
 0.600000   36.905277   -65.694354
 0.605000   36.579841   -64.639956
 0.610000   36.258877   -63.798338
 0.615000   35.941858   -63.181517
 0.620000   35.627062   -62.818384
 0.625000   35.313674   -62.603047
 0.630000   35.001032   -62.615666
 0.635000   34.687517   -62.804384
 0.640000   34.372988   -62.762279
 0.645000   34.059894   -62.610477
 0.650000   33.746883   -62.637671
 0.655000   33.433518   -62.954090
 0.660000   33.117342   -63.848600
 0.665000   32.795032   -65.601143
 0.670000   32.461331   -68.234148
 0.675000   32.112690   -72.186263
 0.680000   31.739468   -77.502141
 0.685000   31.337669   -83.183589
 0.690000   30.907632   -89.049200
 0.695000   30.447177   -95.958660
 0.700000   29.948046   -99.668993
 0.705000   29.450487   -100.621809
 0.710000   28.941828   -102.421015
 0.715000   28.426277   -103.239747
 0.720000   27.909430   -103.003725
 0.725000   27.396239   -101.964818
 0.730000   26.889782   -97.661992
 0.735000   26.419619   -91.685386
 0.740000   25.972928   -86.716883
 0.745000   25.552451   -81.414496
 0.750000   25.158783   -76.347143
 0.755000   24.788979   -70.193566
 0.760000   24.456847   -67.181247
 0.765000   24.117167   -68.596773
 0.770000   23.770880   -71.128257
 0.775000   23.405884   -75.888525
 0.780000   23.011994   -82.108376
 0.785000   22.584800   -88.203705
 0.790000   22.129957   -96.949271
 0.795000   21.615308   -107.454430
 0.800000   21.055413   -116.209223
 0.805000   20.453215   -124.297655
 0.810000   19.812437   -131.190445
 0.815000   19.141311   -137.196970
 0.820000   18.440467   -141.875200
 0.825000   17.722559   -144.496351
 0.830000   16.995503   -145.845476
 0.835000   16.264104   -146.060036
 0.840000   15.534903   -144.078881
 0.845000   14.823315   -140.249481
 0.850000   14.132408   -134.792110
 0.855000   13.475394   -128.277758
 0.860000   12.849631   -122.889991
 0.865000   12.246494   -120.001244
 0.870000   11.649618   -119.875845
 0.875000   11.047736   -125.293712
 0.880000   10.396681   -137.175905
 0.885000   9.675977   -154.156638
 0.890000   8.855115   -181.308989
 0.895000   7.862887   -223.622531
 0.900000   6.618889   -281.019694
 0.905000   5.052690   -356.718879
 0.910000   3.051701   -449.109505
 0.915000   0.561595   -546.803914
 0.920000   -2.416339   -650.115808
 0.925000   -5.939563   -758.627220
 0.930000   -10.002611   -858.678590
 0.935000   -14.526349   -942.431809
 0.940000   -19.426929   -988.359522
 0.945000   -24.409944   -941.494038
 0.950000   -28.841869   -794.644416
 0.955000   -32.356388   -563.342122
 0.960000   -34.475291   -249.061335
 0.965000   -34.847002   111.868336
 0.970000   -33.356607   474.755520
 0.975000   -30.099446   784.807264
 0.980000   -25.508535   1001.870278
 0.985000   -20.080744   1133.010772
 0.990000   -14.178427   1191.012170
 0.995000   -8.170622   1159.602643
 1.000000   -2.582400   1075.685995
201 psinorm er(kV/m) der/dpsiN
 0.000000   1.178275   1257.894052
 0.005000   6.258486   774.190147
 0.010000   8.920177   470.799307
 0.015000   10.966479   378.574977
 0.020000   12.705926   325.275243
 0.025000   14.219231   288.148674
 0.030000   15.587413   262.199582
 0.035000   16.841227   241.667331
 0.040000   18.004086   225.088748
 0.045000   19.092114   209.882031
 0.050000   20.102907   196.720768
 0.055000   21.059322   186.767330
 0.060000   21.970580   179.627823
 0.065000   22.855600   171.748800
 0.070000   23.688068   162.548412
 0.075000   24.481084   158.384896
 0.080000   25.271917   152.726292
 0.085000   26.008347   146.408011
 0.090000   26.735997   142.900250
 0.095000   27.437350   135.635535
 0.100000   28.092352   132.797020
 0.105000   28.765320   126.773590
 0.110000   29.360088   123.171428
 0.115000   29.997034   119.075486
 0.120000   30.550843   115.249932
 0.125000   31.149534   111.360874
 0.130000   31.664452   108.515145
 0.135000   32.234685   104.590036
 0.140000   32.710352   101.421927
 0.145000   33.248904   99.437904
 0.150000   33.704731   94.892003
 0.155000   34.197824   93.994535
 0.160000   34.644677   88.621949
 0.165000   35.084044   88.054726
 0.170000   35.525224   82.544283
 0.175000   35.909487   81.874117
 0.180000   36.343965   77.052486
 0.185000   36.680012   73.099303
 0.190000   37.074958   74.523797
 0.195000   37.425250   67.181018
 0.200000   37.746768   67.791293
 0.205000   38.103162   61.165831
 0.210000   38.358427   57.259551
 0.215000   38.675758   59.179018
 0.220000   38.950217   50.704564
 0.225000   39.182804   50.206408
 0.230000   39.452281   46.157679
 0.235000   39.644380   40.196516
 0.240000   39.854246   42.596453
 0.245000   40.070345   35.282347
 0.250000   40.207069   33.289287
 0.255000   40.403238   36.517412
 0.260000   40.572244   29.409516
 0.265000   40.697333   29.538043
 0.270000   40.867624   30.626577
 0.275000   41.003599   25.732351
 0.280000   41.124948   27.766578
 0.285000   41.281265   26.601074
 0.290000   41.390958   22.083043
 0.295000   41.502095   24.606485
 0.300000   41.637023   21.889369
 0.305000   41.720989   16.979198
 0.310000   41.806815   17.777749
 0.315000   41.898766   12.833222
 0.320000   41.935147   7.342795
 0.325000   41.972194   7.738041
 0.330000   42.012528   3.148601
 0.335000   42.003680   -2.259474
 0.340000   41.989933   -2.177660
 0.345000   41.981904   -5.055489
 0.350000   41.939378   -9.079358
 0.355000   41.891110   -8.739229
 0.360000   41.851986   -10.545871
 0.365000   41.785651   -15.106437
 0.370000   41.700921   -15.891042
 0.375000   41.626741   -16.906730
 0.380000   41.531854   -22.344115
 0.385000   41.403300   -24.895100
 0.390000   41.282903   -25.354868
 0.395000   41.149751   -30.460842
 0.400000   40.978295   -33.117069
 0.405000   40.818580   -33.029039
 0.410000   40.648004   -38.401357
 0.415000   40.434567   -43.788496
 0.420000   40.210119   -47.265912
 0.425000   39.961908   -54.721870
 0.430000   39.662901   -64.014073
 0.435000   39.321767   -71.559595
 0.440000   38.947305   -79.706661
 0.445000   38.524700   -89.308862
 0.450000   38.054216   -95.781473
 0.455000   37.566886   -99.552195
 0.460000   37.058694   -104.239197
 0.465000   36.524494   -106.165389
 0.470000   35.997040   -103.863587
 0.475000   35.485858   -100.443175
 0.480000   34.992609   -96.475704
 0.485000   34.521101   -90.100468
 0.490000   34.091604   -82.521760
 0.495000   33.695883   -76.955217
 0.500000   33.322052   -70.918405
 0.505000   32.986699   -64.797510
 0.510000   32.674077   -61.471536
 0.515000   32.371984   -59.421650
 0.520000   32.079860   -57.186851
 0.525000   31.800115   -55.489262
 0.530000   31.524967   -55.551077
 0.535000   31.244604   -54.878011
 0.540000   30.976187   -52.981175
 0.545000   30.714793   -52.405922
 0.550000   30.452128   -52.087158
 0.555000   30.193921   -50.615274
 0.560000   29.945975   -48.898449
 0.565000   29.704937   -48.456504
 0.570000   29.461410   -47.261446
 0.575000   29.232322   -45.063083
 0.580000   29.010780   -44.047820
 0.585000   28.791844   -43.376183
 0.590000   28.577018   -41.891450
 0.595000   28.372929   -40.285144
 0.600000   28.174166   -40.464386
 0.605000   27.968286   -40.136508
 0.610000   27.772801   -38.814622
 0.615000   27.580139   -38.793065
 0.620000   27.384871   -39.556662
 0.625000   27.184573   -39.406021
 0.630000   26.990810   -38.874963
 0.635000   26.795823   -40.002247
 0.640000   26.590788   -40.631582
 0.645000   26.389507   -39.986812
 0.650000   26.190920   -39.886547
 0.655000   25.990642   -41.480580
 0.660000   25.776114   -42.400524
 0.665000   25.566637   -42.834164
 0.670000   25.347772   -45.515053
 0.675000   25.111486   -49.657013
 0.680000   24.851202   -53.595035
 0.685000   24.575536   -57.412894
 0.690000   24.277073   -63.219978
 0.695000   23.943336   -69.375109
 0.700000   23.583322   -71.520718
 0.705000   23.228129   -71.995866
 0.710000   22.863363   -75.305028
 0.715000   22.475078   -76.252641
 0.720000   22.100837   -74.636777
 0.725000   21.728711   -74.471313
 0.730000   21.356124   -72.602416
 0.735000   21.002686   -67.613308
 0.740000   20.679991   -62.543211
 0.745000   20.377254   -59.444444
 0.750000   20.085546   -56.427026
 0.755000   19.812984   -50.756769
 0.760000   19.577979   -47.710900
 0.765000   19.335875   -50.249029
 0.770000   19.075488   -52.811484
 0.775000   18.807760   -55.603789
 0.780000   18.519451   -60.460152
 0.785000   18.203159   -66.896832
 0.790000   17.850482   -74.210279
 0.795000   17.461056   -81.646739
 0.800000   17.034015   -89.166653
 0.805000   16.569389   -96.946202
 0.810000   16.064553   -102.649031
 0.815000   15.542899   -106.894090
 0.820000   14.995612   -111.358215
 0.825000   14.429317   -114.521372
 0.830000   13.850398   -115.631867
 0.835000   13.272998   -115.451612
 0.840000   12.695882   -114.608741
 0.845000   12.126911   -112.332008
 0.850000   11.572562   -107.758283
 0.855000   11.049328   -102.200745
 0.860000   10.550555   -98.598663
 0.865000   10.063341   -96.897234
 0.870000   9.581582   -96.555470
 0.875000   9.097787   -100.892192
 0.880000   8.572660   -111.570036
 0.885000   7.982086   -126.113698
 0.890000   7.311523   -148.167153
 0.895000   6.500415   -183.164084
 0.900000   5.479882   -231.825401
 0.905000   4.182161   -294.957678
 0.910000   2.530306   -371.024988
 0.915000   0.471911   -452.377088
 0.920000   -1.993465   -541.342378
 0.925000   -4.941513   -632.995218
 0.930000   -8.323417   -715.765623
 0.935000   -12.099169   -788.556504
 0.940000   -16.208982   -848.615073
 0.945000   -20.585320   -815.499698
 0.950000   -24.363979   -679.559316
 0.955000   -27.380913   -494.844049
 0.960000   -29.312420   -306.010404
 0.965000   -30.441017   10.072593
 0.970000   -29.211694   402.807348
 0.975000   -26.412944   678.771548
 0.980000   -22.423978   853.151215
 0.985000   -17.881431   977.721686
 0.990000   -12.646762   1057.591590
 0.995000   -7.305515   1030.865341
 1.000000   -2.338108   956.097561
201 psinorm ommvb() dommvb/dpsiN
 0.000000   -82.784854   12243.111700
 0.005000   -28.470865   9482.484141
 0.010000   12.039987   9152.253377
 0.015000   63.051669   9614.993338
 0.020000   108.189920   8560.432255
 0.025000   148.655991   7618.854224
 0.030000   184.378463   6771.403096
 0.035000   216.370022   6091.658999
 0.040000   245.295053   5626.077294
 0.045000   272.630795   4979.738286
 0.050000   295.092435   4521.973866
 0.055000   317.850534   4054.241417
 0.060000   335.634850   3606.942855
 0.065000   353.919963   3275.556112
 0.070000   368.390411   2742.627838
 0.075000   381.346241   2500.996459
 0.080000   393.400375   2233.465588
 0.085000   403.680897   1938.203969
 0.090000   412.782415   1711.210534
 0.095000   420.793002   1476.020971
 0.100000   427.542625   1296.536971
 0.105000   433.758372   1197.800951
 0.110000   439.520634   918.115049
 0.115000   442.939522   588.432533
 0.120000   445.404960   403.632850
 0.125000   446.975851   222.967820
 0.130000   447.634638   55.554860
 0.135000   447.531399   -133.707103
 0.140000   446.297567   -357.901567
 0.145000   443.952384   -462.889685
 0.150000   441.668670   -507.292022
 0.155000   438.879464   -618.220312
 0.160000   435.486467   -730.882180
 0.165000   431.570642   -824.804712
 0.170000   427.238420   -998.911674
 0.175000   421.581525   -1110.162579
 0.180000   416.136794   -1080.313674
 0.185000   410.778388   -1120.556520
 0.190000   404.931229   -1194.061128
 0.195000   398.837777   -1236.757541
 0.200000   392.563653   -1270.155313
 0.205000   386.136224   -1293.966508
 0.210000   379.623988   -1388.611505
 0.215000   372.250109   -1550.162752
 0.220000   364.122361   -1494.028368
 0.225000   357.309825   -1354.635996
 0.230000   350.576001   -1333.420188
 0.235000   343.975623   -1304.618748
 0.240000   337.529813   -1334.955653
 0.245000   330.626067   -1491.238476
 0.250000   322.617428   -1386.416778
 0.255000   316.761899   -1155.428690
 0.260000   311.063142   -1124.784783
 0.265000   305.514051   -1089.026999
 0.270000   300.172872   -1244.925993
 0.275000   293.064791   -1187.182021
 0.280000   288.301051   -922.643767
 0.285000   283.838354   -877.196603
 0.290000   279.529085   -846.855164
 0.295000   275.369802   -980.996142
 0.300000   269.719124   -905.636956
 0.305000   266.313432   -663.868839
 0.310000   263.080435   -629.225355
 0.315000   260.021179   -648.549621
 0.320000   256.594939   -677.872660
 0.325000   253.242452   -531.326124
 0.330000   251.281678   -379.389722
 0.335000   249.448555   -361.174210
 0.340000   247.669936   -441.391403
 0.345000   245.034641   -400.397522
 0.350000   243.665961   -254.128640
 0.355000   242.493355   -221.453155
 0.360000   241.451429   -232.775129
 0.365000   240.165603   -218.482921
 0.370000   239.266600   -137.881018
 0.375000   238.786793   -85.938021
 0.380000   238.407220   -80.009371
 0.385000   237.986699   -118.055884
 0.390000   237.226661   -101.953936
 0.395000   236.967160   -33.323895
 0.400000   236.893422   6.958622
 0.405000   237.036746   19.369420
 0.410000   237.087116   40.287832
 0.415000   237.439625   69.463516
 0.420000   237.781751   66.610797
 0.425000   238.105733   39.596507
 0.430000   238.177716   27.820747
 0.435000   238.383940   37.462026
 0.440000   238.552337   27.994857
 0.445000   238.663889   -0.826433
 0.450000   238.544072   0.922012
 0.455000   238.673109   30.566553
 0.460000   238.849738   31.995322
 0.465000   238.993062   0.517186
 0.470000   238.854910   -17.131440
 0.475000   238.821747   14.815667
 0.480000   239.003066   44.249208
 0.485000   239.264240   55.049576
 0.490000   239.553562   63.746148
 0.495000   239.901701   99.196366
 0.500000   240.545526   137.961025
 0.505000   241.281311   154.647787
 0.510000   242.092004   158.211241
 0.515000   242.863424   173.774579
 0.520000   243.829749   198.219045
 0.525000   244.845614   207.199607
 0.530000   245.901746   204.152423
 0.535000   246.887138   216.327625
 0.540000   248.065022   242.267121
 0.545000   249.309810   251.083630
 0.550000   250.575858   251.757226
 0.555000   251.827382   257.988363
 0.560000   253.155742   277.203027
 0.565000   254.599412   293.917661
 0.570000   256.094918   304.921879
 0.575000   257.648631   315.999218
 0.580000   259.254910   338.880448
 0.585000   261.037435   357.380127
 0.590000   262.828712   364.997039
 0.595000   264.687406   383.461141
 0.600000   266.663323   393.908795
 0.605000   268.626494   427.124654
 0.610000   270.934570   468.568594
 0.615000   273.312180   485.488802
 0.620000   275.789458   513.345852
 0.625000   278.445638   557.184266
 0.630000   281.361300   584.904879
 0.635000   284.294687   601.151425
 0.640000   287.372815   630.079292
 0.645000   290.595480   660.573575
 0.650000   293.978550   711.647915
 0.655000   297.711959   740.612693
 0.660000   301.384677   748.177204
 0.665000   305.193731   775.308512
 0.670000   309.137762   802.203167
 0.675000   313.215763   850.935711
 0.680000   317.647120   887.693310
 0.685000   322.092696   898.380424
 0.690000   326.630924   924.523646
 0.695000   331.337932   959.112494
 0.700000   336.222049   1001.245267
 0.705000   341.350385   1068.510680
 0.710000   346.907156   1107.027775
 0.715000   352.420663   1125.441045
 0.720000   358.161566   1171.253480
 0.725000   364.133198   1218.196447
 0.730000   370.343530   1270.187769
 0.735000   376.835075   1336.982629
 0.740000   383.713357   1387.885289
 0.745000   390.713928   1424.203951
 0.750000   397.955396   1475.914707
 0.755000   405.473075   1531.400239
 0.760000   413.269399   1580.851901
 0.765000   421.281594   1624.844416
 0.770000   429.517843   1661.194296
 0.775000   437.893537   1694.386477
 0.780000   446.461708   1740.449125
 0.785000   455.298028   1799.855347
 0.790000   464.460261   1864.397346
 0.795000   473.942002   1931.285902
 0.800000   483.773120   2003.188933
 0.805000   493.973891   2078.729255
 0.810000   504.560413   2140.225689
 0.815000   515.376148   2196.248797
 0.820000   526.522901   2292.149971
 0.825000   538.297648   2410.712033
 0.830000   550.630021   2522.582515
 0.835000   563.523473   2643.193588
 0.840000   577.061957   2783.206400
 0.845000   591.355537   2938.445345
 0.850000   606.446410   3098.539842
 0.855000   622.340935   3265.871295
 0.860000   639.105123   3438.961541
 0.865000   656.730551   3610.580264
 0.870000   675.210926   3787.434969
 0.875000   694.604900   4005.209701
 0.880000   715.263023   4387.172810
 0.885000   738.476629   4896.092043
 0.890000   764.223943   5465.414209
 0.895000   793.130771   6183.964090
 0.900000   826.063584   7131.760904
 0.905000   864.448380   8386.814886
 0.910000   909.931733   10012.268070
 0.915000   964.571060   12101.234671
 0.920000   1030.944080   14702.631014
 0.925000   1111.597371   17684.882640
 0.930000   1207.792906   20601.609028
 0.935000   1317.613461   22727.609465
 0.940000   1435.069001   23268.828895
 0.945000   1550.301750   22017.248557
 0.950000   1655.241486   22947.892666
 0.955000   1779.780676   31699.314992
 0.960000   1972.234636   49171.383557
 0.965000   2271.494512   71037.481451
 0.970000   2682.609451   86850.634939
 0.975000   3140.000861   84050.713449
 0.980000   3523.116585   61632.224871
 0.985000   3756.323110   40175.174870
 0.990000   3924.868334   62358.037820
 0.995000   4379.903488   3318452.937728
 1.000000   37109.397711   9773344.751472
201 psinorm ommpp() dommpp/dpsiN
 0.000000   155.842995   -12112.158280
 0.005000   101.990382   -9428.886760
 0.010000   61.554127   -9142.419550
 0.015000   10.566187   -9612.913529
 0.020000   -34.575008   -8563.019563
 0.025000   -75.064009   -7625.248315
 0.030000   -110.827491   -6781.227223
 0.035000   -142.876281   -6104.145868
 0.040000   -171.868950   -5640.493107
 0.045000   -199.281212   -4995.494517
 0.050000   -221.823895   -4538.181052
 0.055000   -244.663023   -4069.941569
 0.060000   -262.523311   -3621.586305
 0.065000   -280.878886   -3288.918488
 0.070000   -295.412496   -2754.495927
 0.075000   -308.423845   -2511.526490
 0.080000   -320.527760   -2242.897815
 0.085000   -330.852823   -1946.950290
 0.090000   -339.997263   -1720.062386
 0.095000   -348.053447   -1485.538009
 0.100000   -354.852643   -1306.828792
 0.105000   -361.121735   -1208.886840
 0.110000   -366.941512   -930.035411
 0.115000   -370.422089   -601.222319
 0.120000   -372.953735   -417.153371
 0.125000   -374.593623   -236.828838
 0.130000   -375.322023   -69.567374
 0.135000   -375.289296   119.542143
 0.140000   -374.126602   343.557043
 0.145000   -371.853726   448.135412
 0.150000   -369.645248   491.942644
 0.155000   -366.934300   602.063057
 0.160000   -363.624617   713.856786
 0.165000   -359.795732   806.798755
 0.170000   -355.556630   979.785302
 0.175000   -349.997879   1089.995444
 0.180000   -344.656675   1058.831155
 0.185000   -339.409567   1097.582059
 0.190000   -333.680855   1169.487485
 0.195000   -327.714692   1210.590285
 0.200000   -321.574952   1242.266871
 0.205000   -315.292024   1263.986966
 0.210000   -308.935082   1356.254767
 0.215000   -301.729476   1515.174036
 0.220000   -293.783342   1456.547643
 0.225000   -287.164000   1314.743562
 0.230000   -280.635906   1291.074876
 0.235000   -274.253251   1259.209350
 0.240000   -268.043813   1287.253209
 0.245000   -261.380719   1442.956693
 0.250000   -253.614246   1337.703295
 0.255000   -248.003686   1106.295092
 0.260000   -242.551295   1075.630503
 0.265000   -237.247381   1039.826468
 0.270000   -232.153030   1196.290312
 0.275000   -225.284478   1139.982658
 0.280000   -220.753204   876.319659
 0.285000   -216.521281   831.105412
 0.290000   -212.442150   800.801845
 0.295000   -208.513263   935.089617
 0.300000   -203.091253   859.528955
 0.305000   -199.917973   615.936491
 0.310000   -196.931888   578.338602
 0.315000   -194.134587   594.523149
 0.320000   -190.986657   620.546982
 0.325000   -187.929117   470.936209
 0.330000   -186.277295   315.970733
 0.335000   -184.769410   294.493462
 0.340000   -183.332360   372.126201
 0.345000   -181.048148   329.543629
 0.350000   -180.036924   182.277655
 0.355000   -179.225371   148.557021
 0.360000   -178.551354   158.278310
 0.365000   -177.642588   142.471883
 0.370000   -177.126635   60.378300
 0.375000   -177.038805   6.469424
 0.380000   -177.061941   -2.148057
 0.385000   -177.060286   32.848444
 0.390000   -176.733456   14.348789
 0.395000   -176.916798   -56.392523
 0.400000   -177.297381   -98.857747
 0.405000   -177.905375   -113.472979
 0.410000   -178.432111   -137.834522
 0.415000   -179.283721   -172.246131
 0.420000   -180.154573   -175.778158
 0.425000   -181.041502   -157.228019
 0.430000   -181.726853   -155.451044
 0.435000   -182.596013   -175.486403
 0.440000   -183.481717   -177.139205
 0.445000   -184.367405   -158.292980
 0.450000   -185.064647   -167.677880
 0.455000   -186.044183   -203.055972
 0.460000   -187.095206   -207.786422
 0.465000   -188.122048   -176.815340
 0.470000   -188.863360   -156.207946
 0.475000   -189.684127   -181.759095
 0.480000   -190.680951   -203.100144
 0.485000   -191.715129   -204.340032
 0.490000   -192.724351   -202.596363
 0.495000   -193.741092   -227.849394
 0.500000   -195.002845   -257.118443
 0.505000   -196.312277   -266.015433
 0.510000   -197.662999   -263.549728
 0.515000   -198.947774   -274.652450
 0.520000   -200.409524   -295.940283
 0.525000   -201.907177   -302.537405
 0.530000   -203.434898   -297.643560
 0.535000   -204.883612   -308.120397
 0.540000   -206.516102   -332.072211
 0.545000   -208.204334   -338.879472
 0.550000   -209.904896   -337.787498
 0.555000   -211.582209   -342.087879
 0.560000   -213.325775   -359.052570
 0.565000   -215.172735   -373.473079
 0.570000   -217.060506   -382.265549
 0.575000   -218.995391   -391.117440
 0.580000   -220.971680   -411.713315
 0.585000   -223.112524   -428.082740
 0.590000   -225.252508   -433.809751
 0.595000   -227.450621   -450.553847
 0.600000   -229.758046   -459.603150
 0.605000   -232.046653   -491.764609
 0.610000   -234.675692   -532.366932
 0.615000   -237.370322   -548.670320
 0.620000   -240.162396   -576.164237
 0.625000   -243.131964   -619.787313
 0.630000   -246.360269   -647.520545
 0.635000   -249.607170   -663.955809
 0.640000   -252.999827   -692.841571
 0.645000   -256.535586   -723.184052
 0.650000   -260.231667   -774.285585
 0.655000   -264.278441   -803.566783
 0.660000   -268.267335   -812.025804
 0.665000   -272.398699   -840.909655
 0.670000   -276.676432   -870.437315
 0.675000   -281.103073   -923.121974
 0.680000   -285.907651   -965.195451
 0.685000   -290.755027   -981.564013
 0.690000   -295.723292   -1013.572846
 0.695000   -300.890756   -1055.071154
 0.700000   -306.274003   -1100.914259
 0.705000   -311.899898   -1169.132489
 0.710000   -317.965328   -1209.448791
 0.715000   -323.994386   -1228.680793
 0.720000   -330.252136   -1274.257205
 0.725000   -336.736958   -1320.161265
 0.730000   -343.453749   -1367.849761
 0.735000   -350.415456   -1428.668015
 0.740000   -357.740429   -1474.602172
 0.745000   -365.161477   -1505.618447
 0.750000   -372.796613   -1552.261851
 0.755000   -380.684096   -1601.593805
 0.760000   -388.812551   -1648.033148
 0.765000   -397.164427   -1693.441190
 0.770000   -405.746963   -1732.322553
 0.775000   -414.487653   -1770.275002
 0.780000   -423.449713   -1822.557501
 0.785000   -432.713228   -1888.059052
 0.790000   -442.330304   -1961.346617
 0.795000   -452.326694   -2038.740332
 0.800000   -462.717707   -2119.398155
 0.805000   -473.520676   -2203.026910
 0.810000   -484.747976   -2271.416133
 0.815000   -496.234837   -2333.445766
 0.820000   -508.082434   -2434.025171
 0.825000   -520.575089   -2555.208384
 0.830000   -533.634518   -2668.427991
 0.835000   -547.259369   -2789.253624
 0.840000   -561.527054   -2927.285281
 0.845000   -576.532221   -3078.694827
 0.850000   -592.314002   -3233.331952
 0.855000   -608.865541   -3394.149054
 0.860000   -626.255493   -3561.851532
 0.865000   -644.484056   -3730.581509
 0.870000   -663.561308   -3907.310814
 0.875000   -683.557164   -4130.503413
 0.880000   -704.866342   -4524.348715
 0.885000   -728.800652   -5050.248681
 0.890000   -755.368829   -5646.723199
 0.895000   -785.267884   -6407.586621
 0.900000   -819.444695   -7412.780598
 0.905000   -859.395690   -8743.533765
 0.910000   -906.880033   -10461.377575
 0.915000   -964.009465   -12648.038585
 0.920000   -1033.360418   -15352.746822
 0.925000   -1117.536934   -18443.509860
 0.930000   -1217.795517   -21460.287617
 0.935000   -1332.139810   -23670.041274
 0.940000   -1454.495930   -24257.188417
 0.945000   -1574.711694   -22958.742594
 0.950000   -1684.083356   -23742.537082
 0.955000   -1812.137065   -32262.657114
 0.960000   -2006.709927   -49420.444892
 0.965000   -2306.341514   -70925.613115
 0.970000   -2715.966058   -86375.879419
 0.975000   -3170.100308   -83265.906186
 0.980000   -3548.625120   -60630.354593
 0.985000   -3776.403854   -39042.164098
 0.990000   -3939.046761   -61167.025650
 0.995000   -4388.074110   -3317293.335085
 1.000000   -37111.980112   -9772269.065477
201 psinorm omevb() domevb/dpsiN
 0.000000   56.428961   122.628930
 0.005000   56.845830   44.118536
 0.010000   56.870147   -0.115153
 0.015000   56.844679   -7.654523
 0.020000   56.793602   -12.105879
 0.025000   56.723620   -15.695824
 0.030000   56.636643   -18.907985
 0.035000   56.534540   -21.351851
 0.040000   56.423125   -23.060957
 0.045000   56.303930   -24.180613
 0.050000   56.181319   -24.409919
 0.055000   56.059831   -23.680390
 0.060000   55.944515   -22.400383
 0.065000   55.835827   -20.895235
 0.070000   55.735562   -19.176142
 0.075000   55.644066   -17.612586
 0.080000   55.559437   -16.288631
 0.085000   55.481180   -15.375960
 0.090000   55.405677   -15.254151
 0.095000   55.328638   -15.691460
 0.100000   55.248762   -16.237871
 0.105000   55.166259   -16.803109
 0.110000   55.080731   -17.408334
 0.115000   54.992176   -18.048133
 0.120000   54.900250   -18.548903
 0.125000   54.806687   -18.659136
 0.130000   54.713659   -18.580106
 0.135000   54.620886   -18.501806
 0.140000   54.528641   -18.450444
 0.145000   54.436382   -18.629122
 0.150000   54.342349   -18.993055
 0.155000   54.246451   -19.569694
 0.160000   54.146652   -20.206572
 0.165000   54.044385   -20.955888
 0.170000   53.937094   -21.845108
 0.175000   53.825934   -22.654768
 0.180000   53.710546   -23.739179
 0.185000   53.588542   -25.000317
 0.190000   53.460543   -26.368903
 0.195000   53.324853   -27.732166
 0.200000   53.183221   -29.223284
 0.205000   53.032621   -31.084637
 0.210000   52.872375   -33.232448
 0.215000   52.700296   -35.635436
 0.220000   52.516020   -37.898890
 0.225000   52.321307   -40.082515
 0.230000   52.115195   -42.307818
 0.235000   51.898229   -45.144874
 0.240000   51.663746   -47.211472
 0.245000   51.426114   -47.564981
 0.250000   51.188097   -47.771505
 0.255000   50.948399   -47.967134
 0.260000   50.708425   -47.764055
 0.265000   50.470759   -47.587306
 0.270000   50.232552   -46.800251
 0.275000   50.002756   -45.142559
 0.280000   49.781127   -44.046794
 0.285000   49.562288   -43.594266
 0.290000   49.345184   -43.337714
 0.295000   49.128911   -42.973208
 0.300000   48.915452   -42.957969
 0.305000   48.699331   -44.566634
 0.310000   48.469786   -47.306421
 0.315000   48.226267   -50.232618
 0.320000   47.967459   -53.319430
 0.325000   47.693073   -56.172431
 0.330000   47.405735   -58.991461
 0.335000   47.103158   -62.044396
 0.340000   46.785291   -64.421277
 0.345000   46.458946   -65.803675
 0.350000   46.127254   -66.595786
 0.355000   45.792988   -67.437292
 0.360000   45.452881   -68.835703
 0.365000   45.104631   -70.149043
 0.370000   44.751391   -71.441269
 0.375000   44.390218   -73.209144
 0.380000   44.019300   -75.701451
 0.385000   43.633203   -78.556441
 0.390000   43.233735   -80.760659
 0.395000   42.825597   -82.679996
 0.400000   42.406935   -84.672352
 0.405000   41.978873   -86.688039
 0.410000   41.540055   -89.944055
 0.415000   41.079433   -94.994518
 0.420000   40.590110   -101.195480
 0.425000   40.067478   -109.477547
 0.430000   39.495334   -119.295970
 0.435000   38.874518   -129.511433
 0.440000   38.200220   -140.454553
 0.445000   37.469973   -150.254553
 0.450000   36.697674   -157.717751
 0.455000   35.892795   -163.279873
 0.460000   35.064876   -166.411969
 0.465000   34.228676   -166.751305
 0.470000   33.397362   -163.626703
 0.475000   32.592409   -157.066811
 0.480000   31.826694   -148.812306
 0.485000   31.104285   -139.091748
 0.490000   30.435777   -128.493383
 0.495000   29.819352   -118.140040
 0.500000   29.254376   -108.490257
 0.505000   28.734449   -100.548311
 0.510000   28.248893   -94.368992
 0.515000   27.790759   -89.760242
 0.520000   27.351291   -86.457516
 0.525000   26.926184   -83.930035
 0.530000   26.511991   -81.941400
 0.535000   26.106770   -80.103136
 0.540000   25.710959   -77.977645
 0.545000   25.326994   -75.832686
 0.550000   24.952632   -73.933514
 0.555000   24.587658   -71.871276
 0.560000   24.233920   -69.491948
 0.565000   23.892739   -67.070605
 0.570000   23.563214   -64.733783
 0.575000   23.245401   -62.385412
 0.580000   22.939359   -59.979292
 0.585000   22.645608   -57.730437
 0.590000   22.362055   -55.724106
 0.595000   22.088367   -53.889842
 0.600000   21.823157   -52.379412
 0.605000   21.564573   -51.215116
 0.610000   21.311006   -50.265784
 0.615000   21.061915   -49.543434
 0.620000   20.815571   -49.076955
 0.625000   20.571146   -48.760456
 0.630000   20.327967   -48.674092
 0.635000   20.084405   -48.766003
 0.640000   19.840307   -48.629260
 0.645000   19.598112   -48.384980
 0.650000   19.356457   -48.321843
 0.655000   19.114894   -48.550064
 0.660000   18.870956   -49.358488
 0.665000   18.621309   -51.027032
 0.670000   18.360686   -53.578094
 0.675000   18.085528   -57.450284
 0.680000   17.786183   -62.688204
 0.685000   17.458646   -68.293604
 0.690000   17.103247   -74.085001
 0.695000   16.717796   -80.921990
 0.700000   16.294027   -84.561482
 0.705000   15.872181   -85.444951
 0.710000   15.439578   -87.176133
 0.715000   15.000420   -87.927955
 0.720000   14.560298   -87.625885
 0.725000   14.124161   -86.521480
 0.730000   13.695083   -82.153328
 0.735000   13.302628   -76.111109
 0.740000   12.933972   -71.076151
 0.745000   12.591866   -65.705792
 0.750000   12.276914   -60.568145
 0.755000   11.986185   -54.340984
 0.760000   11.733504   -51.250643
 0.765000   11.473678   -52.582346
 0.770000   11.207681   -55.022608
 0.775000   10.923452   -59.682398
 0.780000   10.610857   -65.790378
 0.785000   10.265548   -71.760014
 0.790000   9.893257   -80.363358
 0.795000   9.461915   -90.706814
 0.800000   8.986189   -99.277305
 0.805000   8.469142   -107.155700
 0.810000   7.914632   -113.809789
 0.815000   7.331044   -119.546615
 0.820000   6.719165   -123.922970
 0.825000   6.091814   -126.210916
 0.830000   5.457056   -127.199661
 0.835000   4.819817   -127.036035
 0.840000   4.186696   -124.676316
 0.845000   3.573054   -120.497718
 0.850000   2.981719   -114.769034
 0.855000   2.425364   -108.138463
 0.860000   1.900334   -102.910925
 0.865000   1.396255   -100.648808
 0.870000   0.893846   -101.914237
 0.875000   0.377112   -109.956530
 0.880000   -0.205719   -126.442323
 0.885000   -0.887311   -151.200215
 0.890000   -1.717721   -191.232148
 0.895000   -2.799632   -254.662479
 0.900000   -4.264346   -346.524304
 0.905000   -6.264875   -478.351430
 0.910000   -9.047860   -661.925548
 0.915000   -12.884131   -906.916786
 0.920000   -18.117028   -1245.177231
 0.925000   -25.335903   -1719.109311
 0.930000   -35.308121   -2361.577342
 0.935000   -48.951677   -3186.005774
 0.940000   -67.168179   -4101.629804
 0.945000   -89.967975   -4805.126057
 0.950000   -115.219440   -4844.688813
 0.955000   -138.414863   -3802.461799
 0.960000   -153.244058   -1657.815669
 0.965000   -154.993020   976.946268
 0.970000   -143.474595   3237.029735
 0.975000   -122.622722   4559.243765
 0.980000   -97.882157   4897.664256
 0.985000   -73.646080   4556.845536
 0.990000   -52.313702   3892.466229
 0.995000   -34.721417   3137.417974
 1.000000   -20.939522   2375.340038
201 psinorm omepp() domepp/dpsiN
 0.000000   16.629179   8.324490
 0.005000   16.673687   9.478844
 0.010000   16.723967   9.948979
 0.015000   16.773177   9.734332
 0.020000   16.821311   9.518570
 0.025000   16.868363   9.301733
 0.030000   16.914328   9.083858
 0.035000   16.959201   8.864982
 0.040000   17.002978   8.645144
 0.045000   17.045653   8.424382
 0.050000   17.087222   8.202734
 0.055000   17.127680   7.980238
 0.060000   17.167024   7.756934
 0.065000   17.205249   7.532859
 0.070000   17.242353   7.308054
 0.075000   17.278330   7.082556
 0.080000   17.313178   6.856404
 0.085000   17.346894   6.629639
 0.090000   17.379475   6.402298
 0.095000   17.410917   6.174422
 0.100000   17.441219   5.946050
 0.105000   17.470378   5.717220
 0.110000   17.498391   5.487972
 0.115000   17.525257   5.258347
 0.120000   17.550974   5.028382
 0.125000   17.575541   4.798117
 0.130000   17.598956   4.567592
 0.135000   17.621217   4.336847
 0.140000   17.642324   4.105919
 0.145000   17.662276   3.874850
 0.150000   17.681073   3.643677
 0.155000   17.698713   3.412440
 0.160000   17.715197   3.181178
 0.165000   17.730525   2.949931
 0.170000   17.744696   2.718736
 0.175000   17.757712   2.487633
 0.180000   17.769573   2.256660
 0.185000   17.780279   2.025856
 0.190000   17.789831   1.795260
 0.195000   17.798231   1.564909
 0.200000   17.805480   1.334842
 0.205000   17.811580   1.105096
 0.210000   17.816531   0.875710
 0.215000   17.820337   0.646720
 0.220000   17.822998   0.418165
 0.225000   17.824518   0.190082
 0.230000   17.824899   -0.037494
 0.235000   17.824144   -0.264523
 0.240000   17.822254   -0.490972
 0.245000   17.819234   -0.716802
 0.250000   17.815086   -0.941978
 0.255000   17.809814   -1.166464
 0.260000   17.803421   -1.390225
 0.265000   17.795912   -1.613225
 0.270000   17.787289   -1.835430
 0.275000   17.777557   -2.056804
 0.280000   17.766721   -2.277314
 0.285000   17.754784   -2.496926
 0.290000   17.741752   -2.715605
 0.295000   17.727628   -2.933318
 0.300000   17.712419   -3.150032
 0.305000   17.696128   -3.365714
 0.310000   17.678762   -3.580333
 0.315000   17.660325   -3.793855
 0.320000   17.640823   -4.006249
 0.325000   17.620262   -4.217484
 0.330000   17.598648   -4.427529
 0.335000   17.575987   -4.636353
 0.340000   17.552285   -4.843926
 0.345000   17.527548   -5.050218
 0.350000   17.501782   -5.255199
 0.355000   17.474996   -5.458842
 0.360000   17.447194   -5.661116
 0.365000   17.418384   -5.861995
 0.370000   17.388574   -6.061449
 0.375000   17.357770   -6.259452
 0.380000   17.325980   -6.455978
 0.385000   17.293210   -6.650998
 0.390000   17.259470   -6.844488
 0.395000   17.224765   -7.036421
 0.400000   17.189105   -7.226774
 0.405000   17.152498   -7.415520
 0.410000   17.114950   -7.602635
 0.415000   17.076471   -7.788097
 0.420000   17.037069   -7.971881
 0.425000   16.996752   -8.153965
 0.430000   16.955530   -8.334327
 0.435000   16.913409   -8.512944
 0.440000   16.870400   -8.689795
 0.445000   16.826511   -8.864859
 0.450000   16.781751   -9.038117
 0.455000   16.736130   -9.209547
 0.460000   16.689656   -9.379131
 0.465000   16.642339   -9.546849
 0.470000   16.594188   -9.712684
 0.475000   16.545212   -9.876616
 0.480000   16.495421   -10.038630
 0.485000   16.444826   -10.198707
 0.490000   16.393434   -10.356832
 0.495000   16.341257   -10.512989
 0.500000   16.288304   -10.667161
 0.505000   16.234586   -10.819335
 0.510000   16.180111   -10.969495
 0.515000   16.124891   -11.117629
 0.520000   16.068935   -11.263723
 0.525000   16.012253   -11.407763
 0.530000   15.954857   -11.549738
 0.535000   15.896756   -11.689636
 0.540000   15.837961   -11.827445
 0.545000   15.778482   -11.963156
 0.550000   15.718329   -12.096757
 0.555000   15.657514   -12.228240
 0.560000   15.596047   -12.357595
 0.565000   15.533938   -12.484813
 0.570000   15.471199   -12.609888
 0.575000   15.407839   -12.732810
 0.580000   15.343871   -12.853575
 0.585000   15.279303   -12.972176
 0.590000   15.214149   -13.088607
 0.595000   15.148417   -13.202863
 0.600000   15.082120   -13.314942
 0.605000   15.015268   -13.424840
 0.610000   14.947872   -13.532554
 0.615000   14.879942   -13.638084
 0.620000   14.811491   -13.741429
 0.625000   14.742528   -13.842592
 0.630000   14.673065   -13.941574
 0.635000   14.603112   -14.038381
 0.640000   14.532681   -14.133019
 0.645000   14.461782   -14.225497
 0.650000   14.390426   -14.315828
 0.655000   14.318624   -14.404026
 0.660000   14.246386   -14.490112
 0.665000   14.173723   -14.574111
 0.670000   14.100645   -14.656053
 0.675000   14.027162   -14.735979
 0.680000   13.953285   -14.813936
 0.685000   13.879023   -14.889985
 0.690000   13.804385   -14.964199
 0.695000   13.729381   -15.036670
 0.700000   13.654019   -15.107511
 0.705000   13.578306   -15.176858
 0.710000   13.502250   -15.244883
 0.715000   13.425857   -15.311792
 0.720000   13.349132   -15.377840
 0.725000   13.272079   -15.443338
 0.730000   13.194699   -15.508664
 0.735000   13.116992   -15.574277
 0.740000   13.038956   -15.640733
 0.745000   12.960585   -15.708704
 0.750000   12.881869   -15.778998
 0.755000   12.802795   -15.852581
 0.760000   12.723343   -15.930604
 0.765000   12.643489   -16.014428
 0.770000   12.563199   -16.105649
 0.775000   12.482432   -16.206126
 0.780000   12.401137   -16.317998
 0.785000   12.319252   -16.443691
 0.790000   12.236701   -16.585914
 0.795000   12.153393   -16.747617
 0.800000   12.069224   -16.931918
 0.805000   11.984074   -17.141955
 0.810000   11.897805   -17.380655
 0.815000   11.810267   -17.650355
 0.820000   11.721301   -17.952230
 0.825000   11.630745   -18.285435
 0.830000   11.538447   -18.645815
 0.835000   11.444287   -19.024001
 0.840000   11.348207   -19.402565
 0.845000   11.250261   -19.751763
 0.850000   11.150689   -20.023076
 0.855000   11.050030   -20.139295
 0.860000   10.949296   -19.979066
 0.865000   10.850240   -19.352437
 0.870000   10.755772   -17.961609
 0.875000   10.670624   -15.337182
 0.880000   10.602400   -10.733582
 0.885000   10.563288   -2.956423
 0.890000   10.572836   9.923159
 0.895000   10.662519   31.039948
 0.900000   10.883235   65.504610
 0.905000   11.317566   121.632551
 0.910000   12.099561   212.816043
 0.915000   13.445726   360.112872
 0.920000   15.700690   595.061423
 0.925000   19.396340   960.482091
 0.930000   25.305511   1502.898752
 0.935000   34.425328   2243.573965
 0.940000   47.741250   3113.270282
 0.945000   65.558031   3863.632019
 0.950000   86.377570   4050.044397
 0.955000   106.058475   3239.119677
 0.960000   118.768767   1408.754334
 0.965000   120.146018   -865.077932
 0.970000   110.117988   -2762.274216
 0.975000   92.523276   -3774.436502
 0.980000   72.373623   -3895.793978
 0.985000   53.565336   -3423.834764
 0.990000   38.135275   -2701.454059
 0.995000   26.550795   -1977.815330
 1.000000   18.357122   -1299.654043
201 psinorm kpol(km/s/T) dkpol/dpsiN
 0.000000   -0.007620   154.833253
 0.005000   0.603766   89.721030
 0.010000   0.889590   53.041092
 0.015000   1.134176   47.092078
 0.020000   1.360511   43.986563
 0.025000   1.574042   41.471024
 0.030000   1.775221   39.075356
 0.035000   1.964796   37.207414
 0.040000   2.147295   35.823442
 0.045000   2.323030   34.813207
 0.050000   2.495427   34.443279
 0.055000   2.667463   34.800579
 0.060000   2.843433   35.850632
 0.065000   3.025969   37.202458
 0.070000   3.215458   38.604675
 0.075000   3.412016   39.816210
 0.080000   3.613620   40.734145
 0.085000   3.819357   41.227438
 0.090000   4.025894   41.203718
 0.095000   4.231395   40.672360
 0.100000   4.432618   39.823687
 0.105000   4.629631   38.913195
 0.110000   4.821750   37.910388
 0.115000   5.008735   36.907800
 0.120000   5.190828   35.999945
 0.125000   5.368735   35.352147
 0.130000   5.544349   34.836428
 0.135000   5.717099   34.270023
 0.140000   5.887049   33.631326
 0.145000   6.053412   32.642654
 0.150000   6.213476   31.370655
 0.155000   6.367119   29.842428
 0.160000   6.511900   28.234517
 0.165000   6.649464   26.479458
 0.170000   6.776695   24.522449
 0.175000   6.894689   22.360115
 0.180000   7.000296   19.986435
 0.185000   7.094553   17.719622
 0.190000   7.177492   15.360409
 0.195000   7.248157   13.227418
 0.200000   7.309766   11.199917
 0.205000   7.360156   9.233253
 0.210000   7.402099   7.622533
 0.215000   7.436381   5.978758
 0.220000   7.461887   4.368221
 0.225000   7.480064   2.622909
 0.230000   7.488116   0.534910
 0.235000   7.485413   -1.572845
 0.240000   7.472387   -3.909541
 0.245000   7.446317   -6.435377
 0.250000   7.408033   -8.936770
 0.255000   7.356950   -11.612004
 0.260000   7.291913   -14.191199
 0.265000   7.215038   -16.706408
 0.270000   7.124849   -19.499821
 0.275000   7.020039   -22.280509
 0.280000   6.902044   -25.248088
 0.285000   6.767559   -28.628886
 0.290000   6.615755   -32.095467
 0.295000   6.446604   -35.868209
 0.300000   6.257073   -39.977201
 0.305000   6.046832   -44.078045
 0.310000   5.816293   -48.334738
 0.315000   5.563484   -52.767533
 0.320000   5.288617   -57.015618
 0.325000   4.993328   -60.913013
 0.330000   4.679487   -64.192943
 0.335000   4.351399   -66.542948
 0.340000   4.014058   -68.048771
 0.345000   3.670911   -68.890570
 0.350000   3.325152   -69.087592
 0.355000   2.980035   -69.396312
 0.360000   2.631189   -70.505402
 0.365000   2.274981   -72.336752
 0.370000   1.907822   -74.994459
 0.375000   1.525037   -78.616009
 0.380000   1.121661   -83.600524
 0.385000   0.689031   -89.317296
 0.390000   0.228488   -94.569793
 0.395000   -0.256667   -99.191151
 0.400000   -0.763423   -103.275813
 0.405000   -1.289425   -107.171424
 0.410000   -1.835137   -112.314804
 0.415000   -2.412573   -119.244636
 0.420000   -3.027584   -127.286097
 0.425000   -3.685434   -136.282250
 0.430000   -4.390406   -145.891563
 0.435000   -5.144349   -155.721771
 0.440000   -5.947624   -165.573603
 0.445000   -6.800085   -173.464854
 0.450000   -7.682272   -177.949935
 0.455000   -8.579585   -179.259050
 0.460000   -9.474863   -177.053509
 0.465000   -10.350120   -170.968603
 0.470000   -11.184549   -159.935141
 0.475000   -11.949471   -144.779139
 0.480000   -12.632340   -127.861760
 0.485000   -13.228089   -110.181122
 0.490000   -13.734152   -92.623422
 0.495000   -14.154323   -75.802329
 0.500000   -14.492175   -60.683352
 0.505000   -14.761157   -48.741120
 0.510000   -14.979586   -39.856307
 0.515000   -15.159720   -33.437004
 0.520000   -15.313956   -28.991814
 0.525000   -15.449638   -25.951194
 0.530000   -15.573468   -24.037598
 0.535000   -15.690014   -22.577069
 0.540000   -15.799239   -21.043306
 0.545000   -15.900447   -19.418117
 0.550000   -15.993420   -17.801634
 0.555000   -16.078463   -16.019839
 0.560000   -16.153618   -13.823581
 0.565000   -16.216699   -11.340717
 0.570000   -16.267025   -8.680906
 0.575000   -16.303508   -5.803476
 0.580000   -16.325060   -2.811052
 0.585000   -16.331618   -0.054431
 0.590000   -16.325605   2.491312
 0.595000   -16.306705   4.870418
 0.600000   -16.276900   6.803448
 0.605000   -16.238671   8.267906
 0.610000   -16.194221   9.391991
 0.615000   -16.144751   10.197853
 0.620000   -16.092243   10.619333
 0.625000   -16.038558   10.842850
 0.630000   -15.983814   11.021898
 0.635000   -15.928339   11.134362
 0.640000   -15.872471   11.126748
 0.645000   -15.817071   11.108819
 0.650000   -15.761382   11.127738
 0.655000   -15.705794   11.033656
 0.660000   -15.651046   10.813444
 0.665000   -15.597659   10.549397
 0.670000   -15.545552   10.243431
 0.675000   -15.495225   9.812081
 0.680000   -15.447431   9.299983
 0.685000   -15.402225   8.772514
 0.690000   -15.359706   8.186455
 0.695000   -15.320361   7.492966
 0.700000   -15.284776   6.739594
 0.705000   -15.252965   5.954012
 0.710000   -15.225236   5.089064
 0.715000   -15.202074   4.143120
 0.720000   -15.183805   3.157014
 0.725000   -15.170504   2.133337
 0.730000   -15.162472   1.056289
 0.735000   -15.159941   -0.054354
 0.740000   -15.163015   -1.175181
 0.745000   -15.171693   -2.297697
 0.750000   -15.185992   -3.423545
 0.755000   -15.205928   -4.541081
 0.760000   -15.231403   -5.633919
 0.765000   -15.262268   -6.702690
 0.770000   -15.298430   -7.813745
 0.775000   -15.340405   -9.057174
 0.780000   -15.389002   -10.546457
 0.785000   -15.445870   -12.422708
 0.790000   -15.513229   -14.993983
 0.795000   -15.595809   -18.192702
 0.800000   -15.695156   -21.743953
 0.805000   -15.813249   -25.673022
 0.810000   -15.951886   -29.858077
 0.815000   -16.111830   -34.101676
 0.820000   -16.292903   -38.339363
 0.825000   -16.495223   -42.034659
 0.830000   -16.713249   -44.627313
 0.835000   -16.941496   -46.022410
 0.840000   -17.173473   -46.080415
 0.845000   -17.402301   -44.836381
 0.850000   -17.621837   -42.059982
 0.855000   -17.822900   -38.033676
 0.860000   -18.002174   -33.515941
 0.865000   -18.158060   -29.032093
 0.870000   -18.292495   -24.659209
 0.875000   -18.404652   -20.344126
 0.880000   -18.495936   -16.317158
 0.885000   -18.567823   -12.399883
 0.890000   -18.619935   -7.860377
 0.895000   -18.646427   -2.049898
 0.900000   -18.640434   5.594134
 0.905000   -18.590486   16.094072
 0.910000   -18.479493   30.141273
 0.915000   -18.289073   47.977317
 0.920000   -17.999720   70.800235
 0.925000   -17.581071   98.446932
 0.930000   -17.015251   127.291650
 0.935000   -16.308154   157.095901
 0.940000   -15.444292   191.208686
 0.945000   -14.396067   224.642450
 0.950000   -13.197867   247.090112
 0.955000   -11.925166   255.443916
 0.960000   -10.643428   250.240315
 0.965000   -9.422763   236.168306
 0.970000   -8.281745   224.296060
 0.975000   -7.179803   239.150372
 0.980000   -5.890241   314.564379
 0.985000   -4.034159   466.617866
 0.990000   -1.224063   664.986057
 0.995000   2.615702   815.130567
 1.000000   6.927243   909.485958
201 psinorm omghb() domghb/dpsiN
 0.000000   -0.000055   0.004700
 0.005000   -0.000099   -0.022315
 0.010000   -0.000278   -0.000230
 0.015000   -0.000101   0.045329
 0.020000   0.000175   0.062518
 0.025000   0.000524   0.073086
 0.030000   0.000906   0.083754
 0.035000   0.001361   0.088966
 0.040000   0.001796   0.087049
 0.045000   0.002232   0.076823
 0.050000   0.002564   0.053246
 0.055000   0.002764   0.027226
 0.060000   0.002836   0.001513
 0.065000   0.002779   -0.025956
 0.070000   0.002577   -0.031940
 0.075000   0.002460   -0.016868
 0.080000   0.002408   -0.004078
 0.085000   0.002419   0.013796
 0.090000   0.002546   0.043187
 0.095000   0.002851   0.063966
 0.100000   0.003185   0.095108
 0.105000   0.003802   0.103340
 0.110000   0.004219   0.094425
 0.115000   0.004746   0.088913
 0.120000   0.005108   0.084076
 0.125000   0.005587   0.073719
 0.130000   0.005845   0.055142
 0.135000   0.006139   0.046843
 0.140000   0.006314   0.069415
 0.145000   0.006833   0.099222
 0.150000   0.007306   0.113643
 0.155000   0.007969   0.127642
 0.160000   0.008582   0.137926
 0.165000   0.009348   0.169974
 0.170000   0.010282   0.183804
 0.175000   0.011186   0.205420
 0.180000   0.012336   0.212073
 0.185000   0.013307   0.211973
 0.190000   0.014456   0.255086
 0.195000   0.015858   0.311409
 0.200000   0.017570   0.347320
 0.205000   0.019331   0.333708
 0.210000   0.020907   0.362576
 0.215000   0.022957   0.453889
 0.220000   0.025446   0.561764
 0.225000   0.028575   0.488433
 0.230000   0.030330   0.370798
 0.235000   0.032283   0.381820
 0.240000   0.034149   0.360879
 0.245000   0.035891   0.324968
 0.250000   0.037398   0.349355
 0.255000   0.039385   0.109793
 0.260000   0.038496   -0.064238
 0.265000   0.038743   0.043391
 0.270000   0.038930   0.025771
 0.275000   0.039000   0.023451
 0.280000   0.039165   -0.009492
 0.285000   0.038905   -0.013139
 0.290000   0.039033   0.098228
 0.295000   0.039888   0.236036
 0.300000   0.041394   0.343790
 0.305000   0.043326   0.467335
 0.310000   0.046067   0.444302
 0.315000   0.047769   0.724715
 0.320000   0.053314   0.957480
 0.325000   0.057343   0.786965
 0.330000   0.061184   0.706916
 0.335000   0.064413   0.558038
 0.340000   0.066764   0.475704
 0.345000   0.069170   0.506800
 0.350000   0.071832   0.440906
 0.355000   0.073579   0.351579
 0.360000   0.075348   0.378211
 0.365000   0.077361   0.488471
 0.370000   0.080233   0.651053
 0.375000   0.083871   0.632061
 0.380000   0.086553   0.623122
 0.385000   0.090103   0.745046
 0.390000   0.094004   0.761981
 0.395000   0.097722   0.683028
 0.400000   0.100834   0.554155
 0.405000   0.103264   0.697938
 0.410000   0.107813   1.127826
 0.415000   0.114542   1.499053
 0.420000   0.122804   1.988726
 0.425000   0.134429   2.461531
 0.430000   0.147419   2.551783
 0.435000   0.159947   2.582760
 0.440000   0.173247   2.589538
 0.445000   0.185843   2.342046
 0.450000   0.196667   2.091479
 0.455000   0.206757   1.498814
 0.460000   0.211655   0.640436
 0.465000   0.213162   -0.073735
 0.470000   0.210918   -0.831036
 0.475000   0.204851   -1.462701
 0.480000   0.196291   -2.064754
 0.485000   0.184204   -2.403391
 0.490000   0.172257   -2.333033
 0.495000   0.160874   -2.163115
 0.500000   0.150626   -1.923143
 0.505000   0.141642   -1.623946
 0.510000   0.134386   -1.275555
 0.515000   0.128887   -0.838129
 0.520000   0.126005   -0.521268
 0.525000   0.123674   -0.444931
 0.530000   0.121556   -0.322966
 0.535000   0.120444   -0.287435
 0.540000   0.118682   -0.367269
 0.545000   0.116772   -0.393172
 0.550000   0.114750   -0.432505
 0.555000   0.112446   -0.496734
 0.560000   0.109782   -0.473609
 0.565000   0.107710   -0.437991
 0.570000   0.105403   -0.510395
 0.575000   0.102606   -0.554574
 0.580000   0.099857   -0.518363
 0.585000   0.097423   -0.461359
 0.590000   0.095243   -0.411754
 0.595000   0.093305   -0.351034
 0.600000   0.091733   -0.258723
 0.605000   0.090718   -0.198158
 0.610000   0.089751   -0.155932
 0.615000   0.089159   -0.012610
 0.620000   0.089625   0.046663
 0.625000   0.089625   0.020154
 0.630000   0.089827   0.037335
 0.635000   0.089999   0.045152
 0.640000   0.090278   0.066888
 0.645000   0.090668   0.178697
 0.650000   0.092065   0.163486
 0.655000   0.092302   0.157453
 0.660000   0.093640   0.353928
 0.665000   0.095842   0.614770
 0.670000   0.099787   0.998165
 0.675000   0.105823   1.827294
 0.680000   0.118060   2.091465
 0.685000   0.126738   1.582464
 0.690000   0.133885   1.466909
 0.695000   0.141407   1.411383
 0.700000   0.147999   1.178680
 0.705000   0.153194   1.319059
 0.710000   0.161189   0.688223
 0.715000   0.160076   -0.429105
 0.720000   0.156898   -0.559424
 0.725000   0.154482   -0.667971
 0.730000   0.150219   -1.015405
 0.735000   0.144328   -1.417337
 0.740000   0.136045   -1.921962
 0.745000   0.125108   -1.823848
 0.750000   0.117807   -1.313405
 0.755000   0.111974   -0.902991
 0.760000   0.108777   -0.287583
 0.765000   0.109098   0.114635
 0.770000   0.109923   0.758668
 0.775000   0.116685   2.127837
 0.780000   0.131202   2.705003
 0.785000   0.143735   2.755442
 0.790000   0.158756   2.943686
 0.795000   0.173172   2.822465
 0.800000   0.186981   2.913759
 0.805000   0.202310   2.856169
 0.810000   0.215542   2.210829
 0.815000   0.224418   1.694645
 0.820000   0.232489   1.403545
 0.825000   0.238453   1.031101
 0.830000   0.242800   0.674986
 0.835000   0.245203   -0.328237
 0.840000   0.239517   -1.247683
 0.845000   0.232726   -1.477286
 0.850000   0.224745   -1.741551
 0.855000   0.215311   -1.738011
 0.860000   0.207365   -0.856172
 0.865000   0.206749   -0.452472
 0.870000   0.202840   0.306779
 0.875000   0.209817   2.455428
 0.880000   0.227394   4.870286
 0.885000   0.258520   7.924057
 0.890000   0.306635   13.798523
 0.895000   0.396505   17.652903
 0.900000   0.483164   21.157164
 0.905000   0.608077   27.882258
 0.910000   0.761986   33.104173
 0.915000   0.939118   36.703042
 0.920000   1.129017   42.815522
 0.925000   1.367274   39.653253
 0.930000   1.525549   30.316519
 0.935000   1.670439   21.568469
 0.940000   1.741234   1.386823
 0.945000   1.684307   -25.872379
 0.950000   1.482510   -55.198232
 0.955000   1.132325   -101.873217
 0.960000   0.463778   -138.226179
 0.965000   -0.249937   -139.997591
 0.970000   -0.936198   -127.195723
 0.975000   -1.521894   -103.558224
 0.980000   -1.971780   -77.529456
 0.985000   -2.297189   -43.934387
 0.990000   -2.411124   -3.760401
 0.995000   -2.334793   38.572067
 1.000000   -2.025403   85.183761
201 psinorm nz1(10^20/m^3) dnz1/dpsiN
 0.000000   0.038202   0.000008
 0.005000   0.038200   -0.001138
 0.010000   0.038191   -0.002296
 0.015000   0.038177   -0.003473
 0.020000   0.038156   -0.004667
 0.025000   0.038130   -0.005873
 0.030000   0.038098   -0.007083
 0.035000   0.038059   -0.008292
 0.040000   0.038015   -0.009491
 0.045000   0.037964   -0.010676
 0.050000   0.037908   -0.011845
 0.055000   0.037846   -0.012994
 0.060000   0.037778   -0.014118
 0.065000   0.037705   -0.015214
 0.070000   0.037626   -0.016276
 0.075000   0.037542   -0.017308
 0.080000   0.037453   -0.018315
 0.085000   0.037359   -0.019297
 0.090000   0.037260   -0.020256
 0.095000   0.037156   -0.021194
 0.100000   0.037048   -0.022118
 0.105000   0.036935   -0.023028
 0.110000   0.036817   -0.023918
 0.115000   0.036696   -0.024781
 0.120000   0.036570   -0.025614
 0.125000   0.036440   -0.026413
 0.130000   0.036306   -0.027178
 0.135000   0.036168   -0.027904
 0.140000   0.036026   -0.028586
 0.145000   0.035882   -0.029223
 0.150000   0.035734   -0.029814
 0.155000   0.035584   -0.030357
 0.160000   0.035431   -0.030848
 0.165000   0.035275   -0.031284
 0.170000   0.035118   -0.031664
 0.175000   0.034959   -0.031989
 0.180000   0.034798   -0.032255
 0.185000   0.034636   -0.032461
 0.190000   0.034473   -0.032603
 0.195000   0.034310   -0.032679
 0.200000   0.034147   -0.032704
 0.205000   0.033983   -0.032690
 0.210000   0.033820   -0.032648
 0.215000   0.033657   -0.032599
 0.220000   0.033494   -0.032574
 0.225000   0.033331   -0.032608
 0.230000   0.033168   -0.032683
 0.235000   0.033004   -0.032762
 0.240000   0.032840   -0.032842
 0.245000   0.032676   -0.032912
 0.250000   0.032511   -0.032967
 0.255000   0.032346   -0.033012
 0.260000   0.032181   -0.032985
 0.265000   0.032016   -0.032847
 0.270000   0.031852   -0.032621
 0.275000   0.031690   -0.032295
 0.280000   0.031529   -0.031862
 0.285000   0.031371   -0.031301
 0.290000   0.031216   -0.030605
 0.295000   0.031065   -0.029801
 0.300000   0.030918   -0.028905
 0.305000   0.030776   -0.027934
 0.310000   0.030639   -0.026903
 0.315000   0.030507   -0.025790
 0.320000   0.030381   -0.024657
 0.325000   0.030261   -0.023570
 0.330000   0.030145   -0.022510
 0.335000   0.030035   -0.021487
 0.340000   0.029930   -0.020512
 0.345000   0.029830   -0.019587
 0.350000   0.029735   -0.018735
 0.355000   0.029643   -0.017948
 0.360000   0.029555   -0.017186
 0.365000   0.029471   -0.016436
 0.370000   0.029391   -0.015694
 0.375000   0.029314   -0.014958
 0.380000   0.029241   -0.014233
 0.385000   0.029172   -0.013523
 0.390000   0.029106   -0.012828
 0.395000   0.029044   -0.012152
 0.400000   0.028984   -0.011496
 0.405000   0.028929   -0.010862
 0.410000   0.028876   -0.010252
 0.415000   0.028826   -0.009668
 0.420000   0.028779   -0.009110
 0.425000   0.028735   -0.008580
 0.430000   0.028693   -0.008081
 0.435000   0.028654   -0.007621
 0.440000   0.028617   -0.007209
 0.445000   0.028582   -0.006843
 0.450000   0.028549   -0.006518
 0.455000   0.028517   -0.006233
 0.460000   0.028486   -0.005987
 0.465000   0.028457   -0.005785
 0.470000   0.028429   -0.005626
 0.475000   0.028401   -0.005503
 0.480000   0.028373   -0.005417
 0.485000   0.028347   -0.005378
 0.490000   0.028320   -0.005389
 0.495000   0.028293   -0.005452
 0.500000   0.028265   -0.005566
 0.505000   0.028237   -0.005730
 0.510000   0.028208   -0.005944
 0.515000   0.028178   -0.006208
 0.520000   0.028146   -0.006519
 0.525000   0.028112   -0.006868
 0.530000   0.028077   -0.007244
 0.535000   0.028040   -0.007654
 0.540000   0.028001   -0.008103
 0.545000   0.027959   -0.008584
 0.550000   0.027915   -0.009095
 0.555000   0.027868   -0.009637
 0.560000   0.027818   -0.010212
 0.565000   0.027766   -0.010841
 0.570000   0.027710   -0.011531
 0.575000   0.027651   -0.012271
 0.580000   0.027587   -0.013052
 0.585000   0.027520   -0.013865
 0.590000   0.027449   -0.014699
 0.595000   0.027373   -0.015545
 0.600000   0.027293   -0.016401
 0.605000   0.027209   -0.017263
 0.610000   0.027121   -0.018131
 0.615000   0.027028   -0.019007
 0.620000   0.026930   -0.019905
 0.625000   0.026829   -0.020831
 0.630000   0.026722   -0.021782
 0.635000   0.026611   -0.022753
 0.640000   0.026495   -0.023741
 0.645000   0.026373   -0.024742
 0.650000   0.026247   -0.025766
 0.655000   0.026116   -0.026789
 0.660000   0.025979   -0.027779
 0.665000   0.025838   -0.028751
 0.670000   0.025692   -0.029748
 0.675000   0.025540   -0.030846
 0.680000   0.025383   -0.032257
 0.685000   0.025218   -0.034072
 0.690000   0.025043   -0.036160
 0.695000   0.024856   -0.038456
 0.700000   0.024658   -0.040927
 0.705000   0.024447   -0.043500
 0.710000   0.024223   -0.046231
 0.715000   0.023985   -0.048921
 0.720000   0.023734   -0.051205
 0.725000   0.023473   -0.053040
 0.730000   0.023203   -0.054409
 0.735000   0.022929   -0.055227
 0.740000   0.022651   -0.055420
 0.745000   0.022374   -0.054863
 0.750000   0.022103   -0.053550
 0.755000   0.021839   -0.051626
 0.760000   0.021586   -0.049187
 0.765000   0.021347   -0.046334
 0.770000   0.021123   -0.043096
 0.775000   0.020916   -0.039596
 0.780000   0.020727   -0.036221
 0.785000   0.020554   -0.033128
 0.790000   0.020396   -0.030268
 0.795000   0.020251   -0.027684
 0.800000   0.020119   -0.025381
 0.805000   0.019997   -0.023408
 0.810000   0.019885   -0.021807
 0.815000   0.019779   -0.020450
 0.820000   0.019680   -0.019182
 0.825000   0.019587   -0.017946
 0.830000   0.019501   -0.016719
 0.835000   0.019420   -0.015507
 0.840000   0.019346   -0.014330
 0.845000   0.019277   -0.013200
 0.850000   0.019214   -0.012119
 0.855000   0.019156   -0.011090
 0.860000   0.019103   -0.010117
 0.865000   0.019055   -0.009212
 0.870000   0.019011   -0.008418
 0.875000   0.018970   -0.007781
 0.880000   0.018933   -0.007317
 0.885000   0.018897   -0.007027
 0.890000   0.018863   -0.006933
 0.895000   0.018828   -0.007212
 0.900000   0.018791   -0.007947
 0.905000   0.018748   -0.009296
 0.910000   0.018698   -0.011832
 0.915000   0.018630   -0.016492
 0.920000   0.018533   -0.024832
 0.925000   0.018382   -0.040004
 0.930000   0.018133   -0.065098
 0.935000   0.017731   -0.102793
 0.940000   0.017105   -0.155186
 0.945000   0.016179   -0.220197
 0.950000   0.014903   -0.289492
 0.955000   0.013284   -0.350029
 0.960000   0.011402   -0.383607
 0.965000   0.009448   -0.379012
 0.970000   0.007612   -0.341281
 0.975000   0.006035   -0.283437
 0.980000   0.004778   -0.220394
 0.985000   0.003831   -0.162899
 0.990000   0.003149   -0.116582
 0.995000   0.002665   -0.082813
 1.000000   0.002321   -0.055042
201 psinorm vtor1(km/s) dvtor1/dpsiN
 0.000000   128.492362   614.879541
 0.005000   130.878278   339.486783
 0.010000   131.887230   177.662671
 0.015000   132.654904   140.234800
 0.020000   133.289578   118.507684
 0.025000   133.839981   104.561750
 0.030000   134.335195   94.618919
 0.035000   134.786170   86.198656
 0.040000   135.197182   79.193009
 0.045000   135.578100   73.573635
 0.050000   135.932918   68.558011
 0.055000   136.263681   63.872151
 0.060000   136.571640   59.719143
 0.065000   136.860872   56.121538
 0.070000   137.132855   52.624079
 0.075000   137.387113   49.294561
 0.080000   137.625801   46.282711
 0.085000   137.849940   43.450211
 0.090000   138.060303   40.618667
 0.095000   138.256127   37.913697
 0.100000   138.439440   35.434942
 0.105000   138.610476   32.953058
 0.110000   138.768970   30.466389
 0.115000   138.915140   28.059152
 0.120000   139.049562   25.667614
 0.125000   139.171816   23.170216
 0.130000   139.281264   20.634069
 0.135000   139.378157   18.075249
 0.140000   139.462016   15.436312
 0.145000   139.532520   12.722185
 0.150000   139.589238   9.948371
 0.155000   139.632003   7.112714
 0.160000   139.660365   4.158372
 0.165000   139.673587   1.152268
 0.170000   139.671888   -1.821681
 0.175000   139.655370   -4.803897
 0.180000   139.623849   -7.819015
 0.185000   139.577180   -10.807063
 0.190000   139.515778   -13.725323
 0.195000   139.439927   -16.570390
 0.200000   139.350075   -19.288140
 0.205000   139.247046   -21.839082
 0.210000   139.131684   -24.227376
 0.215000   139.004772   -26.468696
 0.220000   138.866997   -28.488980
 0.225000   138.719882   -30.200417
 0.230000   138.564993   -31.770445
 0.235000   138.402178   -33.283807
 0.240000   138.232155   -34.644395
 0.245000   138.055734   -35.845909
 0.250000   137.873695   -36.881121
 0.255000   137.686922   -37.638248
 0.260000   137.497313   -38.303994
 0.265000   137.303883   -39.072994
 0.270000   137.106583   -39.867701
 0.275000   136.905205   -40.714180
 0.280000   136.699441   -41.654848
 0.285000   136.488657   -42.773735
 0.290000   136.271704   -44.128433
 0.295000   136.047373   -45.599807
 0.300000   135.815706   -47.040083
 0.305000   135.576972   -48.401980
 0.310000   135.331686   -49.631478
 0.315000   135.080657   -50.651028
 0.320000   134.825176   -51.516386
 0.325000   134.565493   -52.275128
 0.330000   134.302424   -52.884618
 0.335000   134.036647   -53.369723
 0.340000   133.768727   -53.756300
 0.345000   133.499084   -53.974581
 0.350000   133.228981   -54.103447
 0.355000   132.958050   -54.272321
 0.360000   132.686258   -54.440695
 0.365000   132.413643   -54.611840
 0.370000   132.140140   -54.795773
 0.375000   131.865685   -54.936734
 0.380000   131.590772   -55.014494
 0.385000   131.315540   -55.062092
 0.390000   131.040152   -55.071994
 0.395000   130.764820   -55.034093
 0.400000   130.489811   -54.951097
 0.405000   130.215309   -54.821929
 0.410000   129.941591   -54.840234
 0.415000   129.666907   -55.385240
 0.420000   129.387739   -56.752427
 0.425000   129.099382   -59.136923
 0.430000   128.796370   -62.620561
 0.435000   128.473177   -67.577277
 0.440000   128.120597   -74.004383
 0.445000   127.733133   -81.079114
 0.450000   127.309806   -88.514205
 0.455000   126.847991   -96.403819
 0.460000   126.345768   -104.601795
 0.465000   125.801973   -113.322223
 0.470000   125.212545   -122.298325
 0.475000   124.578990   -130.333640
 0.480000   123.909209   -137.173772
 0.485000   123.207252   -143.106693
 0.490000   122.478142   -147.960841
 0.495000   121.727644   -151.645875
 0.500000   120.961683   -153.918802
 0.505000   120.188456   -154.721211
 0.510000   119.414471   -154.562108
 0.515000   118.642835   -153.835142
 0.520000   117.876120   -152.635672
 0.525000   117.116478   -150.997414
 0.530000   116.366146   -148.875899
 0.535000   115.627719   -146.437305
 0.540000   114.901773   -143.855660
 0.545000   114.189162   -141.125304
 0.550000   113.490520   -138.310841
 0.555000   112.806054   -135.468488
 0.560000   112.135835   -132.586182
 0.565000   111.480192   -129.883075
 0.570000   110.837004   -127.507125
 0.575000   110.205121   -125.372333
 0.580000   109.583281   -123.514876
 0.585000   108.969972   -121.970989
 0.590000   108.363571   -120.755127
 0.595000   107.762421   -119.712857
 0.600000   107.166442   -118.652627
 0.605000   106.575894   -117.546385
 0.610000   105.990978   -116.416899
 0.615000   105.411725   -115.289675
 0.620000   104.838081   -114.055545
 0.625000   104.271170   -112.861570
 0.630000   103.709466   -111.900670
 0.635000   103.152163   -111.121167
 0.640000   102.598254   -110.555267
 0.645000   102.046611   -110.228491
 0.650000   101.495969   -110.097015
 0.655000   100.945640   -110.474988
 0.660000   100.391219   -111.701787
 0.665000   99.828623   -113.757501
 0.670000   99.253644   -116.674702
 0.675000   98.661876   -120.496077
 0.680000   98.048684   -125.429494
 0.685000   97.407581   -131.050448
 0.690000   96.738179   -136.622869
 0.695000   96.041352   -142.093275
 0.700000   95.317246   -147.541975
 0.705000   94.565932   -152.985161
 0.710000   93.787395   -158.425928
 0.715000   92.981673   -163.721636
 0.720000   92.150178   -168.740802
 0.725000   91.294265   -173.486908
 0.730000   90.415309   -177.927957
 0.735000   89.514985   -182.000108
 0.740000   88.595308   -185.546546
 0.745000   87.659520   -188.542922
 0.750000   86.709879   -191.438579
 0.755000   85.745134   -194.835686
 0.760000   84.761522   -199.230133
 0.765000   83.752833   -205.043078
 0.770000   82.711091   -212.842019
 0.775000   81.624413   -222.664668
 0.780000   80.484445   -232.940202
 0.785000   79.295011   -242.636307
 0.790000   78.058082   -251.744210
 0.795000   76.777568   -259.869700
 0.800000   75.459385   -266.893258
 0.805000   74.108636   -272.580634
 0.810000   72.733578   -275.921847
 0.815000   71.349417   -277.107637
 0.820000   69.962502   -277.114038
 0.825000   68.578277   -275.994769
 0.830000   67.202554   -273.820350
 0.835000   65.840073   -270.721697
 0.840000   64.495337   -264.770001
 0.845000   63.192373   -255.121740
 0.850000   61.944120   -243.364702
 0.855000   60.758726   -230.618112
 0.860000   59.637939   -218.502110
 0.865000   58.573705   -209.731363
 0.870000   57.540625   -205.263016
 0.875000   56.521075   -206.968978
 0.880000   55.470935   -219.713147
 0.885000   54.323944   -248.256874
 0.890000   52.988367   -297.719502
 0.895000   51.346749   -374.766201
 0.900000   49.240705   -480.720345
 0.905000   46.539545   -612.828151
 0.910000   43.112423   -766.707916
 0.915000   38.872466   -930.353022
 0.920000   33.808893   -1085.653587
 0.925000   28.015930   -1211.689469
 0.930000   21.691998   -1279.855922
 0.935000   15.217371   -1265.612144
 0.940000   9.035877   -1161.066987
 0.945000   3.606701   -971.549458
 0.950000   -0.679618   -718.480160
 0.955000   -3.578100   -434.800969
 0.960000   -5.027628   -161.027140
 0.965000   -5.188372   68.283515
 0.970000   -4.344792   234.608234
 0.975000   -2.842290   332.225814
 0.980000   -1.022534   366.887679
 0.985000   0.826587   350.104879
 0.990000   2.478514   300.181785
 0.995000   3.828405   235.250072
 1.000000   4.831015   165.793950
201 psinorm vpol1(km/s) dvpol1/dpsiN
 0.000000   -0.000043   5.453516
 0.005000   0.028523   5.973047
 0.010000   0.059688   6.471094
 0.015000   0.093234   6.916016
 0.020000   0.128848   7.292187
 0.025000   0.166156   7.593359
 0.030000   0.204781   7.809766
 0.035000   0.244254   7.981250
 0.040000   0.284594   8.147266
 0.045000   0.325727   8.330078
 0.050000   0.367895   8.567578
 0.055000   0.411402   8.892578
 0.060000   0.456820   9.330469
 0.065000   0.504707   9.829297
 0.070000   0.555113   10.340234
 0.075000   0.608109   10.830078
 0.080000   0.663414   11.270312
 0.085000   0.720812   11.639844
 0.090000   0.779813   11.889844
 0.095000   0.839711   12.025000
 0.100000   0.900062   12.093359
 0.105000   0.960645   12.115234
 0.110000   1.021215   12.098437
 0.115000   1.081629   12.061719
 0.120000   1.141832   12.031250
 0.125000   1.201941   12.034766
 0.130000   1.262180   12.055078
 0.135000   1.322492   12.058984
 0.140000   1.382770   12.026953
 0.145000   1.442762   11.905859
 0.150000   1.501828   11.692578
 0.155000   1.559688   11.414062
 0.160000   1.615969   11.078125
 0.165000   1.670469   10.694531
 0.170000   1.722914   10.248047
 0.175000   1.772949   9.715234
 0.180000   1.820066   9.128516
 0.185000   1.864234   8.523828
 0.190000   1.905305   7.908203
 0.195000   1.943316   7.300391
 0.200000   1.978309   6.703125
 0.205000   2.010348   6.147266
 0.210000   2.039781   5.639453
 0.215000   2.066742   5.143750
 0.220000   2.091219   4.619531
 0.225000   2.112938   4.042578
 0.230000   2.131645   3.402344
 0.235000   2.146961   2.698047
 0.240000   2.158625   1.935547
 0.245000   2.166316   1.119531
 0.250000   2.169820   0.266016
 0.255000   2.168977   -0.612500
 0.260000   2.163695   -1.496094
 0.265000   2.154016   -2.385938
 0.270000   2.139836   -3.319141
 0.275000   2.120824   -4.307031
 0.280000   2.096766   -5.363281
 0.285000   2.067191   -6.505469
 0.290000   2.031711   -7.737109
 0.295000   1.989820   -9.068750
 0.300000   1.941023   -10.478125
 0.305000   1.885039   -11.941406
 0.310000   1.821609   -13.457812
 0.315000   1.750461   -15.012109
 0.320000   1.671488   -16.557031
 0.325000   1.584891   -17.993750
 0.330000   1.491551   -19.216406
 0.335000   1.392727   -20.176953
 0.340000   1.289781   -20.863281
 0.345000   1.184094   -21.311719
 0.350000   1.076664   -21.571875
 0.355000   0.968375   -21.860938
 0.360000   0.858055   -22.386719
 0.365000   0.744508   -23.164844
 0.370000   0.626406   -24.215234
 0.375000   0.502355   -25.573047
 0.380000   0.370676   -27.395703
 0.385000   0.228398   -29.471094
 0.390000   0.075965   -31.398437
 0.395000   -0.085586   -33.125000
 0.400000   -0.255285   -34.676953
 0.405000   -0.432355   -36.172266
 0.410000   -0.617008   -38.093359
 0.415000   -0.813289   -40.615234
 0.420000   -1.023160   -43.528125
 0.425000   -1.248570   -46.790234
 0.430000   -1.491062   -50.252734
 0.435000   -1.751098   -53.805469
 0.440000   -2.029117   -57.408203
 0.445000   -2.325180   -60.329297
 0.450000   -2.632410   -62.078516
 0.455000   -2.945965   -62.766406
 0.460000   -3.260074   -62.235937
 0.465000   -3.568324   -60.319531
 0.470000   -3.863270   -56.690234
 0.475000   -4.135227   -51.643359
 0.480000   -4.379703   -45.891016
 0.485000   -4.594137   -39.833398
 0.490000   -4.778037   -33.844727
 0.495000   -4.932584   -28.046289
 0.500000   -5.058500   -22.779883
 0.505000   -5.160383   -18.633789
 0.510000   -5.244838   -15.563672
 0.515000   -5.316020   -13.283203
 0.520000   -5.377670   -11.691016
 0.525000   -5.432930   -10.646094
 0.530000   -5.484131   -9.955273
 0.535000   -5.532482   -9.395703
 0.540000   -5.578088   -8.845703
 0.545000   -5.620939   -8.280859
 0.550000   -5.660896   -7.662500
 0.555000   -5.697564   -6.988086
 0.560000   -5.730777   -6.218750
 0.565000   -5.759752   -5.313867
 0.570000   -5.783916   -4.317773
 0.575000   -5.802930   -3.272461
 0.580000   -5.816641   -2.207813
 0.585000   -5.825008   -1.172852
 0.590000   -5.828369   -0.210352
 0.595000   -5.827111   0.643945
 0.600000   -5.821930   1.359766
 0.605000   -5.813514   1.936133
 0.610000   -5.802568   2.372852
 0.615000   -5.789785   2.669434
 0.620000   -5.775874   2.860645
 0.625000   -5.761179   2.988867
 0.630000   -5.745985   3.068652
 0.635000   -5.730492   3.122656
 0.640000   -5.714759   3.161816
 0.645000   -5.698874   3.190820
 0.650000   -5.682851   3.204590
 0.655000   -5.666828   3.192676
 0.660000   -5.650924   3.148535
 0.665000   -5.635343   3.073145
 0.670000   -5.620192   2.968555
 0.675000   -5.605657   2.838184
 0.680000   -5.591811   2.681641
 0.685000   -5.578841   2.498975
 0.690000   -5.566821   2.294238
 0.695000   -5.555898   2.065137
 0.700000   -5.546169   1.810742
 0.705000   -5.537791   1.529150
 0.710000   -5.530878   1.223877
 0.715000   -5.525552   0.895557
 0.720000   -5.521922   0.546289
 0.725000   -5.520089   0.175684
 0.730000   -5.520166   -0.209497
 0.735000   -5.522184   -0.605542
 0.740000   -5.526221   -1.011365
 0.745000   -5.532298   -1.420471
 0.750000   -5.540426   -1.828925
 0.755000   -5.550587   -2.234839
 0.760000   -5.562774   -2.634998
 0.765000   -5.576937   -3.026929
 0.770000   -5.593043   -3.434491
 0.775000   -5.611282   -3.891309
 0.780000   -5.631956   -4.439160
 0.785000   -5.655674   -5.128210
 0.790000   -5.683239   -6.071130
 0.795000   -5.716385   -7.246851
 0.800000   -5.755707   -8.555542
 0.805000   -5.801940   -9.997559
 0.810000   -5.855683   -11.531201
 0.815000   -5.917252   -13.095605
 0.820000   -5.986639   -14.664404
 0.825000   -6.063896   -16.014844
 0.830000   -6.146787   -16.955566
 0.835000   -6.233452   -17.477344
 0.840000   -6.321561   -17.512695
 0.845000   -6.408579   -17.021680
 0.850000   -6.491777   -15.962207
 0.855000   -6.568201   -14.486523
 0.860000   -6.636643   -12.822656
 0.865000   -6.696428   -11.098242
 0.870000   -6.747625   -9.419727
 0.875000   -6.790625   -7.831445
 0.880000   -6.825939   -6.330664
 0.885000   -6.853932   -4.807031
 0.890000   -6.874010   -3.070117
 0.895000   -6.884633   -0.925195
 0.900000   -6.883262   1.860742
 0.905000   -6.866025   5.629492
 0.910000   -6.826967   10.749414
 0.915000   -6.758531   17.348242
 0.920000   -6.653484   25.389844
 0.925000   -6.504633   34.730469
 0.930000   -6.306180   45.009766
 0.935000   -6.054535   56.251172
 0.940000   -5.743668   68.058984
 0.945000   -5.373945   78.905859
 0.950000   -4.954609   87.200781
 0.955000   -4.501938   91.433984
 0.960000   -4.040270   90.566797
 0.965000   -3.596270   86.278125
 0.970000   -3.177488   82.718359
 0.975000   -2.769086   89.403516
 0.980000   -2.283453   120.043750
 0.985000   -1.568648   180.749219
 0.990000   -0.475961   258.571875
 0.995000   1.017070   316.946875
 1.000000   2.693508   353.628125
3 N Z A of ION SPECIES
 6.000000   6.000000   12.010700
 1.000000   1.000000   2.000000
 1.000000   1.000000   2.000000
