201 psinorm ne(10^20/m^3) dne/dpsiN
 0.000000   0.456459   -0.454771
 0.005000   0.454193   -0.451369
 0.010000   0.451945   -0.447982
 0.015000   0.449714   -0.444623
 0.020000   0.447499   -0.441292
 0.025000   0.445301   -0.437989
 0.030000   0.443119   -0.434713
 0.035000   0.440954   -0.431464
 0.040000   0.438804   -0.428241
 0.045000   0.436671   -0.425046
 0.050000   0.434554   -0.421877
 0.055000   0.432452   -0.418733
 0.060000   0.430366   -0.415616
 0.065000   0.428296   -0.412524
 0.070000   0.426241   -0.409458
 0.075000   0.424202   -0.406416
 0.080000   0.422177   -0.403400
 0.085000   0.420168   -0.400408
 0.090000   0.418173   -0.397441
 0.095000   0.416193   -0.394498
 0.100000   0.414228   -0.391578
 0.105000   0.412277   -0.388683
 0.110000   0.410341   -0.385811
 0.115000   0.408419   -0.382962
 0.120000   0.406512   -0.380136
 0.125000   0.404618   -0.377334
 0.130000   0.402738   -0.374553
 0.135000   0.400872   -0.371796
 0.140000   0.399020   -0.369060
 0.145000   0.397182   -0.366347
 0.150000   0.395357   -0.363655
 0.155000   0.393545   -0.360985
 0.160000   0.391747   -0.358336
 0.165000   0.389962   -0.355709
 0.170000   0.388190   -0.353102
 0.175000   0.386431   -0.350517
 0.180000   0.384685   -0.347952
 0.185000   0.382951   -0.345407
 0.190000   0.381231   -0.342883
 0.195000   0.379523   -0.340378
 0.200000   0.377827   -0.337894
 0.205000   0.376144   -0.335429
 0.210000   0.374473   -0.332984
 0.215000   0.372814   -0.330558
 0.220000   0.371167   -0.328151
 0.225000   0.369532   -0.325763
 0.230000   0.367909   -0.323394
 0.235000   0.366298   -0.321044
 0.240000   0.364699   -0.318712
 0.245000   0.363111   -0.316398
 0.250000   0.361535   -0.314102
 0.255000   0.359970   -0.311825
 0.260000   0.358417   -0.309565
 0.265000   0.356874   -0.307323
 0.270000   0.355343   -0.305098
 0.275000   0.353824   -0.302890
 0.280000   0.352315   -0.300700
 0.285000   0.350817   -0.298527
 0.290000   0.349329   -0.296370
 0.295000   0.347853   -0.294230
 0.300000   0.346387   -0.292107
 0.305000   0.344932   -0.290000
 0.310000   0.343487   -0.287909
 0.315000   0.342053   -0.285834
 0.320000   0.340629   -0.283776
 0.325000   0.339215   -0.281733
 0.330000   0.337811   -0.279705
 0.335000   0.336418   -0.277693
 0.340000   0.335034   -0.275697
 0.345000   0.333661   -0.273716
 0.350000   0.332297   -0.271749
 0.355000   0.330943   -0.269798
 0.360000   0.329599   -0.267862
 0.365000   0.328265   -0.265940
 0.370000   0.326940   -0.264033
 0.375000   0.325624   -0.262140
 0.380000   0.324318   -0.260261
 0.385000   0.323022   -0.258397
 0.390000   0.321734   -0.256546
 0.395000   0.320456   -0.254710
 0.400000   0.319187   -0.252887
 0.405000   0.317927   -0.251078
 0.410000   0.316677   -0.249282
 0.415000   0.315435   -0.247500
 0.420000   0.314202   -0.245731
 0.425000   0.312977   -0.243976
 0.430000   0.311762   -0.242233
 0.435000   0.310555   -0.240503
 0.440000   0.309357   -0.238786
 0.445000   0.308167   -0.237082
 0.450000   0.306986   -0.235390
 0.455000   0.305813   -0.233711
 0.460000   0.304649   -0.232044
 0.465000   0.303493   -0.230389
 0.470000   0.302345   -0.228747
 0.475000   0.301205   -0.227116
 0.480000   0.300074   -0.225498
 0.485000   0.298950   -0.223891
 0.490000   0.297835   -0.222296
 0.495000   0.296727   -0.220713
 0.500000   0.295628   -0.219141
 0.505000   0.294536   -0.217580
 0.510000   0.293452   -0.216031
 0.515000   0.292376   -0.214493
 0.520000   0.291307   -0.212966
 0.525000   0.290246   -0.211450
 0.530000   0.289193   -0.209945
 0.535000   0.288147   -0.208450
 0.540000   0.287108   -0.206967
 0.545000   0.286077   -0.205494
 0.550000   0.285053   -0.204031
 0.555000   0.284037   -0.202579
 0.560000   0.283027   -0.201138
 0.565000   0.282025   -0.199706
 0.570000   0.281030   -0.198285
 0.575000   0.280042   -0.196873
 0.580000   0.279062   -0.195472
 0.585000   0.278088   -0.194081
 0.590000   0.277121   -0.192699
 0.595000   0.276161   -0.191327
 0.600000   0.275207   -0.189965
 0.605000   0.274261   -0.188612
 0.610000   0.273321   -0.187268
 0.615000   0.272388   -0.185934
 0.620000   0.271462   -0.184610
 0.625000   0.270542   -0.183294
 0.630000   0.269629   -0.181987
 0.635000   0.268722   -0.180690
 0.640000   0.267822   -0.179401
 0.645000   0.266928   -0.178122
 0.650000   0.266041   -0.176851
 0.655000   0.265160   -0.175588
 0.660000   0.264285   -0.174334
 0.665000   0.263417   -0.173089
 0.670000   0.262554   -0.171852
 0.675000   0.261698   -0.170623
 0.680000   0.260848   -0.169402
 0.685000   0.260004   -0.168189
 0.690000   0.259166   -0.166984
 0.695000   0.258334   -0.165786
 0.700000   0.257508   -0.164596
 0.705000   0.256688   -0.163412
 0.710000   0.255874   -0.162235
 0.715000   0.255066   -0.161063
 0.720000   0.254263   -0.159897
 0.725000   0.253467   -0.158735
 0.730000   0.252676   -0.157577
 0.735000   0.251891   -0.156421
 0.740000   0.251112   -0.155265
 0.745000   0.250338   -0.154107
 0.750000   0.249571   -0.152944
 0.755000   0.248809   -0.151772
 0.760000   0.248053   -0.150586
 0.765000   0.247303   -0.149381
 0.770000   0.246559   -0.148147
 0.775000   0.245822   -0.146874
 0.780000   0.245091   -0.145548
 0.785000   0.244366   -0.144151
 0.790000   0.243649   -0.142660
 0.795000   0.242940   -0.141045
 0.800000   0.242239   -0.139267
 0.805000   0.241547   -0.137277
 0.810000   0.240866   -0.135010
 0.815000   0.240197   -0.132384
 0.820000   0.239542   -0.129294
 0.825000   0.238904   -0.125606
 0.830000   0.238286   -0.121149
 0.835000   0.237692   -0.115707
 0.840000   0.237129   -0.109008
 0.845000   0.236602   -0.100710
 0.850000   0.236122   -0.090387
 0.855000   0.235698   -0.077516
 0.860000   0.235347   -0.061456
 0.865000   0.235084   -0.041437
 0.870000   0.234932   -0.016554
 0.875000   0.234918   0.014228
 0.880000   0.235075   0.052038
 0.885000   0.235439   0.098009
 0.890000   0.236055   0.153102
 0.895000   0.236970   0.217763
 0.900000   0.238232   0.291326
 0.905000   0.239883   0.370997
 0.910000   0.241942   0.450204
 0.915000   0.244385   0.516126
 0.920000   0.247103   0.546361
 0.925000   0.249849   0.505406
 0.930000   0.252158   0.343204
 0.935000   0.253281   0.000694
 0.940000   0.252164   -0.570660
 0.945000   0.247574   -1.372398
 0.950000   0.238440   -2.319427
 0.955000   0.224380   -3.233793
 0.960000   0.206103   -3.904150
 0.965000   0.185338   -4.188159
 0.970000   0.164221   -4.079621
 0.975000   0.144542   -3.687927
 0.980000   0.127342   -3.160864
 0.985000   0.112933   -2.618385
 0.990000   0.101158   -2.129320
 0.995000   0.091640   -1.719626
 1.000000   0.083962   -1.351852
201 psinorm te(KeV) dte/dpsiN
 0.000000   4.493639   -6.778151
 0.005000   4.459867   -6.730531
 0.010000   4.426334   -6.683065
 0.015000   4.393037   -6.635910
 0.020000   4.359975   -6.589062
 0.025000   4.327146   -6.542521
 0.030000   4.294549   -6.496284
 0.035000   4.262183   -6.450349
 0.040000   4.230046   -6.404715
 0.045000   4.198136   -6.359380
 0.050000   4.166452   -6.314342
 0.055000   4.134993   -6.269599
 0.060000   4.103756   -6.225150
 0.065000   4.072741   -6.180992
 0.070000   4.041946   -6.137125
 0.075000   4.011370   -6.093546
 0.080000   3.981011   -6.050254
 0.085000   3.950867   -6.007247
 0.090000   3.920938   -5.964523
 0.095000   3.891222   -5.922081
 0.100000   3.861717   -5.879918
 0.105000   3.832423   -5.838034
 0.110000   3.803337   -5.796426
 0.115000   3.774459   -5.755093
 0.120000   3.745786   -5.714033
 0.125000   3.717318   -5.673245
 0.130000   3.689054   -5.632727
 0.135000   3.660991   -5.592477
 0.140000   3.633129   -5.552494
 0.145000   3.605466   -5.512776
 0.150000   3.578001   -5.473321
 0.155000   3.550733   -5.434128
 0.160000   3.523660   -5.395196
 0.165000   3.496781   -5.356522
 0.170000   3.470095   -5.318106
 0.175000   3.443600   -5.279945
 0.180000   3.417295   -5.242039
 0.185000   3.391180   -5.204385
 0.190000   3.365251   -5.166982
 0.195000   3.339510   -5.129828
 0.200000   3.313953   -5.092923
 0.205000   3.288580   -5.056264
 0.210000   3.263391   -5.019850
 0.215000   3.238382   -4.983679
 0.220000   3.213554   -4.947751
 0.225000   3.188904   -4.912063
 0.230000   3.164433   -4.876614
 0.235000   3.140138   -4.841403
 0.240000   3.116019   -4.806428
 0.245000   3.092074   -4.771687
 0.250000   3.068302   -4.737180
 0.255000   3.044702   -4.702905
 0.260000   3.021273   -4.668860
 0.265000   2.998014   -4.635044
 0.270000   2.974923   -4.601456
 0.275000   2.951999   -4.568094
 0.280000   2.929242   -4.534957
 0.285000   2.906650   -4.502044
 0.290000   2.884221   -4.469352
 0.295000   2.861956   -4.436881
 0.300000   2.839852   -4.404630
 0.305000   2.817910   -4.372597
 0.310000   2.796127   -4.340780
 0.315000   2.774502   -4.309178
 0.320000   2.753035   -4.277791
 0.325000   2.731724   -4.246616
 0.330000   2.710569   -4.215652
 0.335000   2.689567   -4.184899
 0.340000   2.668720   -4.154354
 0.345000   2.648024   -4.124017
 0.350000   2.627479   -4.093886
 0.355000   2.607085   -4.063960
 0.360000   2.586840   -4.034237
 0.365000   2.566743   -4.004717
 0.370000   2.546793   -3.975398
 0.375000   2.526989   -3.946278
 0.380000   2.507330   -3.917358
 0.385000   2.487815   -3.888634
 0.390000   2.468444   -3.860107
 0.395000   2.449214   -3.831775
 0.400000   2.430126   -3.803636
 0.405000   2.411178   -3.775690
 0.410000   2.392369   -3.747935
 0.415000   2.373698   -3.720370
 0.420000   2.355165   -3.692994
 0.425000   2.336768   -3.665805
 0.430000   2.318507   -3.638803
 0.435000   2.300380   -3.611987
 0.440000   2.282387   -3.585354
 0.445000   2.264527   -3.558905
 0.450000   2.246798   -3.532638
 0.455000   2.229200   -3.506551
 0.460000   2.211733   -3.480644
 0.465000   2.194394   -3.454915
 0.470000   2.177184   -3.429363
 0.475000   2.160100   -3.403988
 0.480000   2.143144   -3.378788
 0.485000   2.126313   -3.353762
 0.490000   2.109606   -3.328909
 0.495000   2.093023   -3.304227
 0.500000   2.076564   -3.279716
 0.505000   2.060226   -3.255375
 0.510000   2.044010   -3.231202
 0.515000   2.027914   -3.207197
 0.520000   2.011938   -3.183358
 0.525000   1.996081   -3.159685
 0.530000   1.980341   -3.136176
 0.535000   1.964719   -3.112830
 0.540000   1.949213   -3.089646
 0.545000   1.933822   -3.066624
 0.550000   1.918547   -3.043761
 0.555000   1.903385   -3.021058
 0.560000   1.888336   -2.998513
 0.565000   1.873400   -2.976125
 0.570000   1.858575   -2.953893
 0.575000   1.843861   -2.931816
 0.580000   1.829257   -2.909893
 0.585000   1.814762   -2.888123
 0.590000   1.800375   -2.866506
 0.595000   1.786097   -2.845039
 0.600000   1.771925   -2.823723
 0.605000   1.757860   -2.802556
 0.610000   1.743900   -2.781537
 0.615000   1.730044   -2.760666
 0.620000   1.716293   -2.739941
 0.625000   1.702645   -2.719361
 0.630000   1.689099   -2.698925
 0.635000   1.675656   -2.678634
 0.640000   1.662313   -2.658485
 0.645000   1.649071   -2.638477
 0.650000   1.635928   -2.618610
 0.655000   1.622885   -2.598884
 0.660000   1.609939   -2.579296
 0.665000   1.597092   -2.559846
 0.670000   1.584341   -2.540533
 0.675000   1.571686   -2.521357
 0.680000   1.559127   -2.502316
 0.685000   1.546663   -2.483409
 0.690000   1.534293   -2.464636
 0.695000   1.522017   -2.445996
 0.700000   1.509833   -2.427488
 0.705000   1.497742   -2.409110
 0.710000   1.485742   -2.390863
 0.715000   1.473833   -2.372745
 0.720000   1.462015   -2.354756
 0.725000   1.450286   -2.336895
 0.730000   1.438646   -2.319160
 0.735000   1.427094   -2.301551
 0.740000   1.415630   -2.284067
 0.745000   1.404253   -2.266708
 0.750000   1.392963   -2.249472
 0.755000   1.381759   -2.232359
 0.760000   1.370640   -2.215367
 0.765000   1.359605   -2.198497
 0.770000   1.348655   -2.181747
 0.775000   1.337788   -2.165117
 0.780000   1.327003   -2.148606
 0.785000   1.316302   -2.132212
 0.790000   1.305681   -2.115935
 0.795000   1.295142   -2.099775
 0.800000   1.284684   -2.083731
 0.805000   1.274305   -2.067801
 0.810000   1.264006   -2.051985
 0.815000   1.253785   -2.036282
 0.820000   1.243643   -2.020691
 0.825000   1.233578   -2.005211
 0.830000   1.223591   -1.989841
 0.835000   1.213680   -1.974578
 0.840000   1.203845   -1.959421
 0.845000   1.194085   -1.944364
 0.850000   1.184401   -1.929403
 0.855000   1.174791   -1.914526
 0.860000   1.165256   -1.899717
 0.865000   1.155794   -1.884951
 0.870000   1.146406   -1.870183
 0.875000   1.137092   -1.855345
 0.880000   1.127853   -1.840324
 0.885000   1.118689   -1.824946
 0.890000   1.109603   -1.808946
 0.895000   1.100600   -1.791932
 0.900000   1.091684   -1.773366
 0.905000   1.082866   -1.752586
 0.910000   1.074158   -1.728975
 0.915000   1.065576   -1.702498
 0.920000   1.057133   -1.675123
 0.925000   1.048825   -1.654193
 0.930000   1.040591   -1.660066
 0.935000   1.032224   -1.742563
 0.940000   1.023166   -2.014747
 0.945000   1.012077   -2.716999
 0.950000   0.995996   -4.319793
 0.955000   0.968879   -7.619143
 0.960000   0.919804   -13.574004
 0.965000   0.833139   -22.288968
 0.970000   0.696915   -31.067240
 0.975000   0.522467   -34.495083
 0.980000   0.351964   -29.733450
 0.985000   0.225132   -20.423380
 0.990000   0.147730   -12.080197
 0.995000   0.104330   -6.797115
 1.000000   0.079759   -3.031382
201 psinorm ni(10^20/m^3) dni/dpsiN
 0.000000   0.259963   -0.497567
 0.005000   0.257794   -0.370188
 0.010000   0.256261   -0.269236
 0.015000   0.255101   -0.202805
 0.020000   0.254233   -0.150084
 0.025000   0.253600   -0.107517
 0.030000   0.253158   -0.073397
 0.035000   0.252867   -0.046344
 0.040000   0.252695   -0.024951
 0.045000   0.252617   -0.008269
 0.050000   0.252612   0.004517
 0.055000   0.252662   0.013909
 0.060000   0.252751   0.020386
 0.065000   0.252866   0.024497
 0.070000   0.252996   0.026607
 0.075000   0.253132   0.027037
 0.080000   0.253266   0.025824
 0.085000   0.253390   0.023625
 0.090000   0.253503   0.020735
 0.095000   0.253598   0.016393
 0.100000   0.253666   0.011384
 0.105000   0.253712   0.006424
 0.110000   0.253731   0.001005
 0.115000   0.253722   -0.004829
 0.120000   0.253682   -0.011266
 0.125000   0.253609   -0.018163
 0.130000   0.253501   -0.024883
 0.135000   0.253360   -0.031462
 0.140000   0.253186   -0.038140
 0.145000   0.252979   -0.044795
 0.150000   0.252738   -0.051368
 0.155000   0.252465   -0.057858
 0.160000   0.252160   -0.064223
 0.165000   0.251823   -0.070427
 0.170000   0.251455   -0.076444
 0.175000   0.251058   -0.082222
 0.180000   0.250633   -0.087723
 0.185000   0.250181   -0.092953
 0.190000   0.249704   -0.097948
 0.195000   0.249202   -0.102674
 0.200000   0.248677   -0.107305
 0.205000   0.248129   -0.111895
 0.210000   0.247558   -0.116031
 0.215000   0.246968   -0.119685
 0.220000   0.246361   -0.123086
 0.225000   0.245737   -0.126249
 0.230000   0.245099   -0.129208
 0.235000   0.244445   -0.131991
 0.240000   0.243779   -0.134713
 0.245000   0.243098   -0.137683
 0.250000   0.242402   -0.140403
 0.255000   0.241694   -0.142603
 0.260000   0.240976   -0.144691
 0.265000   0.240247   -0.146661
 0.270000   0.239509   -0.148595
 0.275000   0.238761   -0.150790
 0.280000   0.238001   -0.152772
 0.285000   0.237234   -0.154260
 0.290000   0.236459   -0.155659
 0.295000   0.235677   -0.156967
 0.300000   0.234889   -0.158550
 0.305000   0.234091   -0.160057
 0.310000   0.233288   -0.161139
 0.315000   0.232480   -0.162193
 0.320000   0.231666   -0.163309
 0.325000   0.230847   -0.164640
 0.330000   0.230020   -0.165878
 0.335000   0.229188   -0.166864
 0.340000   0.228351   -0.167856
 0.345000   0.227510   -0.169050
 0.350000   0.226661   -0.170278
 0.355000   0.225807   -0.171269
 0.360000   0.224948   -0.172177
 0.365000   0.224085   -0.173169
 0.370000   0.223217   -0.174211
 0.375000   0.222343   -0.175103
 0.380000   0.221466   -0.175872
 0.385000   0.220584   -0.176693
 0.390000   0.219699   -0.177584
 0.395000   0.218808   -0.178380
 0.400000   0.217915   -0.179085
 0.405000   0.217018   -0.179869
 0.410000   0.216116   -0.180727
 0.415000   0.215210   -0.181498
 0.420000   0.214301   -0.182177
 0.425000   0.213389   -0.182928
 0.430000   0.212472   -0.183709
 0.435000   0.211551   -0.184364
 0.440000   0.210628   -0.184918
 0.445000   0.209702   -0.185535
 0.450000   0.208773   -0.186123
 0.455000   0.207841   -0.186524
 0.460000   0.206908   -0.186817
 0.465000   0.205973   -0.187171
 0.470000   0.205036   -0.187432
 0.475000   0.204099   -0.187449
 0.480000   0.203161   -0.187404
 0.485000   0.202225   -0.187363
 0.490000   0.201288   -0.187176
 0.495000   0.200353   -0.186768
 0.500000   0.199420   -0.186318
 0.505000   0.198490   -0.185820
 0.510000   0.197562   -0.185123
 0.515000   0.196638   -0.184227
 0.520000   0.195720   -0.183312
 0.525000   0.194805   -0.182296
 0.530000   0.193897   -0.181025
 0.535000   0.192995   -0.179572
 0.540000   0.192101   -0.178103
 0.545000   0.191214   -0.176458
 0.550000   0.190336   -0.174493
 0.555000   0.189469   -0.172384
 0.560000   0.188613   -0.170196
 0.565000   0.187767   -0.167790
 0.570000   0.186935   -0.165116
 0.575000   0.186116   -0.162344
 0.580000   0.185311   -0.159490
 0.585000   0.184521   -0.156436
 0.590000   0.183747   -0.153177
 0.595000   0.182989   -0.149837
 0.600000   0.182248   -0.146389
 0.605000   0.181525   -0.142739
 0.610000   0.180821   -0.138913
 0.615000   0.180136   -0.134986
 0.620000   0.179471   -0.130922
 0.625000   0.178827   -0.126676
 0.630000   0.178204   -0.122304
 0.635000   0.177604   -0.117860
 0.640000   0.177026   -0.113346
 0.645000   0.176471   -0.108763
 0.650000   0.175938   -0.104172
 0.655000   0.175429   -0.099597
 0.660000   0.174942   -0.095009
 0.665000   0.174479   -0.090402
 0.670000   0.174038   -0.085766
 0.675000   0.173621   -0.081063
 0.680000   0.173228   -0.076211
 0.685000   0.172859   -0.071237
 0.690000   0.172515   -0.066227
 0.695000   0.172197   -0.061175
 0.700000   0.171903   -0.056073
 0.705000   0.171636   -0.050956
 0.710000   0.171394   -0.045727
 0.715000   0.171179   -0.040183
 0.720000   0.170992   -0.034289
 0.725000   0.170836   -0.028023
 0.730000   0.170712   -0.021432
 0.735000   0.170621   -0.014633
 0.740000   0.170566   -0.007503
 0.745000   0.170546   -0.000234
 0.750000   0.170563   0.006544
 0.755000   0.170612   0.012581
 0.760000   0.170689   0.017840
 0.765000   0.170790   0.022159
 0.770000   0.170911   0.025410
 0.775000   0.171044   0.027350
 0.780000   0.171184   0.027752
 0.785000   0.171322   0.026800
 0.790000   0.171452   0.024806
 0.795000   0.171570   0.022010
 0.800000   0.171672   0.018598
 0.805000   0.171756   0.014716
 0.810000   0.171819   0.010819
 0.815000   0.171864   0.007255
 0.820000   0.171892   0.004151
 0.825000   0.171906   0.001785
 0.830000   0.171910   0.000407
 0.835000   0.171910   0.000298
 0.840000   0.171913   0.002047
 0.845000   0.171930   0.006082
 0.850000   0.171974   0.012602
 0.855000   0.172056   0.022040
 0.860000   0.172194   0.034926
 0.865000   0.172405   0.051926
 0.870000   0.172713   0.073978
 0.875000   0.173145   0.102256
 0.880000   0.173736   0.138024
 0.885000   0.174525   0.182562
 0.890000   0.175561   0.236924
 0.895000   0.176895   0.301871
 0.900000   0.178580   0.376859
 0.905000   0.180663   0.459200
 0.910000   0.183172   0.542767
 0.915000   0.186091   0.615240
 0.920000   0.189324   0.655160
 0.925000   0.192643   0.630453
 0.930000   0.195629   0.493961
 0.935000   0.197582   0.190254
 0.940000   0.197532   -0.321793
 0.945000   0.194364   -1.036172
 0.950000   0.187170   -1.862451
 0.955000   0.175740   -2.619112
 0.960000   0.160979   -3.113984
 0.965000   0.144600   -3.242717
 0.970000   0.128552   -3.033414
 0.975000   0.114266   -2.622353
 0.980000   0.102328   -2.161995
 0.985000   0.092646   -1.750895
 0.990000   0.084819   -1.424224
 0.995000   0.078404   -1.174305
 1.000000   0.073076   -0.956724
201 psinorm ti(KeV) dti/dpsiN
 0.000000   5.992686   0.002067
 0.005000   5.991606   -0.433924
 0.010000   5.988347   -0.872641
 0.015000   5.982880   -1.316572
 0.020000   5.975181   -1.765341
 0.025000   5.965226   -2.218766
 0.030000   5.952993   -2.676798
 0.035000   5.938458   -3.139351
 0.040000   5.921600   -3.606694
 0.045000   5.902391   -4.077645
 0.050000   5.880823   -4.550347
 0.055000   5.856888   -5.023731
 0.060000   5.830586   -5.496111
 0.065000   5.801927   -5.965406
 0.070000   5.770932   -6.428997
 0.075000   5.737637   -6.882932
 0.080000   5.702103   -7.323864
 0.085000   5.664398   -7.749917
 0.090000   5.624603   -8.159237
 0.095000   5.582806   -8.550270
 0.100000   5.539101   -8.920010
 0.105000   5.493606   -9.267911
 0.110000   5.446422   -9.595657
 0.115000   5.397649   -9.902210
 0.120000   5.347399   -10.186336
 0.125000   5.295786   -10.447442
 0.130000   5.242925   -10.683188
 0.135000   5.188954   -10.893938
 0.140000   5.133986   -11.083831
 0.145000   5.078116   -11.254750
 0.150000   5.021438   -11.408122
 0.155000   4.964034   -11.546294
 0.160000   4.905975   -11.671456
 0.165000   4.847320   -11.781969
 0.170000   4.788156   -11.871160
 0.175000   4.728608   -11.935425
 0.180000   4.668801   -11.975044
 0.185000   4.608858   -11.990140
 0.190000   4.548900   -11.980474
 0.195000   4.489053   -11.945391
 0.200000   4.429446   -11.886767
 0.205000   4.370185   -11.806491
 0.210000   4.311381   -11.704383
 0.215000   4.253142   -11.580515
 0.220000   4.195576   -11.433386
 0.225000   4.138808   -11.260410
 0.230000   4.082972   -11.069981
 0.235000   4.028108   -10.872083
 0.240000   3.974251   -10.669867
 0.245000   3.921409   -10.467957
 0.250000   3.869571   -10.269852
 0.255000   3.818711   -10.080718
 0.260000   3.768764   -9.898635
 0.265000   3.719724   -9.716048
 0.270000   3.671604   -9.529692
 0.275000   3.624428   -9.337442
 0.280000   3.578229   -9.138349
 0.285000   3.533044   -8.934433
 0.290000   3.488885   -8.721002
 0.295000   3.445834   -8.495296
 0.300000   3.403932   -8.261622
 0.305000   3.363218   -8.020574
 0.310000   3.323726   -7.772903
 0.315000   3.285489   -7.518491
 0.320000   3.248541   -7.257726
 0.325000   3.212911   -6.993059
 0.330000   3.178611   -6.726855
 0.335000   3.145643   -6.460758
 0.340000   3.114003   -6.196341
 0.345000   3.083680   -5.932317
 0.350000   3.054680   -5.672183
 0.355000   3.026958   -5.420362
 0.360000   3.000476   -5.175817
 0.365000   2.975200   -4.939122
 0.370000   2.951085   -4.711236
 0.375000   2.928087   -4.491064
 0.380000   2.906175   -4.282135
 0.385000   2.885266   -4.089243
 0.390000   2.865282   -3.911790
 0.395000   2.846148   -3.749556
 0.400000   2.827787   -3.602482
 0.405000   2.810123   -3.471596
 0.410000   2.793071   -3.355750
 0.415000   2.776566   -3.249951
 0.420000   2.760571   -3.151368
 0.425000   2.745052   -3.059637
 0.430000   2.729975   -2.974591
 0.435000   2.715306   -2.896448
 0.440000   2.701010   -2.824702
 0.445000   2.687059   -2.759429
 0.450000   2.673416   -2.701759
 0.455000   2.660041   -2.652265
 0.460000   2.646893   -2.611482
 0.465000   2.633927   -2.579989
 0.470000   2.621093   -2.560357
 0.475000   2.608323   -2.555477
 0.480000   2.595539   -2.565096
 0.485000   2.582672   -2.588340
 0.490000   2.569655   -2.625121
 0.495000   2.556421   -2.676204
 0.500000   2.542893   -2.742346
 0.505000   2.528997   -2.819844
 0.510000   2.514695   -2.905448
 0.515000   2.499943   -2.998947
 0.520000   2.484705   -3.099080
 0.525000   2.468952   -3.204846
 0.530000   2.452657   -3.314635
 0.535000   2.435806   -3.425075
 0.540000   2.418406   -3.534502
 0.545000   2.400461   -3.642800
 0.550000   2.381978   -3.749218
 0.555000   2.362969   -3.853892
 0.560000   2.343439   -3.958403
 0.565000   2.323385   -4.064083
 0.570000   2.302798   -4.169079
 0.575000   2.281694   -4.270790
 0.580000   2.260090   -4.367972
 0.585000   2.238014   -4.459593
 0.590000   2.215495   -4.544588
 0.595000   2.192568   -4.622380
 0.600000   2.169271   -4.692436
 0.605000   2.145644   -4.753881
 0.610000   2.121732   -4.806114
 0.615000   2.097583   -4.848615
 0.620000   2.073246   -4.880909
 0.625000   2.048774   -4.902770
 0.630000   2.024218   -4.913965
 0.635000   1.999634   -4.913885
 0.640000   1.975079   -4.901548
 0.645000   1.950618   -4.875503
 0.650000   1.926324   -4.831960
 0.655000   1.902299   -4.769803
 0.660000   1.878626   -4.691888
 0.665000   1.855380   -4.599708
 0.670000   1.832629   -4.494531
 0.675000   1.810435   -4.378000
 0.680000   1.788849   -4.248603
 0.685000   1.767949   -4.110771
 0.690000   1.747741   -3.972195
 0.695000   1.728227   -3.834268
 0.700000   1.709399   -3.698647
 0.705000   1.691240   -3.567239
 0.710000   1.673726   -3.441907
 0.715000   1.656821   -3.324391
 0.720000   1.640482   -3.213280
 0.725000   1.624688   -3.106113
 0.730000   1.609421   -3.001345
 0.735000   1.594675   -2.896478
 0.740000   1.580457   -2.790590
 0.745000   1.566769   -2.679901
 0.750000   1.553657   -2.559312
 0.755000   1.541176   -2.430504
 0.760000   1.529352   -2.296698
 0.765000   1.518209   -2.159404
 0.770000   1.507758   -2.020550
 0.775000   1.498003   -1.881672
 0.780000   1.488942   -1.744824
 0.785000   1.480555   -1.613053
 0.790000   1.472811   -1.488661
 0.795000   1.465669   -1.373305
 0.800000   1.459078   -1.268134
 0.805000   1.452987   -1.173996
 0.810000   1.447338   -1.092998
 0.815000   1.442057   -1.026505
 0.820000   1.437073   -0.974483
 0.825000   1.432312   -0.937288
 0.830000   1.427700   -0.914932
 0.835000   1.423163   -0.907240
 0.840000   1.418628   -0.915282
 0.845000   1.414010   -0.939408
 0.850000   1.409234   -0.978870
 0.855000   1.404222   -1.033837
 0.860000   1.398895   -1.104861
 0.865000   1.393173   -1.194879
 0.870000   1.386947   -1.306974
 0.875000   1.380103   -1.442716
 0.880000   1.372519   -1.605159
 0.885000   1.364052   -1.799248
 0.890000   1.354527   -2.032254
 0.895000   1.343729   -2.327231
 0.900000   1.331255   -2.686871
 0.905000   1.316860   -3.108741
 0.910000   1.300167   -3.611803
 0.915000   1.280742   -4.205460
 0.920000   1.258113   -4.895062
 0.925000   1.231792   -5.722914
 0.930000   1.200883   -6.646220
 0.935000   1.165329   -7.590309
 0.940000   1.124980   -8.544531
 0.945000   1.079884   -9.460513
 0.950000   1.030375   -10.277713
 0.955000   0.977107   -10.961637
 0.960000   0.920759   -11.420421
 0.965000   0.862903   -11.593570
 0.970000   0.804823   -11.520842
 0.975000   0.747694   -11.219541
 0.980000   0.692628   -10.706488
 0.985000   0.640630   -10.022057
 0.990000   0.592407   -9.184061
 0.995000   0.548789   -8.215472
 1.000000   0.510252   -7.199116
201 psinorm nb(10^20/m^3) dnb/dpsiN
 0.000000   0.110123   0.042785
 0.005000   0.110029   -0.080176
 0.010000   0.109321   -0.176715
 0.015000   0.108262   -0.238740
 0.020000   0.106934   -0.287066
 0.025000   0.105392   -0.325247
 0.030000   0.103681   -0.354992
 0.035000   0.101842   -0.377684
 0.040000   0.099904   -0.394730
 0.045000   0.097894   -0.407082
 0.050000   0.095834   -0.415554
 0.055000   0.093739   -0.420652
 0.060000   0.091627   -0.422855
 0.065000   0.089510   -0.422717
 0.070000   0.087400   -0.420608
 0.075000   0.085304   -0.416850
 0.080000   0.083231   -0.411475
 0.085000   0.081190   -0.405142
 0.090000   0.079180   -0.398144
 0.095000   0.077208   -0.389719
 0.100000   0.075283   -0.380649
 0.105000   0.073402   -0.371648
 0.110000   0.071566   -0.362208
 0.115000   0.069780   -0.352381
 0.120000   0.068043   -0.341984
 0.125000   0.066360   -0.331159
 0.130000   0.064731   -0.320548
 0.135000   0.063154   -0.310113
 0.140000   0.061630   -0.299618
 0.145000   0.060158   -0.289188
 0.150000   0.058738   -0.278890
 0.155000   0.057369   -0.268727
 0.160000   0.056051   -0.258750
 0.165000   0.054782   -0.248986
 0.170000   0.053561   -0.239451
 0.175000   0.052387   -0.230189
 0.180000   0.051259   -0.221242
 0.185000   0.050175   -0.212602
 0.190000   0.049133   -0.204226
 0.195000   0.048132   -0.196137
 0.200000   0.047172   -0.188176
 0.205000   0.046251   -0.180306
 0.210000   0.045369   -0.172940
 0.215000   0.044521   -0.166118
 0.220000   0.043707   -0.159615
 0.225000   0.042925   -0.153425
 0.230000   0.042173   -0.147550
 0.235000   0.041450   -0.141983
 0.240000   0.040753   -0.136604
 0.245000   0.040084   -0.131117
 0.250000   0.039442   -0.126031
 0.255000   0.038823   -0.121626
 0.260000   0.038226   -0.117477
 0.265000   0.037648   -0.113566
 0.270000   0.037090   -0.109813
 0.275000   0.036550   -0.105916
 0.280000   0.036031   -0.102347
 0.285000   0.035527   -0.099387
 0.290000   0.035037   -0.096613
 0.295000   0.034561   -0.094013
 0.300000   0.034097   -0.091233
 0.305000   0.033648   -0.088631
 0.310000   0.033211   -0.086562
 0.315000   0.032783   -0.084646
 0.320000   0.032364   -0.082791
 0.325000   0.031955   -0.080826
 0.330000   0.031556   -0.079057
 0.335000   0.031164   -0.077640
 0.340000   0.030780   -0.076311
 0.345000   0.030401   -0.074881
 0.350000   0.030031   -0.073488
 0.355000   0.029666   -0.072370
 0.360000   0.029307   -0.071371
 0.365000   0.028953   -0.070318
 0.370000   0.028604   -0.069237
 0.375000   0.028260   -0.068326
 0.380000   0.027921   -0.067547
 0.385000   0.027585   -0.066721
 0.390000   0.027253   -0.065843
 0.395000   0.026926   -0.065081
 0.400000   0.026603   -0.064433
 0.405000   0.026282   -0.063728
 0.410000   0.025965   -0.062965
 0.415000   0.025652   -0.062301
 0.420000   0.025342   -0.061729
 0.425000   0.025035   -0.061079
 0.430000   0.024732   -0.060382
 0.435000   0.024431   -0.059784
 0.440000   0.024134   -0.059250
 0.445000   0.023839   -0.058605
 0.450000   0.023548   -0.057933
 0.455000   0.023259   -0.057380
 0.460000   0.022974   -0.056861
 0.465000   0.022691   -0.056194
 0.470000   0.022412   -0.055528
 0.475000   0.022136   -0.055011
 0.480000   0.021862   -0.054459
 0.485000   0.021591   -0.053801
 0.490000   0.021324   -0.053182
 0.495000   0.021059   -0.052675
 0.500000   0.020797   -0.052093
 0.505000   0.020538   -0.051440
 0.510000   0.020283   -0.050861
 0.515000   0.020030   -0.050352
 0.520000   0.019779   -0.049724
 0.525000   0.019532   -0.049056
 0.530000   0.019289   -0.048499
 0.535000   0.019047   -0.047970
 0.540000   0.018809   -0.047297
 0.545000   0.018574   -0.046631
 0.550000   0.018343   -0.046114
 0.555000   0.018113   -0.045565
 0.560000   0.017887   -0.044919
 0.565000   0.017664   -0.044322
 0.570000   0.017444   -0.043843
 0.575000   0.017226   -0.043322
 0.580000   0.017010   -0.042752
 0.585000   0.016798   -0.042259
 0.590000   0.016588   -0.041855
 0.595000   0.016380   -0.041416
 0.600000   0.016174   -0.040970
 0.605000   0.015970   -0.040611
 0.610000   0.015768   -0.040314
 0.615000   0.015567   -0.040005
 0.620000   0.015368   -0.039715
 0.625000   0.015170   -0.039503
 0.630000   0.014973   -0.039337
 0.635000   0.014776   -0.039184
 0.640000   0.014581   -0.039069
 0.645000   0.014386   -0.039014
 0.650000   0.014191   -0.038999
 0.655000   0.013996   -0.039021
 0.660000   0.013800   -0.039095
 0.665000   0.013605   -0.039201
 0.670000   0.013408   -0.039318
 0.675000   0.013211   -0.039455
 0.680000   0.013014   -0.039636
 0.685000   0.012815   -0.039819
 0.690000   0.012616   -0.039978
 0.695000   0.012415   -0.040142
 0.700000   0.012214   -0.040332
 0.705000   0.012012   -0.040528
 0.710000   0.011809   -0.040699
 0.715000   0.011605   -0.040865
 0.720000   0.011400   -0.041039
 0.725000   0.011195   -0.041244
 0.730000   0.010988   -0.041454
 0.735000   0.010780   -0.041649
 0.740000   0.010571   -0.041854
 0.745000   0.010361   -0.042078
 0.750000   0.010151   -0.042336
 0.755000   0.009938   -0.042592
 0.760000   0.009725   -0.042824
 0.765000   0.009510   -0.043056
 0.770000   0.009294   -0.043287
 0.775000   0.009077   -0.043546
 0.780000   0.008859   -0.043800
 0.785000   0.008639   -0.044015
 0.790000   0.008418   -0.044222
 0.795000   0.008197   -0.044420
 0.800000   0.007974   -0.044610
 0.805000   0.007751   -0.044803
 0.810000   0.007526   -0.044973
 0.815000   0.007301   -0.045106
 0.820000   0.007075   -0.045220
 0.825000   0.006849   -0.045314
 0.830000   0.006622   -0.045387
 0.835000   0.006395   -0.045435
 0.840000   0.006168   -0.045455
 0.845000   0.005940   -0.045443
 0.850000   0.005713   -0.045401
 0.855000   0.005486   -0.045327
 0.860000   0.005260   -0.045227
 0.865000   0.005034   -0.045133
 0.870000   0.004809   -0.045103
 0.875000   0.004583   -0.045172
 0.880000   0.004357   -0.045343
 0.885000   0.004130   -0.045609
 0.890000   0.003901   -0.045932
 0.895000   0.003670   -0.046265
 0.900000   0.003438   -0.046566
 0.905000   0.003205   -0.046779
 0.910000   0.002970   -0.046840
 0.915000   0.002736   -0.046645
 0.920000   0.002504   -0.046056
 0.925000   0.002276   -0.044978
 0.930000   0.002054   -0.043407
 0.935000   0.001842   -0.041454
 0.940000   0.001640   -0.039355
 0.945000   0.001448   -0.037445
 0.950000   0.001265   -0.035953
 0.955000   0.001088   -0.034640
 0.960000   0.000919   -0.032756
 0.965000   0.000761   -0.029681
 0.970000   0.000622   -0.025507
 0.975000   0.000506   -0.020938
 0.980000   0.000413   -0.016890
 0.985000   0.000337   -0.014201
 0.990000   0.000271   -0.012919
 0.995000   0.000208   -0.012834
 1.000000   0.000142   -0.013401
201 psinorm pb(KPa) dpb/dpsiN
 0.000000   45.554640   -7.507188
 0.005000   45.400874   -53.998877
 0.010000   45.014651   -91.240471
 0.015000   44.488470   -115.798873
 0.020000   43.856662   -134.558429
 0.025000   43.142885   -149.063514
 0.030000   42.366027   -160.091284
 0.035000   41.541973   -168.268386
 0.040000   40.683343   -174.172353
 0.045000   39.800249   -178.190812
 0.050000   38.901435   -180.672747
 0.055000   37.993522   -181.829923
 0.060000   37.083136   -181.867907
 0.065000   36.174842   -180.994181
 0.070000   35.273194   -179.371627
 0.075000   34.381126   -177.145651
 0.080000   33.501737   -174.301245
 0.085000   32.638114   -171.118176
 0.090000   31.790556   -167.725477
 0.095000   30.960859   -163.785413
 0.100000   30.152702   -159.625106
 0.105000   29.364608   -155.528005
 0.110000   28.597421   -151.285697
 0.115000   27.851751   -146.936743
 0.120000   27.128054   -142.391149
 0.125000   26.427839   -137.706001
 0.130000   25.750994   -133.134399
 0.135000   25.096495   -128.655739
 0.140000   24.464437   -124.175905
 0.145000   23.854736   -119.739654
 0.150000   23.267040   -115.375828
 0.155000   22.700978   -111.086871
 0.160000   22.156171   -106.885575
 0.165000   21.632122   -102.781658
 0.170000   21.128355   -98.781640
 0.175000   20.644306   -94.911349
 0.180000   20.179241   -91.192251
 0.185000   19.732383   -87.607516
 0.190000   19.303166   -84.136533
 0.195000   18.891018   -80.783055
 0.200000   18.495336   -77.490912
 0.205000   18.116109   -74.245320
 0.210000   17.752882   -71.200682
 0.215000   17.404102   -68.386892
 0.220000   17.069013   -65.710698
 0.225000   16.746995   -63.161002
 0.230000   16.437403   -60.741149
 0.235000   16.139584   -58.448908
 0.240000   15.852914   -56.239281
 0.245000   15.577191   -53.994558
 0.250000   15.312969   -51.911881
 0.255000   15.058072   -50.100008
 0.260000   14.811969   -48.391529
 0.265000   14.574157   -46.780818
 0.270000   14.344161   -45.236665
 0.275000   14.121790   -43.642584
 0.280000   13.907735   -42.181844
 0.285000   13.699972   -40.962646
 0.290000   13.498108   -39.819689
 0.295000   13.301775   -38.748272
 0.300000   13.110626   -37.613868
 0.305000   12.925636   -36.553106
 0.310000   12.745094   -35.700860
 0.315000   12.568628   -34.911221
 0.320000   12.395982   -34.148857
 0.325000   12.227139   -33.349268
 0.330000   12.062490   -32.625154
 0.335000   11.900887   -32.035305
 0.340000   11.742137   -31.483341
 0.345000   11.586054   -30.897726
 0.350000   11.433159   -30.330326
 0.355000   11.282751   -29.867070
 0.360000   11.134489   -29.448036
 0.365000   10.988270   -29.012391
 0.370000   10.844365   -28.568534
 0.375000   10.702585   -28.186161
 0.380000   10.562503   -27.852951
 0.385000   10.424056   -27.505457
 0.390000   10.287448   -27.142599
 0.395000   10.152630   -26.821643
 0.400000   10.019232   -26.540298
 0.405000   9.887227   -26.238699
 0.410000   9.756845   -25.918454
 0.415000   9.628042   -25.633637
 0.420000   9.500509   -25.381713
 0.425000   9.374225   -25.103237
 0.430000   9.249476   -24.809618
 0.435000   9.126129   -24.550680
 0.440000   9.003970   -24.313850
 0.445000   8.882990   -24.038833
 0.450000   8.763581   -23.754262
 0.455000   8.645448   -23.510626
 0.460000   8.528475   -23.278692
 0.465000   8.412661   -22.994715
 0.470000   8.298528   -22.709785
 0.475000   8.185563   -22.476725
 0.480000   8.073761   -22.231738
 0.485000   7.963245   -21.949477
 0.490000   7.854266   -21.680902
 0.495000   7.746436   -21.450938
 0.500000   7.639756   -21.194430
 0.505000   7.534492   -20.911207
 0.510000   7.430644   -20.652030
 0.515000   7.327972   -20.416221
 0.520000   7.226482   -20.134634
 0.525000   7.126626   -19.833547
 0.530000   7.028147   -19.570161
 0.535000   6.930924   -19.316985
 0.540000   6.834977   -19.003926
 0.545000   6.740885   -18.691352
 0.550000   6.648063   -18.437798
 0.555000   6.556507   -18.171013
 0.560000   6.466353   -17.861200
 0.565000   6.377895   -17.570232
 0.570000   6.290651   -17.329744
 0.575000   6.204597   -17.072519
 0.580000   6.119926   -16.792843
 0.585000   6.036669   -16.546005
 0.590000   5.954466   -16.339314
 0.595000   5.873276   -16.119140
 0.600000   5.793274   -15.896814
 0.605000   5.714308   -15.712379
 0.610000   5.636150   -15.555234
 0.615000   5.558755   -15.395184
 0.620000   5.482199   -15.247601
 0.625000   5.406279   -15.133420
 0.630000   5.330864   -15.037471
 0.635000   5.255904   -14.950371
 0.640000   5.181361   -14.883469
 0.645000   5.107070   -14.844143
 0.650000   5.032919   -14.822890
 0.655000   4.958841   -14.821620
 0.660000   4.884703   -14.846682
 0.665000   4.810374   -14.884512
 0.670000   4.735858   -14.924374
 0.675000   4.661130   -14.972096
 0.680000   4.586137   -15.038539
 0.685000   4.510745   -15.101364
 0.690000   4.435123   -15.146688
 0.695000   4.359278   -15.190866
 0.700000   4.283215   -15.242673
 0.705000   4.206851   -15.291598
 0.710000   4.130299   -15.325448
 0.715000   4.053597   -15.354372
 0.720000   3.976755   -15.383752
 0.725000   3.899759   -15.421844
 0.730000   3.822537   -15.458609
 0.735000   3.745173   -15.487612
 0.740000   3.667660   -15.518320
 0.745000   3.589990   -15.553373
 0.750000   3.512127   -15.597219
 0.755000   3.434018   -15.637530
 0.760000   3.355751   -15.668227
 0.765000   3.277336   -15.697070
 0.770000   3.198781   -15.723785
 0.775000   3.120098   -15.755376
 0.780000   3.041227   -15.782573
 0.785000   2.962272   -15.797460
 0.790000   2.883252   -15.808178
 0.795000   2.804190   -15.814391
 0.800000   2.725108   -15.817213
 0.805000   2.646018   -15.816894
 0.810000   2.566939   -15.808257
 0.815000   2.487936   -15.790732
 0.820000   2.409032   -15.767674
 0.825000   2.330259   -15.738527
 0.830000   2.251647   -15.703062
 0.835000   2.173228   -15.660033
 0.840000   2.095047   -15.606183
 0.845000   2.017166   -15.544980
 0.850000   1.939597   -15.479118
 0.855000   1.862375   -15.405669
 0.860000   1.785540   -15.326368
 0.865000   1.709111   -15.248897
 0.870000   1.633051   -15.186730
 0.875000   1.557244   -15.148215
 0.880000   1.481569   -15.132483
 0.885000   1.405919   -15.135416
 0.890000   1.330215   -15.152136
 0.895000   1.254398   -15.172684
 0.900000   1.178488   -15.181073
 0.905000   1.102587   -15.159569
 0.910000   1.026892   -15.085996
 0.915000   0.951727   -14.926392
 0.920000   0.877628   -14.635462
 0.925000   0.805373   -14.174838
 0.930000   0.735880   -13.531685
 0.935000   0.670056   -12.730312
 0.940000   0.608577   -11.851893
 0.945000   0.551537   -11.054273
 0.950000   0.498034   -10.542320
 0.955000   0.446114   -10.438051
 0.960000   0.393654   -10.649110
 0.965000   0.339623   -10.898986
 0.970000   0.284664   -10.907857
 0.975000   0.230544   -10.535003
 0.980000   0.179314   -9.668245
 0.985000   0.133862   -8.256919
 0.990000   0.096744   -6.464029
 0.995000   0.069221   -4.940424
 1.000000   0.047340   -3.811987
201 psinorm ptot(KPa) dptot/dpsiN
 0.000000   104.759954   -137.590400
 0.005000   103.984298   -172.671944
 0.010000   103.033235   -201.049824
 0.015000   101.973800   -220.081559
 0.020000   100.832419   -234.660431
 0.025000   99.627196   -245.994839
 0.030000   98.372471   -254.701291
 0.035000   97.080183   -261.275472
 0.040000   95.759716   -266.162004
 0.045000   94.418563   -269.652205
 0.050000   93.063194   -272.008175
 0.055000   91.698481   -273.387286
 0.060000   90.329321   -273.940143
 0.065000   88.959080   -273.810419
 0.070000   87.591217   -273.112592
 0.075000   86.227954   -271.941832
 0.080000   84.871799   -270.261680
 0.085000   83.525337   -268.280357
 0.090000   82.188995   -266.089013
 0.095000   80.864447   -263.408441
 0.100000   79.554911   -260.479000
 0.105000   78.259657   -257.515513
 0.110000   76.979755   -254.360199
 0.115000   75.716055   -251.040876
 0.120000   74.469347   -247.475723
 0.125000   73.241297   -243.704603
 0.130000   72.032301   -239.914868
 0.135000   70.842149   -236.090111
 0.140000   69.671400   -232.173556
 0.145000   68.520413   -228.207258
 0.150000   67.389327   -224.220961
 0.155000   66.278204   -220.227052
 0.160000   65.187056   -216.244208
 0.165000   64.115762   -212.272805
 0.170000   63.064328   -208.289623
 0.175000   62.032865   -204.302349
 0.180000   61.021305   -200.331938
 0.185000   60.029546   -196.364095
 0.190000   59.057664   -192.381577
 0.195000   58.105730   -188.384695
 0.200000   57.173817   -184.338984
 0.205000   56.262340   -180.242550
 0.210000   55.371391   -176.221763
 0.215000   54.500123   -172.307251
 0.220000   53.648319   -168.417683
 0.225000   52.815946   -164.534134
 0.230000   52.002978   -160.698591
 0.235000   51.208960   -156.953394
 0.240000   50.433444   -153.274921
 0.245000   49.676211   -149.584153
 0.250000   48.937602   -146.061556
 0.255000   48.215595   -142.820880
 0.260000   47.509393   -139.713136
 0.265000   46.818464   -136.702139
 0.270000   46.142372   -133.748751
 0.275000   45.480976   -130.745469
 0.280000   44.834917   -127.844710
 0.285000   44.202529   -125.147718
 0.290000   43.583440   -122.495053
 0.295000   42.977579   -119.871824
 0.300000   42.384722   -117.181197
 0.305000   41.805767   -114.543360
 0.310000   41.239288   -112.077980
 0.315000   40.684987   -109.660956
 0.320000   40.142679   -107.263567
 0.325000   39.612351   -104.839151
 0.330000   39.094287   -102.493920
 0.335000   38.587412   -100.285234
 0.340000   38.091435   -98.136327
 0.345000   37.606049   -95.980172
 0.350000   37.131633   -93.873821
 0.355000   36.667311   -91.906926
 0.360000   36.212564   -90.023001
 0.365000   35.767081   -88.171070
 0.370000   35.330853   -86.361106
 0.375000   34.903469   -84.648748
 0.380000   34.484366   -83.035913
 0.385000   34.073110   -81.484718
 0.390000   33.669518   -79.991525
 0.395000   33.273195   -78.604310
 0.400000   32.883475   -77.319859
 0.405000   32.499996   -76.088972
 0.410000   32.122586   -74.907811
 0.415000   31.750918   -73.804202
 0.420000   31.384544   -72.764643
 0.425000   31.023272   -71.735222
 0.430000   30.667191   -70.724490
 0.435000   30.316027   -69.775887
 0.440000   29.969433   -68.875831
 0.445000   29.627269   -67.971069
 0.450000   29.289722   -67.089865
 0.455000   28.956370   -66.277654
 0.460000   28.626945   -65.509967
 0.465000   28.301270   -64.731887
 0.470000   27.979626   -63.996345
 0.475000   27.661307   -63.359148
 0.480000   27.346035   -62.762484
 0.485000   27.033682   -62.179899
 0.490000   26.724236   -61.655060
 0.495000   26.417132   -61.211660
 0.500000   26.112119   -60.793774
 0.505000   25.809194   -60.387596
 0.510000   25.508243   -60.026268
 0.515000   25.208931   -59.708061
 0.520000   24.911163   -59.366567
 0.525000   24.615265   -59.021150
 0.530000   24.320951   -58.717432
 0.535000   24.028091   -58.419771
 0.540000   23.736754   -58.059138
 0.545000   23.447500   -57.689685
 0.550000   23.159857   -57.362144
 0.555000   22.873878   -57.011949
 0.560000   22.589737   -56.617062
 0.565000   22.307708   -56.238633
 0.570000   22.027351   -55.900583
 0.575000   21.748702   -55.534041
 0.580000   21.472010   -55.130242
 0.585000   21.197399   -54.737291
 0.590000   20.924638   -54.359547
 0.595000   20.653804   -53.946592
 0.600000   20.385172   -53.507676
 0.605000   20.118727   -53.077451
 0.610000   19.854397   -52.645058
 0.615000   19.592277   -52.181910
 0.620000   19.332578   -51.701350
 0.625000   19.075263   -51.222704
 0.630000   18.820351   -50.732462
 0.635000   18.567938   -50.221600
 0.640000   18.318135   -49.698889
 0.645000   18.070950   -49.167788
 0.650000   17.826457   -48.609523
 0.655000   17.584854   -48.023771
 0.660000   17.346219   -47.425159
 0.665000   17.110603   -46.804871
 0.670000   16.878171   -46.156122
 0.675000   16.649042   -45.488866
 0.680000   16.423282   -44.807556
 0.685000   16.200966   -44.104027
 0.690000   15.982242   -43.389337
 0.695000   15.767073   -42.683424
 0.700000   15.555408   -41.999321
 0.705000   15.347079   -41.332724
 0.710000   15.142080   -40.674482
 0.715000   14.940335   -40.034986
 0.720000   14.741730   -39.414454
 0.725000   14.546190   -38.813274
 0.730000   14.353598   -38.217905
 0.735000   14.164011   -37.617064
 0.740000   13.977427   -37.014683
 0.745000   13.793864   -36.406132
 0.750000   13.613366   -35.793686
 0.755000   13.435927   -35.174458
 0.760000   13.261621   -34.551643
 0.765000   13.090411   -33.939671
 0.770000   12.922224   -33.345421
 0.775000   12.756957   -32.784037
 0.780000   12.594384   -32.255732
 0.785000   12.434399   -31.756812
 0.790000   12.276816   -31.294763
 0.795000   12.121452   -30.868377
 0.800000   11.968132   -30.477439
 0.805000   11.816677   -30.120591
 0.810000   11.666926   -29.788735
 0.815000   11.518790   -29.476896
 0.820000   11.372157   -29.183737
 0.825000   11.226953   -28.901675
 0.830000   11.083141   -28.622343
 0.835000   10.940729   -28.334366
 0.840000   10.799797   -28.021043
 0.845000   10.660519   -27.672258
 0.850000   10.523074   -27.276713
 0.855000   10.387752   -26.814127
 0.860000   10.254933   -26.266303
 0.865000   10.125089   -25.623482
 0.870000   9.998698   -24.875276
 0.875000   9.876336   -23.996539
 0.880000   9.758733   -22.955988
 0.885000   9.646776   -21.727330
 0.890000   9.541460   -20.302006
 0.895000   9.443756   -18.734599
 0.900000   9.354114   -17.065230
 0.905000   9.273104   -15.403707
 0.910000   9.200076   -14.058681
 0.915000   9.132517   -13.527479
 0.920000   9.064802   -14.610655
 0.925000   8.986410   -18.628426
 0.930000   8.878517   -27.100780
 0.935000   8.715402   -41.669232
 0.940000   8.461825   -63.730365
 0.945000   8.078099   -93.138520
 0.950000   7.530440   -127.363055
 0.955000   6.804468   -161.600163
 0.960000   5.914438   -189.964053
 0.965000   4.904828   -206.316272
 0.970000   3.851276   -203.607291
 0.975000   2.868755   -177.282533
 0.980000   2.078450   -134.249346
 0.985000   1.526261   -91.180500
 0.990000   1.166645   -59.539688
 0.995000   0.930864   -39.996731
 1.000000   0.766678   -25.677885
201 psinorm omeg(kRad/s) domeg/dpsiN
 0.000000   34.203696   0.031337
 0.005000   34.203178   -0.238695
 0.010000   34.201309   -0.560671
 0.015000   34.197571   -0.998457
 0.020000   34.191325   -1.575313
 0.025000   34.181818   -2.314763
 0.030000   34.168177   -3.241167
 0.035000   34.149406   -4.377802
 0.040000   34.124399   -5.745586
 0.045000   34.091950   -7.351406
 0.050000   34.050885   -9.195865
 0.055000   33.999992   -11.280306
 0.060000   33.938082   -13.596720
 0.065000   33.864025   -16.130257
 0.070000   33.776779   -18.833126
 0.075000   33.675693   -21.651856
 0.080000   33.560261   -24.537226
 0.085000   33.430321   -27.418655
 0.090000   33.286074   -30.231149
 0.095000   33.128010   -32.923362
 0.100000   32.956841   -35.372874
 0.105000   32.774281   -37.609241
 0.110000   32.580748   -39.785076
 0.115000   32.376430   -41.901347
 0.120000   32.161735   -43.939818
 0.125000   31.937032   -45.896882
 0.130000   31.702766   -47.672795
 0.135000   31.460304   -49.253875
 0.140000   31.210227   -50.768979
 0.145000   30.952614   -52.243440
 0.150000   30.687793   -53.675836
 0.155000   30.415856   -55.111451
 0.160000   30.136678   -56.570014
 0.165000   29.850156   -58.012547
 0.170000   29.556553   -59.341177
 0.175000   29.256744   -60.464274
 0.180000   28.951910   -61.346765
 0.185000   28.643276   -61.985817
 0.190000   28.332052   -62.348641
 0.195000   28.019790   -62.420201
 0.200000   27.707850   -62.326140
 0.205000   27.396528   -62.124369
 0.210000   27.086606   -61.769346
 0.215000   26.778835   -61.264247
 0.220000   26.473964   -60.578446
 0.225000   26.173050   -59.677810
 0.230000   25.877186   -58.704321
 0.235000   25.586007   -57.759896
 0.240000   25.299587   -56.824263
 0.245000   25.017765   -55.938816
 0.250000   24.740198   -55.137353
 0.255000   24.466391   -54.482074
 0.260000   24.195378   -53.955456
 0.265000   23.926837   -53.445720
 0.270000   23.660921   -52.880066
 0.275000   23.398036   -52.214451
 0.280000   23.138776   -51.422311
 0.285000   22.883813   -50.509367
 0.290000   22.633682   -49.418240
 0.295000   22.389630   -48.117719
 0.300000   22.152505   -46.648222
 0.305000   21.923148   -45.012830
 0.310000   21.702377   -43.218167
 0.315000   21.490966   -41.256464
 0.320000   21.289812   -39.152328
 0.325000   21.099443   -36.958598
 0.330000   20.920226   -34.703537
 0.335000   20.752408   -32.408086
 0.340000   20.596145   -30.087338
 0.345000   20.451534   -27.744720
 0.350000   20.318698   -25.396354
 0.355000   20.197571   -23.050539
 0.360000   20.088193   -20.697675
 0.365000   19.990594   -18.342449
 0.370000   19.904768   -15.993011
 0.375000   19.830664   -13.656059
 0.380000   19.768208   -11.347070
 0.385000   19.717193   -9.080449
 0.390000   19.677403   -6.852944
 0.395000   19.648664   -4.652695
 0.400000   19.630876   -2.463246
 0.405000   19.624031   -0.264233
 0.410000   19.628234   1.967044
 0.415000   19.643702   4.236625
 0.420000   19.670600   6.530840
 0.425000   19.709010   8.829078
 0.430000   19.758891   11.103714
 0.435000   19.820047   13.330255
 0.440000   19.892194   15.463477
 0.445000   19.974682   17.442804
 0.450000   20.066622   19.232284
 0.455000   20.167005   20.808612
 0.460000   20.274708   22.158637
 0.465000   20.388591   23.310741
 0.470000   20.507815   24.365804
 0.475000   20.632249   25.376499
 0.480000   20.761580   26.309991
 0.485000   20.895349   27.126376
 0.490000   21.032844   27.762160
 0.495000   21.172971   28.174328
 0.500000   21.314587   28.279361
 0.505000   21.455765   27.778340
 0.510000   21.592370   26.444987
 0.515000   21.720214   24.197710
 0.520000   21.834348   20.895496
 0.525000   21.929169   16.431921
 0.530000   21.998667   10.722665
 0.535000   22.036396   3.728195
 0.540000   22.035949   -4.451501
 0.545000   21.991881   -13.629964
 0.550000   21.899649   -23.611819
 0.555000   21.755763   -34.197545
 0.560000   21.557674   -45.251994
 0.565000   21.303243   -56.674010
 0.570000   20.990934   -68.309616
 0.575000   20.620147   -79.970842
 0.580000   20.191225   -91.465991
 0.585000   19.705487   -102.600716
 0.590000   19.165218   -113.179015
 0.595000   18.573697   -123.018372
 0.600000   17.935034   -131.949025
 0.605000   17.254206   -139.803687
 0.610000   16.536997   -146.427283
 0.615000   15.789934   -151.679091
 0.620000   15.020207   -155.460832
 0.625000   14.235325   -157.665678
 0.630000   13.443550   -158.181686
 0.635000   12.653508   -156.904103
 0.640000   11.874509   -153.669287
 0.645000   11.116816   -148.286661
 0.650000   10.391642   -140.366353
 0.655000   9.713152   -129.951540
 0.660000   9.092127   -117.736963
 0.665000   8.535782   -104.354167
 0.670000   8.048585   -90.374536
 0.675000   7.632037   -76.366747
 0.680000   7.284918   -62.610866
 0.685000   7.005928   -49.762402
 0.690000   6.787294   -38.450525
 0.695000   6.621423   -28.595734
 0.700000   6.501336   -20.111176
 0.705000   6.420311   -12.907123
 0.710000   6.372265   -6.828296
 0.715000   6.352028   -1.703925
 0.720000   6.355226   2.703290
 0.725000   6.379061   6.651515
 0.730000   6.421741   10.298437
 0.735000   6.482046   13.719080
 0.740000   6.558932   16.914160
 0.745000   6.651187   19.800935
 0.750000   6.756941   22.268364
 0.755000   6.873871   24.252896
 0.760000   6.999470   25.712511
 0.765000   7.130996   26.607368
 0.770000   7.265544   26.907240
 0.775000   7.400068   26.595747
 0.780000   7.531501   25.702667
 0.785000   7.657095   24.275557
 0.790000   7.774257   22.353423
 0.795000   7.880629   19.987549
 0.800000   7.974132   17.228839
 0.805000   8.052918   14.137947
 0.810000   8.115512   10.802657
 0.815000   8.160944   7.283984
 0.820000   8.188352   3.615036
 0.825000   8.197095   -0.164296
 0.830000   8.186709   -4.024403
 0.835000   8.156851   -7.949985
 0.840000   8.107209   -11.952733
 0.845000   8.037323   -16.048514
 0.850000   7.946724   -20.243553
 0.855000   7.834888   -24.553285
 0.860000   7.701191   -29.018852
 0.865000   7.544699   -33.875880
 0.870000   7.362432   -39.335527
 0.875000   7.151344   -45.479359
 0.880000   6.907638   -52.404518
 0.885000   6.627299   -60.124963
 0.890000   6.306389   -68.602927
 0.895000   5.941270   -78.278026
 0.900000   5.523608   -88.421512
 0.905000   5.057054   -98.116515
 0.910000   4.542443   -107.383369
 0.915000   3.983221   -115.604956
 0.920000   3.386394   -121.976854
 0.925000   2.763452   -126.203134
 0.930000   2.124362   -126.468954
 0.935000   1.498763   -120.980875
 0.940000   0.914554   -109.706715
 0.945000   0.401695   -92.416937
 0.950000   -0.009616   -69.368738
 0.955000   -0.291992   -41.481698
 0.960000   -0.424433   -10.235980
 0.965000   -0.394352   22.031808
 0.970000   -0.204115   52.413389
 0.975000   0.129782   78.142653
 0.980000   0.577312   96.715144
 0.985000   1.096934   106.121059
 0.990000   1.638522   105.241645
 0.995000   2.149350   94.214629
 1.000000   2.580669   78.312856
201 psinorm omegp(kRad/s) domegp/dpsiN
 0.000000   -0.008912   55.232207
 0.005000   0.212738   33.427634
 0.010000   0.325365   22.239849
 0.015000   0.435137   21.560021
 0.020000   0.540965   21.186388
 0.025000   0.647000   20.481899
 0.030000   0.745784   19.032986
 0.035000   0.837330   17.658656
 0.040000   0.922371   16.235919
 0.045000   0.999689   14.838922
 0.050000   1.070760   13.799971
 0.055000   1.137689   13.201185
 0.060000   1.202772   13.099249
 0.065000   1.268682   13.317569
 0.070000   1.335947   13.691335
 0.075000   1.405595   14.118840
 0.080000   1.477136   14.434834
 0.085000   1.549943   14.814719
 0.090000   1.625283   15.104265
 0.095000   1.700986   15.105189
 0.100000   1.776335   14.930661
 0.105000   1.850293   14.558046
 0.110000   1.921915   14.029130
 0.115000   1.990584   13.200697
 0.120000   2.053922   12.224388
 0.125000   2.112828   11.259857
 0.130000   2.166521   10.289726
 0.135000   2.215725   9.416800
 0.140000   2.260689   8.697292
 0.145000   2.302698   8.173116
 0.150000   2.342420   7.860405
 0.155000   2.381302   7.711183
 0.160000   2.419532   7.657486
 0.165000   2.457877   7.582457
 0.170000   2.495356   7.448427
 0.175000   2.532361   7.294970
 0.180000   2.568306   6.994691
 0.185000   2.602308   6.644583
 0.190000   2.634752   6.244819
 0.195000   2.664756   5.787425
 0.200000   2.692626   5.280046
 0.205000   2.717557   4.660914
 0.210000   2.739235   4.104552
 0.215000   2.758602   3.492672
 0.220000   2.774162   2.888319
 0.225000   2.787485   2.385626
 0.230000   2.798018   1.846459
 0.235000   2.805950   1.413218
 0.240000   2.812150   1.053856
 0.245000   2.816489   0.718568
 0.250000   2.819336   0.446358
 0.255000   2.820952   0.122261
 0.260000   2.820559   -0.205793
 0.265000   2.818894   -0.543913
 0.270000   2.815120   -0.996952
 0.275000   2.808925   -1.458006
 0.280000   2.800539   -1.962523
 0.285000   2.789299   -2.545083
 0.290000   2.775089   -3.160366
 0.295000   2.757696   -3.811863
 0.300000   2.736970   -4.503419
 0.305000   2.712662   -5.221074
 0.310000   2.684759   -6.030495
 0.315000   2.652357   -6.915221
 0.320000   2.615607   -7.867213
 0.325000   2.573685   -8.986968
 0.330000   2.525737   -10.196378
 0.335000   2.471721   -11.438590
 0.340000   2.411351   -12.800814
 0.345000   2.343713   -14.257334
 0.350000   2.268778   -15.664565
 0.355000   2.187067   -17.059499
 0.360000   2.098183   -18.361832
 0.365000   2.003449   -19.445143
 0.370000   1.903732   -20.368996
 0.375000   1.799759   -21.055548
 0.380000   1.693176   -21.406379
 0.385000   1.585695   -21.617924
 0.390000   1.476997   -21.854260
 0.395000   1.367152   -22.096117
 0.400000   1.256036   -22.432520
 0.405000   1.142827   -22.891669
 0.410000   1.027119   -23.578595
 0.415000   0.907041   -24.503773
 0.420000   0.782081   -25.437816
 0.425000   0.652663   -26.383555
 0.430000   0.518246   -27.469622
 0.435000   0.377967   -28.950304
 0.440000   0.228743   -31.672244
 0.445000   0.061244   -35.919947
 0.450000   -0.130457   -41.430501
 0.455000   -0.353061   -48.221040
 0.460000   -0.612667   -56.204544
 0.465000   -0.915106   -65.403602
 0.470000   -1.266703   -75.686301
 0.475000   -1.671969   -85.482236
 0.480000   -2.121525   -93.678859
 0.485000   -2.608758   -100.112293
 0.490000   -3.122648   -104.161397
 0.495000   -3.650372   -105.062166
 0.500000   -4.173270   -101.917239
 0.505000   -4.669544   -95.196049
 0.510000   -5.125230   -86.168632
 0.515000   -5.531230   -75.580138
 0.520000   -5.881032   -64.279307
 0.525000   -6.174023   -52.714285
 0.530000   -6.408175   -41.988329
 0.535000   -6.593907   -33.445809
 0.540000   -6.742633   -27.016026
 0.545000   -6.864067   -22.369464
 0.550000   -6.966327   -19.129226
 0.555000   -7.055359   -17.106533
 0.560000   -7.137393   -15.987814
 0.565000   -7.215237   -15.130175
 0.570000   -7.288695   -14.196533
 0.575000   -7.357203   -13.225877
 0.580000   -7.420953   -12.099469
 0.585000   -7.478197   -10.713591
 0.590000   -7.528089   -8.985906
 0.595000   -7.568057   -6.857793
 0.600000   -7.596667   -4.382785
 0.605000   -7.611884   -1.624358
 0.610000   -7.612911   1.185812
 0.615000   -7.600026   3.953409
 0.620000   -7.573377   6.610826
 0.625000   -7.533918   8.988144
 0.630000   -7.483495   10.909765
 0.635000   -7.424820   12.409706
 0.640000   -7.359398   13.530390
 0.645000   -7.289516   14.159425
 0.650000   -7.217804   14.466138
 0.655000   -7.144855   14.675389
 0.660000   -7.071050   14.812114
 0.665000   -6.996734   14.863187
 0.670000   -6.922418   14.934236
 0.675000   -6.847392   15.135518
 0.680000   -6.771063   15.295188
 0.685000   -6.694440   15.396132
 0.690000   -6.617102   15.478441
 0.695000   -6.539655   15.477198
 0.700000   -6.462330   15.376476
 0.705000   -6.385890   15.207519
 0.710000   -6.310254   15.058937
 0.715000   -6.235301   14.848683
 0.720000   -6.161768   14.543230
 0.725000   -6.089869   14.207817
 0.730000   -6.019689   13.862449
 0.735000   -5.951244   13.428515
 0.740000   -5.885404   12.890741
 0.745000   -5.822337   12.336162
 0.750000   -5.762043   11.703019
 0.755000   -5.705307   10.981830
 0.760000   -5.652224   10.234283
 0.765000   -5.602964   9.413351
 0.770000   -5.558091   8.526242
 0.775000   -5.517701   7.624874
 0.780000   -5.481842   6.748384
 0.785000   -5.450218   5.836083
 0.790000   -5.423481   4.898589
 0.795000   -5.401232   4.025039
 0.800000   -5.383231   3.195218
 0.805000   -5.369280   2.289324
 0.810000   -5.360338   1.296579
 0.815000   -5.356314   0.290059
 0.820000   -5.357437   -0.860646
 0.825000   -5.364920   -2.250408
 0.830000   -5.379941   -3.714395
 0.835000   -5.402064   -5.178229
 0.840000   -5.431723   -6.688641
 0.845000   -5.468951   -8.129754
 0.850000   -5.513021   -9.395533
 0.855000   -5.562906   -10.404213
 0.860000   -5.617063   -11.251812
 0.865000   -5.675424   -11.952826
 0.870000   -5.736591   -12.373118
 0.875000   -5.799155   -12.566252
 0.880000   -5.862254   -12.579980
 0.885000   -5.924955   -12.269092
 0.890000   -5.984945   -11.491907
 0.895000   -6.039874   -10.383641
 0.900000   -6.088781   -8.938401
 0.905000   -6.129258   -7.022626
 0.910000   -6.159008   -4.690061
 0.915000   -6.176159   -1.975665
 0.920000   -6.178764   0.993155
 0.925000   -6.166227   4.202888
 0.930000   -6.136735   8.335678
 0.935000   -6.082870   14.222580
 0.940000   -5.994509   21.749959
 0.945000   -5.865371   31.537205
 0.950000   -5.679137   46.101310
 0.955000   -5.404358   65.286691
 0.960000   -5.026271   87.898872
 0.965000   -4.525369   116.274854
 0.970000   -3.863522   147.994611
 0.975000   -3.045423   178.068914
 0.980000   -2.082833   206.453268
 0.985000   -0.980890   239.820076
 0.990000   0.315368   294.003407
 0.995000   1.959144   380.943718
 1.000000   4.124805   485.320762
201 psinorm omgvb(kRad/s) domgvb/dpsiN
 0.000000   34.194785   55.263545
 0.005000   34.415916   33.188939
 0.010000   34.526674   21.679178
 0.015000   34.632708   20.561563
 0.020000   34.732290   19.611075
 0.025000   34.828818   18.167136
 0.030000   34.913961   15.791819
 0.035000   34.986737   13.280854
 0.040000   35.046770   10.490332
 0.045000   35.091640   7.487516
 0.050000   35.121645   4.604106
 0.055000   35.137681   1.920879
 0.060000   35.140853   -0.497471
 0.065000   35.132706   -2.812688
 0.070000   35.112727   -5.141791
 0.075000   35.081288   -7.533016
 0.080000   35.037396   -10.102392
 0.085000   34.980264   -12.603937
 0.090000   34.911357   -15.126884
 0.095000   34.828996   -17.818173
 0.100000   34.733175   -20.442213
 0.105000   34.624573   -23.051195
 0.110000   34.502663   -25.755946
 0.115000   34.367014   -28.700650
 0.120000   34.215657   -31.715430
 0.125000   34.049860   -34.637025
 0.130000   33.869287   -37.383069
 0.135000   33.676029   -39.837074
 0.140000   33.470916   -42.071687
 0.145000   33.255312   -44.070324
 0.150000   33.030213   -45.815431
 0.155000   32.797158   -47.400268
 0.160000   32.556210   -48.912528
 0.165000   32.308033   -50.430091
 0.170000   32.051909   -51.892750
 0.175000   31.789105   -53.169304
 0.180000   31.520216   -54.352075
 0.185000   31.245584   -55.341234
 0.190000   30.966804   -56.103823
 0.195000   30.684546   -56.632777
 0.200000   30.400476   -57.046094
 0.205000   30.114085   -57.463455
 0.210000   29.825841   -57.664794
 0.215000   29.537437   -57.771575
 0.220000   29.248126   -57.690127
 0.225000   28.960536   -57.292184
 0.230000   28.675204   -56.857862
 0.235000   28.391957   -56.346678
 0.240000   28.111737   -55.770407
 0.245000   27.834253   -55.220249
 0.250000   27.559535   -54.690994
 0.255000   27.287343   -54.359812
 0.260000   27.015936   -54.161249
 0.265000   26.745731   -53.989632
 0.270000   26.476040   -53.877018
 0.275000   26.206961   -53.672457
 0.280000   25.939315   -53.384833
 0.285000   25.673112   -53.054451
 0.290000   25.408771   -52.578606
 0.295000   25.147326   -51.929582
 0.300000   24.889475   -51.151640
 0.305000   24.635810   -50.233903
 0.310000   24.387136   -49.248662
 0.315000   24.143323   -48.171686
 0.320000   23.905419   -47.019542
 0.325000   23.673128   -45.945566
 0.330000   23.445964   -44.899915
 0.335000   23.224129   -43.846676
 0.340000   23.007497   -42.888152
 0.345000   22.795247   -42.002053
 0.350000   22.587476   -41.060919
 0.355000   22.384638   -40.110038
 0.360000   22.186376   -39.059507
 0.365000   21.994043   -37.787592
 0.370000   21.808500   -36.362006
 0.375000   21.630423   -34.711608
 0.380000   21.461384   -32.753450
 0.385000   21.302888   -30.698373
 0.390000   21.154400   -28.707204
 0.395000   21.015816   -26.748812
 0.400000   20.886912   -24.895766
 0.405000   20.766859   -23.155902
 0.410000   20.655353   -21.611551
 0.415000   20.550743   -20.267148
 0.420000   20.452682   -18.906977
 0.425000   20.361673   -17.554477
 0.430000   20.277137   -16.365908
 0.435000   20.198014   -15.620049
 0.440000   20.120936   -16.208767
 0.445000   20.035927   -18.477143
 0.450000   19.936165   -22.198217
 0.455000   19.813944   -27.412428
 0.460000   19.662041   -34.045907
 0.465000   19.473485   -42.092862
 0.470000   19.241112   -51.320497
 0.475000   18.960280   -60.105737
 0.480000   18.640055   -67.368867
 0.485000   18.286592   -72.985917
 0.490000   17.910195   -76.399238
 0.495000   17.522599   -76.887838
 0.500000   17.141317   -73.637878
 0.505000   16.786220   -67.417708
 0.510000   16.467140   -59.723645
 0.515000   16.188984   -51.382429
 0.520000   15.953316   -43.383812
 0.525000   15.755146   -36.282364
 0.530000   15.590492   -31.265664
 0.535000   15.442489   -29.717614
 0.540000   15.293316   -31.467528
 0.545000   15.127814   -35.999427
 0.550000   14.933322   -42.741045
 0.555000   14.700404   -51.304078
 0.560000   14.420281   -61.239808
 0.565000   14.088005   -71.804185
 0.570000   13.702239   -82.506149
 0.575000   13.262944   -93.196719
 0.580000   12.770272   -103.565461
 0.585000   12.227289   -113.314307
 0.590000   11.637129   -122.164920
 0.595000   11.005640   -129.876165
 0.600000   10.338367   -136.331809
 0.605000   9.642322   -141.428045
 0.610000   8.924087   -145.241470
 0.615000   8.189907   -147.725682
 0.620000   7.446830   -148.850006
 0.625000   6.701407   -148.677534
 0.630000   5.960055   -147.271921
 0.635000   5.228688   -144.494397
 0.640000   4.515111   -140.138897
 0.645000   3.827299   -134.127236
 0.650000   3.173838   -125.900215
 0.655000   2.568297   -115.276151
 0.660000   2.021077   -102.924849
 0.665000   1.539048   -89.490980
 0.670000   1.126167   -75.440300
 0.675000   0.784645   -61.231228
 0.680000   0.513855   -47.315678
 0.685000   0.311489   -34.366270
 0.690000   0.170192   -22.972084
 0.695000   0.081768   -13.118536
 0.700000   0.039007   -4.734700
 0.705000   0.034421   2.300396
 0.710000   0.062011   8.230641
 0.715000   0.116727   13.144758
 0.720000   0.193458   17.246520
 0.725000   0.289192   20.859333
 0.730000   0.402051   24.160886
 0.735000   0.530801   27.147595
 0.740000   0.673527   29.804902
 0.745000   0.828850   32.137097
 0.750000   0.994898   33.971383
 0.755000   1.168564   35.234726
 0.760000   1.347246   35.946793
 0.765000   1.528032   36.020719
 0.770000   1.707453   35.433482
 0.775000   1.882367   34.220621
 0.780000   2.049659   32.451051
 0.785000   2.206877   30.111640
 0.790000   2.350775   27.252012
 0.795000   2.479398   24.012588
 0.800000   2.590901   20.424057
 0.805000   2.683638   16.427271
 0.810000   2.755174   12.099236
 0.815000   2.804631   7.574043
 0.820000   2.830914   2.754390
 0.825000   2.832174   -2.414704
 0.830000   2.806767   -7.738798
 0.835000   2.754786   -13.128214
 0.840000   2.675485   -18.641374
 0.845000   2.568373   -24.178268
 0.850000   2.433703   -29.639086
 0.855000   2.271982   -34.957498
 0.860000   2.084128   -40.270664
 0.865000   1.869275   -45.828707
 0.870000   1.625841   -51.708645
 0.875000   1.352189   -58.045612
 0.880000   1.045384   -64.984498
 0.885000   0.702344   -72.394056
 0.890000   0.321444   -80.094833
 0.895000   -0.098605   -88.661667
 0.900000   -0.565173   -97.359912
 0.905000   -1.072204   -105.139141
 0.910000   -1.616564   -112.073430
 0.915000   -2.192938   -117.580621
 0.920000   -2.792370   -120.983699
 0.925000   -3.402775   -122.000246
 0.930000   -4.012373   -118.133277
 0.935000   -4.584108   -106.758295
 0.940000   -5.079956   -87.956756
 0.945000   -5.463675   -60.879732
 0.950000   -5.688753   -23.267428
 0.955000   -5.696350   23.804994
 0.960000   -5.450703   77.662892
 0.965000   -4.919721   138.306661
 0.970000   -4.067637   200.408000
 0.975000   -2.915641   256.211567
 0.980000   -1.505521   303.168411
 0.985000   0.116043   345.941135
 0.990000   1.953890   399.245052
 0.995000   4.108494   475.158346
 1.000000   6.705474   563.633618
201 psinorm omgpp(kRad/s) domgpp/dpsiN
 0.000000   -0.059419   -29.736330
 0.005000   -0.239526   -42.306734
 0.010000   -0.482486   -48.893108
 0.015000   -0.728457   -49.471625
 0.020000   -0.977202   -50.020498
 0.025000   -1.228662   -50.568160
 0.030000   -1.482884   -51.082799
 0.035000   -1.739490   -51.534345
 0.040000   -1.998227   -51.915510
 0.045000   -2.258645   -52.192580
 0.050000   -2.520153   -52.356434
 0.055000   -2.782210   -52.345643
 0.060000   -3.043609   -52.039612
 0.065000   -3.302606   -51.464503
 0.070000   -3.558254   -50.644248
 0.075000   -3.809048   -49.516668
 0.080000   -4.053421   -48.041929
 0.085000   -4.289468   -46.194301
 0.090000   -4.515364   -44.356186
 0.095000   -4.733029   -42.553015
 0.100000   -4.940894   -40.532084
 0.105000   -5.138350   -38.397705
 0.110000   -5.324871   -36.128783
 0.115000   -5.499638   -33.598558
 0.120000   -5.660857   -31.264857
 0.125000   -5.812287   -29.047133
 0.130000   -5.951328   -26.563042
 0.135000   -6.077917   -24.098356
 0.140000   -6.192312   -21.716856
 0.145000   -6.295086   -19.486872
 0.150000   -6.387181   -17.840765
 0.155000   -6.473493   -16.420595
 0.160000   -6.551387   -14.619628
 0.165000   -6.619690   -12.567612
 0.170000   -6.677063   -10.240505
 0.175000   -6.722095   -7.720712
 0.180000   -6.754270   -5.103257
 0.185000   -6.773127   -2.533164
 0.190000   -6.779601   -0.085496
 0.195000   -6.773982   2.303061
 0.200000   -6.756571   4.630839
 0.205000   -6.727674   7.059653
 0.210000   -6.685974   9.501512
 0.215000   -6.632659   11.873967
 0.220000   -6.567235   14.271012
 0.225000   -6.489949   16.521635
 0.230000   -6.402018   18.464753
 0.235000   -6.305301   20.072102
 0.240000   -6.201297   20.663502
 0.245000   -6.098666   20.519274
 0.250000   -5.996104   20.564367
 0.255000   -5.893022   20.687419
 0.260000   -5.789230   20.895619
 0.265000   -5.684066   21.088562
 0.270000   -5.578345   21.726624
 0.275000   -5.466800   22.992852
 0.280000   -5.348416   24.211364
 0.285000   -5.224686   25.266669
 0.290000   -5.095749   26.287012
 0.295000   -4.961816   27.191983
 0.300000   -4.823830   28.180094
 0.305000   -4.680015   29.323908
 0.310000   -4.530591   30.307484
 0.315000   -4.376940   31.091608
 0.320000   -4.219674   31.740921
 0.325000   -4.059531   32.345981
 0.330000   -3.896215   32.885118
 0.335000   -3.730680   32.970838
 0.340000   -3.566506   32.728593
 0.345000   -3.403394   32.430057
 0.350000   -3.242206   31.969360
 0.355000   -3.083700   31.487783
 0.360000   -2.927328   30.994515
 0.365000   -2.773755   29.979689
 0.370000   -2.627531   28.709536
 0.375000   -2.486660   27.582597
 0.380000   -2.351705   26.341124
 0.385000   -2.223249   24.988545
 0.390000   -2.101820   23.420686
 0.395000   -1.989042   21.690174
 0.400000   -1.884918   20.117801
 0.405000   -1.787864   18.763307
 0.410000   -1.697285   17.541341
 0.415000   -1.612450   16.462783
 0.420000   -1.532657   15.486607
 0.425000   -1.457584   14.798446
 0.430000   -1.384672   14.152001
 0.435000   -1.316064   13.257014
 0.440000   -1.252102   12.296603
 0.445000   -1.193098   11.280786
 0.450000   -1.139294   10.345963
 0.455000   -1.089639   9.279536
 0.460000   -1.046499   7.922748
 0.465000   -1.010411   6.435206
 0.470000   -0.982147   4.820033
 0.475000   -0.962211   3.127009
 0.480000   -0.950877   1.302707
 0.485000   -0.949184   -0.538579
 0.490000   -0.956263   -2.264244
 0.495000   -0.971826   -3.940900
 0.500000   -0.995672   -5.552518
 0.505000   -1.027351   -7.052611
 0.510000   -1.066198   -8.555938
 0.515000   -1.112911   -9.720075
 0.520000   -1.163399   -10.536685
 0.525000   -1.218278   -11.395148
 0.530000   -1.277350   -12.162983
 0.535000   -1.339908   -12.783022
 0.540000   -1.405180   -13.182735
 0.545000   -1.471735   -13.401758
 0.550000   -1.539198   -13.738308
 0.555000   -1.609118   -14.256265
 0.560000   -1.681761   -14.766696
 0.565000   -1.756785   -15.160623
 0.570000   -1.833367   -15.331425
 0.575000   -1.910099   -15.264292
 0.580000   -1.986010   -15.047940
 0.585000   -2.060579   -14.723927
 0.590000   -2.133249   -14.295376
 0.595000   -2.203532   -13.774397
 0.600000   -2.270993   -13.164758
 0.605000   -2.335180   -12.492966
 0.610000   -2.395923   -11.778241
 0.615000   -2.452962   -10.998218
 0.620000   -2.505905   -10.147111
 0.625000   -2.554433   -9.228835
 0.630000   -2.598193   -8.239417
 0.635000   -2.636828   -7.108506
 0.640000   -2.669278   -5.705814
 0.645000   -2.693886   -4.045136
 0.650000   -2.709730   -2.263007
 0.655000   -2.716516   -0.471733
 0.660000   -2.714447   1.326322
 0.665000   -2.703253   3.071287
 0.670000   -2.683734   4.156724
 0.675000   -2.661685   4.788798
 0.680000   -2.635846   5.441973
 0.685000   -2.607266   5.880804
 0.690000   -2.577038   6.109587
 0.695000   -2.546170   5.941291
 0.700000   -2.517625   5.285953
 0.705000   -2.493310   4.522365
 0.710000   -2.472401   3.714987
 0.715000   -2.456160   2.667983
 0.720000   -2.445722   1.325653
 0.725000   -2.442904   -1.175485
 0.730000   -2.457476   -2.292568
 0.735000   -2.465829   -1.510046
 0.740000   -2.472577   -0.993708
 0.745000   -2.475767   -0.107054
 0.750000   -2.473647   1.116053
 0.755000   -2.464606   1.918150
 0.760000   -2.454466   4.361712
 0.765000   -2.420989   7.964881
 0.770000   -2.374817   10.499749
 0.775000   -2.315991   12.994283
 0.780000   -2.244874   15.362320
 0.785000   -2.162368   17.957707
 0.790000   -2.065297   19.925695
 0.795000   -1.963111   20.588512
 0.800000   -1.859412   20.728395
 0.805000   -1.755827   20.522483
 0.810000   -1.654187   19.963797
 0.815000   -1.556189   19.620529
 0.820000   -1.457982   18.349712
 0.825000   -1.372692   15.863052
 0.830000   -1.299351   13.532359
 0.835000   -1.237369   11.184599
 0.840000   -1.187505   8.709787
 0.845000   -1.150271   6.205138
 0.850000   -1.125454   3.568151
 0.855000   -1.114589   1.143488
 0.860000   -1.114019   -0.877229
 0.865000   -1.123362   -2.967941
 0.870000   -1.143699   -5.341068
 0.875000   -1.176772   -8.344506
 0.880000   -1.227144   -12.475595
 0.885000   -1.301528   -17.550744
 0.890000   -1.402651   -23.394508
 0.895000   -1.535473   -30.319837
 0.900000   -1.705849   -38.577915
 0.905000   -1.921252   -50.628586
 0.910000   -2.212135   -66.761836
 0.915000   -2.588871   -81.848432
 0.920000   -3.030620   -98.345850
 0.925000   -3.572329   -120.841851
 0.930000   -4.239038   -149.226417
 0.935000   -5.064593   -189.400220
 0.940000   -6.133040   -243.351972
 0.945000   -7.498113   -294.090503
 0.950000   -9.073945   -340.787467
 0.955000   -10.905988   -384.282341
 0.960000   -12.916769   -403.350597
 0.965000   -14.939494   -385.087573
 0.970000   -16.767645   -314.718063
 0.975000   -18.086674   -167.725236
 0.980000   -18.444897   20.244419
 0.985000   -17.884230   194.628099
 0.990000   -16.498616   334.677300
 0.995000   -14.537457   415.660107
 1.000000   -12.342015   462.516848
201 psinorm omgeb(kRad/s) domgeb/dpsiN
 0.000000   34.135366   25.527215
 0.005000   34.176390   -9.117795
 0.010000   34.044188   -27.213930
 0.015000   33.904250   -28.910061
 0.020000   33.755087   -30.409424
 0.025000   33.600156   -32.401023
 0.030000   33.431077   -35.290980
 0.035000   33.247246   -38.253491
 0.040000   33.048542   -41.425177
 0.045000   32.832994   -44.705064
 0.050000   32.601492   -47.752328
 0.055000   32.355471   -50.424764
 0.060000   32.097244   -52.537082
 0.065000   31.830100   -54.277191
 0.070000   31.554472   -55.786038
 0.075000   31.272240   -57.049684
 0.080000   30.983975   -58.144321
 0.085000   30.690797   -58.798238
 0.090000   30.395993   -59.483070
 0.095000   30.095966   -60.371188
 0.100000   29.792281   -60.974297
 0.105000   29.486223   -61.448900
 0.110000   29.177792   -61.884729
 0.115000   28.867376   -62.299207
 0.120000   28.554800   -62.980287
 0.125000   28.237573   -63.684158
 0.130000   27.917958   -63.946111
 0.135000   27.598112   -63.935431
 0.140000   27.278604   -63.788543
 0.145000   26.960226   -63.557196
 0.150000   26.643032   -63.656195
 0.155000   26.323664   -63.820863
 0.160000   26.004823   -63.532156
 0.165000   25.688343   -62.997703
 0.170000   25.374846   -62.133255
 0.175000   25.067010   -60.890016
 0.180000   24.765946   -59.455331
 0.185000   24.472457   -57.874397
 0.190000   24.187202   -56.189319
 0.195000   23.910564   -54.329716
 0.200000   23.643905   -52.415255
 0.205000   23.386411   -50.403802
 0.210000   23.139867   -48.163282
 0.215000   22.904778   -45.897608
 0.220000   22.680891   -43.419115
 0.225000   22.470587   -40.770549
 0.230000   22.273186   -38.393109
 0.235000   22.086656   -36.274576
 0.240000   21.910440   -35.106905
 0.245000   21.735587   -34.700975
 0.250000   21.563430   -34.126627
 0.255000   21.394321   -33.672393
 0.260000   21.226706   -33.265630
 0.265000   21.061665   -32.901071
 0.270000   20.897695   -32.150393
 0.275000   20.740161   -30.679605
 0.280000   20.590899   -29.173470
 0.285000   20.448426   -27.787782
 0.290000   20.313022   -26.291594
 0.295000   20.185510   -24.737599
 0.300000   20.065646   -22.971546
 0.305000   19.955795   -20.909995
 0.310000   19.856546   -18.941178
 0.315000   19.766383   -17.080078
 0.320000   19.685745   -15.278620
 0.325000   19.613597   -13.599585
 0.330000   19.549749   -12.014797
 0.335000   19.493449   -10.875838
 0.340000   19.440991   -10.159559
 0.345000   19.391853   -9.571996
 0.350000   19.345271   -9.091560
 0.355000   19.300937   -8.622255
 0.360000   19.259048   -8.064992
 0.365000   19.220287   -7.807903
 0.370000   19.180969   -7.652470
 0.375000   19.143763   -7.129011
 0.380000   19.109679   -6.412326
 0.385000   19.079640   -5.709828
 0.390000   19.052581   -5.286518
 0.395000   19.026774   -5.058638
 0.400000   19.001994   -4.777965
 0.405000   18.978995   -4.392595
 0.410000   18.958068   -4.070211
 0.415000   18.938293   -3.804365
 0.420000   18.920025   -3.420370
 0.425000   18.904089   -2.756031
 0.430000   18.892464   -2.213908
 0.435000   18.881950   -2.363035
 0.440000   18.868834   -3.912164
 0.445000   18.842828   -7.196357
 0.450000   18.796870   -11.852254
 0.455000   18.724306   -18.132892
 0.460000   18.615542   -26.123159
 0.465000   18.463074   -35.657655
 0.470000   18.258965   -46.500465
 0.475000   17.998069   -56.978728
 0.480000   17.689178   -66.066160
 0.485000   17.337408   -73.524496
 0.490000   16.953933   -78.663482
 0.495000   16.550773   -80.828738
 0.500000   16.145645   -79.190395
 0.505000   15.758869   -74.470320
 0.510000   15.400942   -68.279583
 0.515000   15.076073   -61.102504
 0.520000   14.789917   -53.920497
 0.525000   14.536868   -47.677512
 0.530000   14.313142   -43.428647
 0.535000   14.102582   -42.500636
 0.540000   13.888136   -44.650262
 0.545000   13.656079   -49.401185
 0.550000   13.394124   -56.479353
 0.555000   13.091286   -65.560343
 0.560000   12.738520   -76.006504
 0.565000   12.331221   -86.964807
 0.570000   11.868872   -97.837574
 0.575000   11.352845   -108.461012
 0.580000   10.784262   -118.613401
 0.585000   10.166711   -128.038234
 0.590000   9.503880   -136.460296
 0.595000   8.802108   -143.650562
 0.600000   8.067374   -149.496567
 0.605000   7.307142   -153.921011
 0.610000   6.528164   -157.019711
 0.615000   5.736945   -158.723900
 0.620000   4.940925   -158.997116
 0.625000   4.146974   -157.906369
 0.630000   3.361861   -155.511338
 0.635000   2.591861   -151.602903
 0.640000   1.845832   -145.844711
 0.645000   1.133413   -138.172372
 0.650000   0.464109   -128.163222
 0.655000   -0.148219   -115.747883
 0.660000   -0.693370   -101.598527
 0.665000   -1.164204   -86.419694
 0.670000   -1.557567   -71.283576
 0.675000   -1.877040   -56.442430
 0.680000   -2.121991   -41.873705
 0.685000   -2.295777   -28.485466
 0.690000   -2.406846   -16.862497
 0.695000   -2.464402   -7.177245
 0.700000   -2.478618   0.551253
 0.705000   -2.458889   6.822761
 0.710000   -2.410391   11.945628
 0.715000   -2.339433   15.812741
 0.720000   -2.252263   18.572173
 0.725000   -2.153711   19.683848
 0.730000   -2.055425   21.868318
 0.735000   -1.935028   25.637549
 0.740000   -1.799050   28.811193
 0.745000   -1.646916   32.030044
 0.750000   -1.478749   35.087436
 0.755000   -1.296042   37.152876
 0.760000   -1.107220   40.308505
 0.765000   -0.892957   43.985600
 0.770000   -0.667364   45.933232
 0.775000   -0.433624   47.214905
 0.780000   -0.195215   47.813371
 0.785000   0.044509   48.069347
 0.790000   0.285478   47.177707
 0.795000   0.516286   44.601100
 0.800000   0.731489   41.152452
 0.805000   0.927811   36.949753
 0.810000   1.100987   32.063032
 0.815000   1.248441   27.194572
 0.820000   1.372932   21.104102
 0.825000   1.459482   13.448348
 0.830000   1.507416   5.793560
 0.835000   1.517418   -1.943615
 0.840000   1.487980   -9.931587
 0.845000   1.418102   -17.973130
 0.850000   1.308248   -26.070935
 0.855000   1.157393   -33.814009
 0.860000   0.970108   -41.147894
 0.865000   0.745914   -48.796648
 0.870000   0.482142   -57.049714
 0.875000   0.175417   -66.390118
 0.880000   -0.181759   -77.460093
 0.885000   -0.599184   -89.944800
 0.890000   -1.081207   -103.489341
 0.895000   -1.634078   -118.981503
 0.900000   -2.271022   -135.937827
 0.905000   -2.993456   -155.767728
 0.910000   -3.828700   -178.835266
 0.915000   -4.781809   -199.429053
 0.920000   -5.822990   -219.329549
 0.925000   -6.975104   -242.842097
 0.930000   -8.251411   -267.359694
 0.935000   -9.648701   -296.158515
 0.940000   -11.212996   -331.308728
 0.945000   -12.961788   -354.970235
 0.950000   -14.762699   -364.054895
 0.955000   -16.602337   -360.477347
 0.960000   -18.367472   -325.687705
 0.965000   -19.859214   -246.780912
 0.970000   -20.835281   -114.310063
 0.975000   -21.002315   88.486331
 0.980000   -19.950418   323.412831
 0.985000   -17.768187   540.569234
 0.990000   -14.544726   733.922352
 0.995000   -10.428963   890.818453
 1.000000   -5.636541   1026.150466
201 psinorm er(kV/m) der/dpsiN
 0.000000   0.443714   739.564329
 0.005000   3.384802   436.870690
 0.010000   4.812421   250.846119
 0.015000   5.893263   199.198535
 0.020000   6.804407   169.931045
 0.025000   7.592574   148.730839
 0.030000   8.291715   133.012450
 0.035000   8.922698   120.505285
 0.040000   9.496768   109.963921
 0.045000   10.022337   100.746016
 0.050000   10.504228   92.154747
 0.055000   10.943885   83.856694
 0.060000   11.342795   76.658412
 0.065000   11.710469   72.205011
 0.070000   12.064845   67.357016
 0.075000   12.384039   59.092711
 0.080000   12.655772   56.024350
 0.085000   12.944283   53.044145
 0.090000   13.186214   46.323778
 0.095000   13.407520   45.531236
 0.100000   13.641526   38.378398
 0.105000   13.791304   36.159976
 0.110000   14.003126   33.955800
 0.115000   14.130862   29.691887
 0.120000   14.300045   27.454417
 0.125000   14.405407   23.685018
 0.130000   14.536895   21.251441
 0.135000   14.617921   18.776877
 0.140000   14.724664   16.034901
 0.145000   14.778270   14.673359
 0.150000   14.871397   11.197930
 0.155000   14.890249   10.614829
 0.160000   14.977546   6.723472
 0.165000   14.957484   6.074989
 0.170000   15.038295   4.871133
 0.175000   15.006195   1.953987
 0.180000   15.057835   4.852053
 0.185000   15.054716   0.119240
 0.190000   15.059028   3.714887
 0.195000   15.091865   -0.937872
 0.200000   15.049649   0.850745
 0.205000   15.100372   1.281807
 0.210000   15.062467   -1.629436
 0.215000   15.084078   4.279386
 0.220000   15.105261   -0.888571
 0.225000   15.075192   2.285444
 0.230000   15.128115   3.447308
 0.235000   15.109665   0.420799
 0.240000   15.132323   6.438977
 0.245000   15.174055   -0.144290
 0.250000   15.130880   -0.259583
 0.255000   15.171459   4.364540
 0.260000   15.174526   -1.917153
 0.265000   15.152288   0.627783
 0.270000   15.180804   0.414832
 0.275000   15.156436   -2.522633
 0.280000   15.155577   2.876366
 0.285000   15.185200   -0.373876
 0.290000   15.151839   -1.406216
 0.295000   15.171137   5.221164
 0.300000   15.204050   0.296599
 0.305000   15.174103   0.895780
 0.310000   15.213008   7.713096
 0.315000   15.251234   3.244092
 0.320000   15.245449   4.302573
 0.325000   15.294260   9.548537
 0.330000   15.340934   5.921649
 0.335000   15.353477   6.695221
 0.340000   15.407886   10.447643
 0.345000   15.457953   6.796680
 0.350000   15.475853   6.988009
 0.355000   15.527833   10.189621
 0.360000   15.577749   7.074072
 0.365000   15.598574   6.871726
 0.370000   15.646467   9.627725
 0.375000   15.694851   7.033870
 0.380000   15.716805   6.957965
 0.385000   15.764431   9.727228
 0.390000   15.814078   8.041737
 0.395000   15.844848   7.339569
 0.400000   15.887473   8.932998
 0.405000   15.934178   8.276448
 0.410000   15.970238   7.466353
 0.415000   16.008842   8.357801
 0.420000   16.053816   8.548930
 0.425000   16.094331   7.916609
 0.430000   16.132982   8.504061
 0.435000   16.179371   8.807953
 0.440000   16.221062   6.291767
 0.445000   16.242289   3.217150
 0.450000   16.253233   -0.161121
 0.455000   16.240678   -6.647536
 0.460000   16.186758   -14.166850
 0.465000   16.099009   -22.074018
 0.470000   15.966017   -32.144843
 0.475000   15.777561   -42.204257
 0.480000   15.543975   -50.339044
 0.485000   15.274171   -57.074937
 0.490000   14.973226   -62.662801
 0.495000   14.647543   -65.048999
 0.500000   14.322736   -63.471762
 0.505000   14.012825   -60.268640
 0.510000   13.720049   -55.383325
 0.515000   13.458992   -48.770474
 0.520000   13.232344   -42.799609
 0.525000   13.030996   -37.996383
 0.530000   12.852381   -34.228722
 0.535000   12.688708   -33.194843
 0.540000   12.520432   -36.090666
 0.545000   12.327802   -40.680549
 0.550000   12.113627   -46.592661
 0.555000   11.861875   -55.522133
 0.560000   11.558405   -65.681690
 0.565000   11.205058   -75.478393
 0.570000   10.803621   -85.454999
 0.575000   10.350508   -96.210648
 0.580000   9.841515   -105.753101
 0.585000   9.292977   -113.984821
 0.590000   8.701667   -122.674454
 0.595000   8.066233   -129.966931
 0.600000   7.401997   -135.092931
 0.605000   6.715303   -139.441622
 0.610000   6.007581   -143.388939
 0.615000   5.281414   -145.162315
 0.620000   4.555958   -145.053474
 0.625000   3.830879   -145.041466
 0.630000   3.105543   -143.430694
 0.635000   2.396572   -139.479845
 0.640000   1.710745   -134.384865
 0.645000   1.052724   -128.231896
 0.650000   0.428426   -119.021192
 0.655000   -0.137488   -107.043881
 0.660000   -0.642013   -94.656476
 0.665000   -1.084053   -80.952470
 0.670000   -1.451538   -66.437075
 0.675000   -1.748424   -52.600947
 0.680000   -1.977547   -39.706376
 0.685000   -2.145488   -27.150122
 0.690000   -2.249048   -15.728433
 0.695000   -2.302772   -7.102431
 0.700000   -2.320073   -0.126593
 0.705000   -2.304038   6.152389
 0.710000   -2.258549   11.173055
 0.715000   -2.192307   14.260990
 0.720000   -2.115939   16.902550
 0.725000   -2.023282   18.523626
 0.730000   -1.930702   20.345408
 0.735000   -1.819828   23.644517
 0.740000   -1.694257   26.923305
 0.745000   -1.550595   30.257182
 0.750000   -1.391686   32.711088
 0.755000   -1.223484   34.656992
 0.760000   -1.045116   38.137445
 0.765000   -0.842109   41.542948
 0.770000   -0.629686   43.128056
 0.775000   -0.410829   44.515916
 0.780000   -0.184527   45.402431
 0.785000   0.043196   45.425997
 0.790000   0.269733   44.522786
 0.795000   0.488423   42.353202
 0.800000   0.693265   39.153887
 0.805000   0.879962   34.990306
 0.810000   1.043168   30.398457
 0.815000   1.183947   25.979198
 0.820000   1.302960   20.122739
 0.825000   1.385174   12.776622
 0.830000   1.430726   5.571844
 0.835000   1.440893   -1.713539
 0.840000   1.413591   -9.392830
 0.845000   1.346964   -17.069011
 0.850000   1.242901   -24.708522
 0.855000   1.099879   -32.080583
 0.860000   0.922095   -39.099749
 0.865000   0.708882   -46.387411
 0.870000   0.458221   -54.215261
 0.875000   0.166729   -63.080232
 0.880000   -0.172581   -73.601869
 0.885000   -0.569290   -85.475160
 0.890000   -1.027333   -98.312233
 0.895000   -1.552412   -112.891494
 0.900000   -2.156248   -128.959042
 0.905000   -2.842002   -147.829941
 0.910000   -3.634547   -169.460680
 0.915000   -4.536609   -188.681919
 0.920000   -5.521367   -207.572328
 0.925000   -6.612332   -229.986017
 0.930000   -7.821227   -253.407984
 0.935000   -9.146412   -281.420498
 0.940000   -10.635432   -315.177448
 0.945000   -12.298187   -339.974446
 0.950000   -14.035176   -356.759738
 0.955000   -15.865784   -354.153671
 0.960000   -17.576713   -316.368333
 0.965000   -19.029467   -259.378066
 0.970000   -20.170494   -141.578486
 0.975000   -20.445252   73.103031
 0.980000   -19.439463   311.739668
 0.985000   -17.327856   522.530576
 0.990000   -14.214158   711.673769
 0.995000   -10.211118   866.849170
 1.000000   -5.545666   999.331688
201 psinorm ommvb() dommvb/dpsiN
 0.000000   44.000347   22537.496399
 0.005000   135.487174   14057.234287
 0.010000   184.572690   9020.626811
 0.015000   225.693442   7436.310629
 0.020000   258.935796   6119.946046
 0.025000   286.892902   5046.186263
 0.030000   309.397659   4164.468122
 0.035000   328.537583   3514.711278
 0.040000   344.544771   2939.160428
 0.045000   357.929188   2463.235386
 0.050000   369.177125   2083.374956
 0.055000   378.762937   1731.404118
 0.060000   386.491166   1393.279540
 0.065000   392.695733   1154.251856
 0.070000   398.033685   893.046937
 0.075000   401.626202   688.386320
 0.080000   404.917548   533.208870
 0.085000   406.958291   292.569916
 0.090000   407.843247   169.120848
 0.095000   408.649499   96.862164
 0.100000   408.811869   -82.191960
 0.105000   407.827580   -305.774260
 0.110000   405.754126   -386.021176
 0.115000   403.967368   -411.583966
 0.120000   401.638287   -526.600931
 0.125000   398.701358   -634.320230
 0.130000   395.295084   -727.206834
 0.135000   391.429290   -825.330209
 0.140000   387.041782   -915.152594
 0.145000   382.277764   -981.173689
 0.150000   377.230045   -1045.153212
 0.155000   371.826232   -1104.340402
 0.160000   366.186641   -1152.791746
 0.165000   360.298315   -1199.902886
 0.170000   354.187613   -1233.299218
 0.175000   347.965322   -1238.697967
 0.180000   341.800633   -1241.836981
 0.185000   335.546953   -1260.589557
 0.190000   329.194737   -1277.302476
 0.195000   322.773928   -1278.340612
 0.200000   316.411331   -1269.284103
 0.205000   310.081087   -1262.847802
 0.210000   303.782853   -1246.817162
 0.215000   297.612915   -1218.114772
 0.220000   291.601705   -1251.855735
 0.225000   285.094358   -1331.632915
 0.230000   278.285376   -1235.943169
 0.235000   272.734926   -1089.099169
 0.240000   267.394385   -1049.453777
 0.245000   262.240388   -1014.389905
 0.250000   257.250486   -979.388355
 0.255000   252.446505   -1034.846995
 0.260000   246.902016   -1069.095299
 0.265000   241.755552   -919.602767
 0.270000   237.705988   -785.890579
 0.275000   233.896646   -740.838844
 0.280000   230.297600   -699.224685
 0.285000   226.904399   -810.169775
 0.290000   222.195902   -752.806528
 0.295000   219.376334   -537.212974
 0.300000   216.823772   -492.054253
 0.305000   214.455791   -455.849693
 0.310000   212.265275   -547.869771
 0.315000   208.977094   -488.907506
 0.320000   207.376200   -304.634298
 0.325000   205.930751   -276.556912
 0.330000   204.610631   -305.204481
 0.335000   202.878706   -327.654179
 0.340000   201.334089   -230.019659
 0.345000   200.578509   -141.336814
 0.350000   199.920721   -131.802035
 0.355000   199.260489   -190.975573
 0.360000   198.010965   -148.392094
 0.365000   197.776568   -40.882656
 0.370000   197.602139   -28.661019
 0.375000   197.489958   -93.212448
 0.380000   196.670014   -73.843289
 0.385000   196.751525   24.149383
 0.390000   196.911508   36.663001
 0.395000   197.118155   -27.600424
 0.400000   196.635504   -21.830622
 0.405000   196.899849   59.062670
 0.410000   197.226131   65.177315
 0.415000   197.551622   0.832495
 0.420000   197.234455   10.429178
 0.425000   197.655914   85.267646
 0.430000   198.087132   73.496646
 0.435000   198.390880   15.321018
 0.440000   198.240342   27.930528
 0.445000   198.670185   83.129567
 0.450000   199.071638   47.415134
 0.455000   199.144337   -6.436400
 0.460000   199.007274   12.195349
 0.465000   199.266290   44.313122
 0.470000   199.450405   -21.552355
 0.475000   199.050767   -64.162236
 0.480000   198.808783   -23.161884
 0.485000   198.819148   -2.788998
 0.490000   198.780893   -87.035157
 0.495000   197.948796   -102.801888
 0.500000   197.752874   -30.412626
 0.505000   197.644670   -35.518468
 0.510000   197.397689   -118.516923
 0.515000   196.459501   -110.116691
 0.520000   196.296522   -35.201891
 0.525000   196.107482   -85.517892
 0.530000   195.441343   -160.232505
 0.535000   194.505157   -128.013829
 0.540000   194.161205   -74.632771
 0.545000   193.758829   -159.222217
 0.550000   192.568983   -212.320914
 0.555000   191.635620   -153.419469
 0.560000   191.034788   -128.152761
 0.565000   190.354092   -232.924919
 0.570000   188.705539   -248.926104
 0.575000   187.864831   -156.272691
 0.580000   187.142812   -149.950470
 0.585000   186.365327   -241.595483
 0.590000   184.726857   -218.923788
 0.595000   184.176089   -107.001296
 0.600000   183.656844   -107.332441
 0.605000   183.102764   -151.412726
 0.610000   182.142717   -103.532212
 0.615000   182.067442   -2.841167
 0.620000   182.114305   18.323188
 0.625000   182.250674   20.349963
 0.630000   182.317805   80.622096
 0.635000   183.056895   168.154912
 0.640000   183.999354   211.059818
 0.645000   185.167493   280.958121
 0.650000   186.808935   367.780356
 0.655000   188.845297   436.240267
 0.660000   191.171338   495.857069
 0.665000   193.803867   600.107930
 0.670000   197.172417   668.403887
 0.675000   200.487906   682.362060
 0.680000   203.996038   723.287197
 0.685000   207.720778   782.601129
 0.690000   211.822049   835.030920
 0.695000   216.071088   839.289492
 0.700000   220.214944   843.231455
 0.705000   224.503402   874.127794
 0.710000   228.956222   940.892452
 0.715000   233.912327   970.137818
 0.720000   238.657600   968.711817
 0.725000   243.599445   1009.852557
 0.730000   248.756126   1068.062736
 0.735000   254.280072   1154.698470
 0.740000   260.303110   1203.470117
 0.745000   266.314773   1231.299779
 0.750000   272.616108   1291.665779
 0.755000   279.231431   1361.717663
 0.760000   286.233285   1456.496822
 0.765000   293.796399   1511.454588
 0.770000   301.347831   1545.049281
 0.775000   309.246892   1617.242565
 0.780000   317.520256   1692.736756
 0.785000   326.174260   1786.061677
 0.790000   335.380873   1867.374893
 0.795000   344.848009   1930.979739
 0.800000   354.690671   2014.767688
 0.805000   364.995685   2110.870494
 0.810000   375.799375   2213.864985
 0.815000   387.134335   2324.834414
 0.820000   399.047720   2433.610452
 0.825000   411.470440   2549.356217
 0.830000   424.541282   2687.135614
 0.835000   438.341796   2839.584866
 0.840000   452.937130   3007.859065
 0.845000   468.420387   3195.191539
 0.850000   484.889046   3398.844910
 0.855000   502.408836   3585.746826
 0.860000   520.746514   3842.144878
 0.865000   540.830285   4293.367799
 0.870000   563.680192   4884.387865
 0.875000   589.674163   5563.281825
 0.880000   619.313010   6347.622716
 0.885000   653.150390   7251.190135
 0.890000   691.824912   8274.027812
 0.895000   735.890668   9393.027611
 0.900000   785.755188   10578.630961
 0.905000   841.676978   11795.679592
 0.910000   903.711984   12948.077056
 0.915000   971.157749   13747.003460
 0.920000   1041.182018   13831.508083
 0.925000   1109.472829   13087.498049
 0.930000   1172.056999   11727.151196
 0.935000   1226.744341   10671.536464
 0.940000   1278.772363   11440.361150
 0.945000   1341.147953   17808.365474
 0.950000   1456.856018   33944.275294
 0.955000   1680.590706   58779.445726
 0.960000   2044.650475   86449.036601
 0.965000   2545.081072   108698.718614
 0.970000   3131.637662   118462.478183
 0.975000   3729.705854   106298.819344
 0.980000   4194.625855   64796.094937
 0.985000   4377.666803   9033.564796
 0.990000   4284.961503   -38887.101881
 0.995000   3988.795784   118088.153253
 1.000000   5465.843036   472730.747248
201 psinorm ommpp() dommpp/dpsiN
 0.000000   -9.864981   -22511.969185
 0.005000   -101.310784   -14066.352082
 0.010000   -150.528502   -9047.840740
 0.015000   -191.789191   -7465.220691
 0.020000   -225.180709   -6150.355469
 0.025000   -253.292746   -5078.587287
 0.030000   -275.966581   -4199.759101
 0.035000   -295.290337   -3552.964769
 0.040000   -311.496229   -2980.585605
 0.045000   -325.096193   -2507.940450
 0.050000   -336.575634   -2131.127284
 0.055000   -346.407466   -1781.828882
 0.060000   -354.393922   -1445.816623
 0.065000   -360.865632   -1208.529047
 0.070000   -366.479213   -948.832975
 0.075000   -370.353962   -745.436004
 0.080000   -373.933573   -591.353192
 0.085000   -376.267494   -351.368154
 0.090000   -377.447254   -228.603919
 0.095000   -378.553533   -157.233352
 0.100000   -379.019588   21.217663
 0.105000   -378.341356   244.325360
 0.110000   -376.576334   324.136447
 0.115000   -375.099992   349.284759
 0.120000   -373.083487   463.620643
 0.125000   -370.463786   570.636072
 0.130000   -367.377126   663.260723
 0.135000   -363.831178   761.394778
 0.140000   -359.763178   851.364051
 0.145000   -355.317538   917.616493
 0.150000   -350.587013   981.497017
 0.155000   -345.502568   1040.519538
 0.160000   -340.181818   1089.259591
 0.165000   -334.609972   1136.905183
 0.170000   -328.812766   1171.165963
 0.175000   -322.898312   1177.807951
 0.180000   -317.034687   1182.381650
 0.185000   -311.074496   1202.715160
 0.190000   -305.007535   1221.113157
 0.195000   -298.863364   1224.010897
 0.200000   -292.767426   1216.868848
 0.205000   -286.694676   1212.444000
 0.210000   -280.642986   1198.653879
 0.215000   -274.708137   1172.217164
 0.220000   -268.920814   1208.436620
 0.225000   -262.623771   1290.862366
 0.230000   -256.012191   1197.550060
 0.235000   -250.648270   1052.824593
 0.240000   -245.483945   1014.346872
 0.245000   -240.504801   979.688930
 0.250000   -235.687056   945.261728
 0.255000   -231.052184   1001.174601
 0.260000   -225.675310   1035.829669
 0.265000   -220.693887   886.701696
 0.270000   -216.808293   753.740186
 0.275000   -213.156485   710.159239
 0.280000   -209.706700   670.051216
 0.285000   -206.455973   782.381993
 0.290000   -201.882880   726.514934
 0.295000   -199.190824   512.475374
 0.300000   -196.758126   469.082706
 0.305000   -194.499997   434.939698
 0.310000   -192.408730   528.928593
 0.315000   -189.210711   471.827429
 0.320000   -187.690455   289.355677
 0.325000   -186.317154   262.957326
 0.330000   -185.060882   293.189684
 0.335000   -183.385257   316.778341
 0.340000   -181.893099   219.860100
 0.345000   -181.186656   131.764817
 0.350000   -180.575450   122.710475
 0.355000   -179.959552   182.353318
 0.360000   -178.751917   140.327102
 0.365000   -178.556281   33.074753
 0.370000   -178.421170   21.008549
 0.375000   -178.346195   86.083437
 0.380000   -177.560335   67.430963
 0.385000   -177.671885   -29.859211
 0.390000   -177.858927   -41.949519
 0.395000   -178.091381   22.541786
 0.400000   -177.633510   17.052657
 0.405000   -177.920854   -63.455265
 0.410000   -178.268062   -69.247525
 0.415000   -178.613329   -4.636860
 0.420000   -178.314431   -13.849548
 0.425000   -178.751825   -88.023677
 0.430000   -179.194668   -75.710553
 0.435000   -179.508930   -17.684053
 0.440000   -179.371508   -31.842692
 0.445000   -179.827357   -90.325924
 0.450000   -180.274767   -59.267388
 0.455000   -180.420031   -11.696492
 0.460000   -180.391732   -38.318508
 0.465000   -180.803216   -79.970778
 0.470000   -181.191440   -24.948109
 0.475000   -181.052697   7.183508
 0.480000   -181.119605   -42.904276
 0.485000   -181.481740   -70.735498
 0.490000   -181.826960   8.371675
 0.495000   -181.398023   21.973150
 0.500000   -181.607228   -48.777769
 0.505000   -181.885801   -38.951852
 0.510000   -181.996747   50.237340
 0.515000   -181.383428   49.014187
 0.520000   -181.506605   -18.718606
 0.525000   -181.570614   37.840381
 0.530000   -181.128201   116.803858
 0.535000   -180.402575   85.513193
 0.540000   -180.273069   29.982509
 0.545000   -180.102750   109.821032
 0.550000   -179.174859   155.841561
 0.555000   -178.544334   87.859126
 0.560000   -178.296268   52.146257
 0.565000   -178.022872   145.960112
 0.570000   -176.836667   151.088530
 0.575000   -176.511986   47.811680
 0.580000   -176.358550   31.337069
 0.585000   -176.198616   113.557249
 0.590000   -175.222977   82.463492
 0.595000   -175.373981   -36.649266
 0.600000   -175.589470   -42.164126
 0.605000   -175.795622   -2.508285
 0.610000   -175.614553   -53.487499
 0.615000   -176.330497   -155.882733
 0.620000   -177.173380   -177.320305
 0.625000   -178.103700   -178.256331
 0.630000   -178.955944   -236.133435
 0.635000   -180.465035   -319.757816
 0.640000   -182.153522   -356.904529
 0.645000   -184.034080   -419.130493
 0.650000   -186.344827   -495.943578
 0.655000   -188.993516   -551.988150
 0.660000   -191.864708   -597.455596
 0.665000   -194.968072   -686.527624
 0.670000   -198.729984   -739.687463
 0.675000   -202.364946   -738.804490
 0.680000   -206.118029   -765.160902
 0.685000   -210.016555   -811.086594
 0.690000   -214.228895   -851.893417
 0.695000   -218.535489   -846.466737
 0.700000   -222.693563   -842.680202
 0.705000   -226.962291   -867.305033
 0.710000   -231.366613   -928.946824
 0.715000   -236.251760   -954.325078
 0.720000   -240.909864   -950.139644
 0.725000   -245.753156   -990.168710
 0.730000   -250.811551   -1046.194418
 0.735000   -256.215100   -1129.060922
 0.740000   -262.102160   -1174.658923
 0.745000   -267.961689   -1199.269735
 0.750000   -274.094857   -1256.578343
 0.755000   -280.527473   -1324.564788
 0.760000   -287.340505   -1416.188316
 0.765000   -294.689356   -1467.468988
 0.770000   -302.015195   -1499.116050
 0.775000   -309.680517   -1570.027660
 0.780000   -317.715472   -1644.923385
 0.785000   -326.129750   -1737.992330
 0.790000   -335.095395   -1820.197186
 0.795000   -344.331722   -1886.378638
 0.800000   -353.959181   -1973.615236
 0.805000   -364.067875   -2073.920740
 0.810000   -374.698389   -2181.801953
 0.815000   -385.885894   -2297.639842
 0.820000   -397.674787   -2412.506351
 0.825000   -410.010958   -2535.907869
 0.830000   -423.033866   -2681.342054
 0.835000   -436.824378   -2841.528481
 0.840000   -451.449151   -3017.790652
 0.845000   -467.002285   -3213.164669
 0.850000   -483.580797   -3424.915845
 0.855000   -501.251443   -3619.560835
 0.860000   -519.776406   -3883.292772
 0.865000   -540.084371   -4342.164447
 0.870000   -563.198050   -4941.437579
 0.875000   -589.498747   -5629.671943
 0.880000   -619.494770   -6425.082810
 0.885000   -653.749575   -7341.134935
 0.890000   -692.906119   -8377.517154
 0.895000   -737.524746   -9512.009114
 0.900000   -788.026210   -10714.568787
 0.905000   -844.670434   -11951.447320
 0.910000   -907.540683   -13126.912322
 0.915000   -975.939557   -13946.432513
 0.920000   -1047.005008   -14050.837632
 0.925000   -1116.447934   -13330.340146
 0.930000   -1180.308410   -11994.510890
 0.935000   -1236.393043   -10967.694979
 0.940000   -1289.985360   -11771.669878
 0.945000   -1354.109741   -18163.335709
 0.950000   -1471.618717   -34308.330189
 0.955000   -1697.193043   -59139.923073
 0.960000   -2063.017948   -86774.724306
 0.965000   -2564.940286   -108945.499526
 0.970000   -3152.472943   -118576.788245
 0.975000   -3750.708169   -106210.333013
 0.980000   -4214.576273   -64472.682107
 0.985000   -4395.434990   -8492.995562
 0.990000   -4299.506229   39621.024233
 0.995000   -3999.224748   -117197.334800
 1.000000   -5471.479577   -471704.596781
201 psinorm omevb() domevb/dpsiN
 0.000000   2.020487   61.271131
 0.005000   2.268392   37.891099
 0.010000   2.399398   25.223174
 0.015000   2.520624   23.119956
 0.020000   2.630597   21.216449
 0.025000   2.732789   18.823627
 0.030000   2.818834   15.535351
 0.035000   2.888142   12.177404
 0.040000   2.940608   8.613146
 0.045000   2.974273   4.943533
 0.050000   2.990043   1.509369
 0.055000   2.989367   -1.547159
 0.060000   2.974571   -4.040781
 0.065000   2.948959   -6.159422
 0.070000   2.912977   -8.044050
 0.075000   2.868519   -9.680742
 0.080000   2.816170   -11.145711
 0.085000   2.757062   -12.167263
 0.090000   2.694497   -13.217049
 0.095000   2.624891   -14.467461
 0.100000   2.549822   -15.430220
 0.105000   2.470589   -16.261847
 0.110000   2.387204   -17.052091
 0.115000   2.300068   -17.818394
 0.120000   2.209020   -18.848726
 0.125000   2.111581   -19.899291
 0.130000   2.010027   -20.505401
 0.135000   1.906527   -20.836354
 0.140000   1.801664   -21.028596
 0.145000   1.696241   -21.133890
 0.150000   1.590325   -21.567059
 0.155000   1.480570   -22.063442
 0.160000   1.369690   -22.104011
 0.165000   1.259530   -21.896413
 0.170000   1.150726   -21.356415
 0.175000   1.045966   -20.435237
 0.180000   0.946374   -19.320241
 0.185000   0.852764   -18.056638
 0.190000   0.765807   -16.686549
 0.195000   0.685898   -15.139611
 0.200000   0.614411   -13.535506
 0.205000   0.550543   -11.832115
 0.210000   0.496090   -9.897380
 0.215000   0.451569   -7.935227
 0.220000   0.416738   -5.758009
 0.225000   0.393989   -3.408486
 0.230000   0.382653   -1.327872
 0.235000   0.380710   0.496036
 0.240000   0.387613   1.371268
 0.245000   0.394423   1.486932
 0.250000   0.402483   1.773169
 0.255000   0.412155   1.941435
 0.260000   0.421897   2.064358
 0.265000   0.432798   2.147189
 0.270000   0.443369   2.618237
 0.275000   0.458981   3.811479
 0.280000   0.481484   5.042138
 0.285000   0.509402   6.154405
 0.290000   0.543028   7.379213
 0.295000   0.583194   8.663855
 0.300000   0.629666   10.162569
 0.305000   0.684820   11.958781
 0.310000   0.749254   13.664244
 0.315000   0.821462   15.263962
 0.320000   0.901894   16.805996
 0.325000   0.989522   18.227552
 0.330000   1.084169   19.556792
 0.335000   1.185090   20.442122
 0.340000   1.288590   20.906676
 0.345000   1.394157   21.244406
 0.350000   1.501035   21.476888
 0.355000   1.608926   21.700103
 0.360000   1.718036   22.013130
 0.365000   1.829057   22.027821
 0.370000   1.938314   21.942684
 0.375000   2.048484   22.227387
 0.380000   2.160588   22.707118
 0.385000   2.275555   23.174451
 0.390000   2.392332   23.364372
 0.395000   2.509199   23.360627
 0.400000   2.625938   23.411428
 0.405000   2.743313   23.568665
 0.410000   2.861625   23.664644
 0.415000   2.979960   23.705799
 0.420000   3.098683   23.866808
 0.425000   3.218628   24.309851
 0.430000   3.341782   24.632359
 0.435000   3.464951   24.265284
 0.440000   3.584434   22.499864
 0.445000   3.689950   19.001023
 0.450000   3.774445   14.132113
 0.455000   3.831271   7.640082
 0.460000   3.850845   -0.559967
 0.465000   3.825672   -10.302647
 0.470000   3.747819   -21.352052
 0.475000   3.612151   -32.035334
 0.480000   3.427466   -41.326221
 0.485000   3.198889   -48.986456
 0.490000   2.937601   -54.325800
 0.495000   2.655631   -56.689880
 0.500000   2.370702   -55.248840
 0.505000   2.103142   -50.724557
 0.510000   1.863457   -44.728112
 0.515000   1.655861   -37.743835
 0.520000   1.486018   -30.753152
 0.525000   1.348330   -24.700023
 0.530000   1.239018   -20.639555
 0.535000   1.141934   -19.898494
 0.540000   1.040033   -22.233632
 0.545000   0.919598   -27.168640
 0.550000   0.768347   -34.429476
 0.555000   0.575303   -43.691726
 0.560000   0.331430   -54.317751
 0.565000   0.032126   -65.454530
 0.570000   -0.323116   -76.504394
 0.575000   -0.732918   -87.303562
 0.580000   -1.196151   -97.630323
 0.585000   -1.709222   -107.228178
 0.590000   -2.268433   -115.821922
 0.595000   -2.867441   -123.182538
 0.600000   -3.500259   -129.197570
 0.605000   -4.159416   -133.789727
 0.610000   -4.838156   -137.054834
 0.615000   -5.529965   -138.924130
 0.620000   -6.227397   -139.361161
 0.625000   -6.923576   -138.432941
 0.630000   -7.611727   -136.199157
 0.635000   -8.285568   -132.450689
 0.640000   -8.936233   -126.851188
 0.645000   -9.554080   -119.336262
 0.650000   -10.129596   -109.483244
 0.655000   -10.648912   -97.222750
 0.660000   -11.101824   -83.226936
 0.665000   -11.481182   -68.200327
 0.670000   -11.783827   -53.215087
 0.675000   -12.013333   -38.523435
 0.680000   -12.169061   -24.102769
 0.685000   -12.254360   -10.861083
 0.690000   -12.277672   0.616930
 0.695000   -12.248191   10.158948
 0.700000   -12.176082   17.746095
 0.705000   -12.070730   23.878350
 0.710000   -11.937299   28.864340
 0.715000   -11.782087   32.597319
 0.720000   -11.611326   35.225837
 0.725000   -11.429828   36.210435
 0.730000   -11.249221   38.272474
 0.735000   -11.047103   41.924963
 0.740000   -10.829972   44.988912
 0.745000   -10.597214   48.106870
 0.750000   -10.348903   51.074447
 0.755000   -10.086470   53.064085
 0.760000   -9.818262   56.161724
 0.765000   -9.524853   59.803534
 0.770000   -9.220227   61.744895
 0.775000   -8.907404   63.057428
 0.780000   -8.589653   63.734313
 0.785000   -8.270061   64.129640
 0.790000   -7.948356   63.455406
 0.795000   -7.635507   61.196135
 0.800000   -7.336395   58.192621
 0.805000   -7.053580   54.598267
 0.810000   -6.790412   50.527939
 0.815000   -6.548301   46.740471
 0.820000   -6.323008   42.066580
 0.825000   -6.127635   36.251591
 0.830000   -5.960492   30.971567
 0.835000   -5.817919   26.278096
 0.840000   -5.697711   22.166787
 0.845000   -5.596252   19.031411
 0.850000   -5.507397   17.100373
 0.855000   -5.425248   17.049223
 0.860000   -5.336904   19.223533
 0.865000   -5.233013   23.199629
 0.870000   -5.104908   28.962777
 0.875000   -4.943385   36.214714
 0.880000   -4.742761   44.296127
 0.885000   -4.500423   53.115259
 0.890000   -4.211608   61.925394
 0.895000   -3.881170   67.559160
 0.900000   -3.536017   66.304848
 0.905000   -3.218121   49.568407
 0.910000   -3.040333   5.361622
 0.915000   -3.164505   -78.377045
 0.920000   -3.824103   -228.817658
 0.925000   -5.452681   -483.291316
 0.930000   -8.657016   -876.362138
 0.935000   -14.216303   -1443.578399
 0.940000   -23.092800   -2200.890883
 0.945000   -36.225212   -3116.414528
 0.950000   -54.256945   -4148.689224
 0.955000   -77.712104   -5219.478390
 0.960000   -106.451729   -6002.053890
 0.965000   -137.732643   -5518.658953
 0.970000   -161.638319   -2373.556302
 0.975000   -161.468206   2998.873701
 0.980000   -131.649582   7116.186901
 0.985000   -90.306337   7500.009474
 0.990000   -56.649487   5574.707879
 0.995000   -34.559258   3646.293956
 1.000000   -20.186548   2102.790200
201 psinorm omepp() domepp/dpsiN
 0.000000   32.114879   -35.743916
 0.005000   31.907997   -47.008895
 0.010000   31.644790   -52.437103
 0.015000   31.383626   -52.030017
 0.020000   31.124490   -51.625873
 0.025000   30.867368   -51.224650
 0.030000   30.612244   -50.826331
 0.035000   30.359104   -50.430895
 0.040000   30.107935   -50.038323
 0.045000   29.858721   -49.648597
 0.050000   29.611449   -49.261697
 0.055000   29.366104   -48.877605
 0.060000   29.122673   -48.496302
 0.065000   28.881141   -48.117769
 0.070000   28.641495   -47.741988
 0.075000   28.403721   -47.368941
 0.080000   28.167806   -46.998610
 0.085000   27.933735   -46.630976
 0.090000   27.701496   -46.266021
 0.095000   27.471075   -45.903727
 0.100000   27.242459   -45.544077
 0.105000   27.015634   -45.187053
 0.110000   26.790588   -44.832638
 0.115000   26.567308   -44.480813
 0.120000   26.345780   -44.131562
 0.125000   26.125992   -43.784866
 0.130000   25.907931   -43.440710
 0.135000   25.691585   -43.099076
 0.140000   25.476941   -42.759947
 0.145000   25.263985   -42.423306
 0.150000   25.052707   -42.089136
 0.155000   24.843094   -41.757421
 0.160000   24.635133   -41.428144
 0.165000   24.428813   -41.101289
 0.170000   24.224120   -40.776839
 0.175000   24.021044   -40.454779
 0.180000   23.819573   -40.135091
 0.185000   23.619693   -39.817760
 0.190000   23.421395   -39.502770
 0.195000   23.224666   -39.190105
 0.200000   23.029494   -38.879749
 0.205000   22.835868   -38.571687
 0.210000   22.643777   -38.265902
 0.215000   22.453209   -37.962381
 0.220000   22.264153   -37.661106
 0.225000   22.076598   -37.362063
 0.230000   21.890533   -37.065237
 0.235000   21.705946   -36.770612
 0.240000   21.522826   -36.478174
 0.245000   21.341164   -36.187907
 0.250000   21.160947   -35.899797
 0.255000   20.982166   -35.613829
 0.260000   20.804809   -35.329988
 0.265000   20.628866   -35.048260
 0.270000   20.454327   -34.768630
 0.275000   20.281180   -34.491084
 0.280000   20.109416   -34.215608
 0.285000   19.939024   -33.942187
 0.290000   19.769994   -33.670807
 0.295000   19.602316   -33.401455
 0.300000   19.435979   -33.134116
 0.305000   19.270975   -32.868776
 0.310000   19.107292   -32.605422
 0.315000   18.944920   -32.344040
 0.320000   18.783851   -32.084616
 0.325000   18.624074   -31.827137
 0.330000   18.465580   -31.571589
 0.335000   18.308358   -31.317960
 0.340000   18.152400   -31.066235
 0.345000   17.997696   -30.816402
 0.350000   17.844236   -30.568447
 0.355000   17.692011   -30.322358
 0.360000   17.541013   -30.078122
 0.365000   17.391230   -29.835725
 0.370000   17.242655   -29.595154
 0.375000   17.095279   -29.356399
 0.380000   16.949091   -29.119444
 0.385000   16.804084   -28.884279
 0.390000   16.660249   -28.650890
 0.395000   16.517575   -28.419266
 0.400000   16.376056   -28.189393
 0.405000   16.235681   -27.961260
 0.410000   16.096443   -27.734854
 0.415000   15.958333   -27.510164
 0.420000   15.821342   -27.287177
 0.425000   15.685461   -27.065882
 0.430000   15.550683   -26.846267
 0.435000   15.416998   -26.628319
 0.440000   15.284400   -26.412028
 0.445000   15.152878   -26.197381
 0.450000   15.022426   -25.984367
 0.455000   14.893034   -25.772974
 0.460000   14.764696   -25.563192
 0.465000   14.637403   -25.355009
 0.470000   14.511146   -25.148413
 0.475000   14.385918   -24.943393
 0.480000   14.261712   -24.739939
 0.485000   14.138519   -24.538039
 0.490000   14.016332   -24.337682
 0.495000   13.895142   -24.138858
 0.500000   13.774943   -23.941555
 0.505000   13.655727   -23.745763
 0.510000   13.537485   -23.551471
 0.515000   13.420212   -23.358668
 0.520000   13.303899   -23.167344
 0.525000   13.188539   -22.977489
 0.530000   13.074124   -22.789092
 0.535000   12.960648   -22.602142
 0.540000   12.848102   -22.416630
 0.545000   12.736481   -22.232545
 0.550000   12.625777   -22.049877
 0.555000   12.515983   -21.868617
 0.560000   12.407091   -21.688753
 0.565000   12.299095   -21.510278
 0.570000   12.191988   -21.333180
 0.575000   12.085763   -21.157449
 0.580000   11.980414   -20.983078
 0.585000   11.875932   -20.810056
 0.590000   11.772313   -20.638375
 0.595000   11.669549   -20.468024
 0.600000   11.567633   -20.298997
 0.605000   11.466559   -20.131284
 0.610000   11.366320   -19.964877
 0.615000   11.266910   -19.799770
 0.620000   11.168322   -19.635955
 0.625000   11.070550   -19.473427
 0.630000   10.973588   -19.312181
 0.635000   10.877429   -19.152214
 0.640000   10.782066   -18.993523
 0.645000   10.687493   -18.836110
 0.650000   10.593705   -18.679978
 0.655000   10.500694   -18.525134
 0.660000   10.408453   -18.371591
 0.665000   10.316978   -18.219367
 0.670000   10.226260   -18.068489
 0.675000   10.136293   -17.918995
 0.680000   10.047070   -17.770936
 0.685000   9.958583   -17.624383
 0.690000   9.870826   -17.479427
 0.695000   9.783789   -17.336192
 0.700000   9.697464   -17.194842
 0.705000   9.611841   -17.055588
 0.710000   9.526908   -16.918712
 0.715000   9.442654   -16.784578
 0.720000   9.359062   -16.653664
 0.725000   9.276117   -16.526587
 0.730000   9.193796   -16.404156
 0.735000   9.112075   -16.287414
 0.740000   9.030922   -16.177719
 0.745000   8.950298   -16.076826
 0.750000   8.870154   -15.987010
 0.755000   8.790428   -15.911209
 0.760000   8.711042   -15.853218
 0.765000   8.631896   -15.817934
 0.770000   8.552863   -15.811663
 0.775000   8.473779   -15.842523
 0.780000   8.394437   -15.920941
 0.785000   8.314570   -16.060293
 0.790000   8.233834   -16.277700
 0.795000   8.151793   -16.595035
 0.800000   8.067884   -17.040169
 0.805000   7.981391   -17.648514
 0.810000   7.891399   -18.464907
 0.815000   7.796742   -19.545900
 0.820000   7.695940   -20.962479
 0.825000   7.587117   -22.803243
 0.830000   7.467908   -25.178007
 0.835000   7.335337   -28.221711
 0.840000   7.185690   -32.098373
 0.845000   7.014354   -37.004541
 0.850000   6.815645   -43.171307
 0.855000   6.582640   -50.863232
 0.860000   6.307013   -60.371427
 0.865000   5.978926   -71.996277
 0.870000   5.587050   -86.012491
 0.875000   5.118801   -102.604832
 0.880000   4.561002   -121.756220
 0.885000   3.901239   -143.060059
 0.890000   3.130401   -165.414735
 0.895000   2.247092   -186.540664
 0.900000   1.264994   -202.242675
 0.905000   0.224665   -205.336135
 0.910000   -0.788367   -184.196888
 0.915000   -1.617304   -121.052008
 0.920000   -1.998887   9.488109
 0.925000   -1.522423   240.449219
 0.930000   0.405605   609.002445
 0.935000   4.567602   1147.419884
 0.940000   11.879804   1869.582156
 0.945000   23.263423   2761.444292
 0.950000   39.494247   3784.634329
 0.955000   61.109766   4859.001043
 0.960000   88.084257   5676.366185
 0.965000   117.873428   5271.878041
 0.970000   140.803038   2259.246239
 0.975000   140.465891   -2910.387370
 0.980000   111.699164   -6792.774070
 0.985000   72.538150   -6959.440240
 0.990000   42.104762   -4840.785527
 0.995000   24.130295   -2755.475503
 1.000000   14.550007   -1076.639733
201 psinorm kpol(km/s/T) dkpol/dpsiN
 0.000000   -0.008735   55.673325
 0.005000   0.216981   34.613247
 0.010000   0.337397   23.993880
 0.015000   0.456920   23.657461
 0.020000   0.573972   23.575783
 0.025000   0.692678   23.097006
 0.030000   0.804942   21.782743
 0.035000   0.910505   20.491820
 0.040000   1.009860   19.104627
 0.045000   1.101552   17.716551
 0.050000   1.187026   16.691548
 0.055000   1.268467   16.131214
 0.060000   1.348338   16.118484
 0.065000   1.429652   16.467407
 0.070000   1.513012   16.989159
 0.075000   1.599544   17.574945
 0.080000   1.688762   18.042101
 0.085000   1.779965   18.585560
 0.090000   1.874617   19.023749
 0.095000   1.970202   19.129857
 0.100000   2.065916   19.033075
 0.105000   2.160533   18.698723
 0.110000   2.252903   18.171636
 0.115000   2.342249   17.285387
 0.120000   2.425757   16.213516
 0.125000   2.504384   15.138939
 0.130000   2.577146   14.046007
 0.135000   2.644845   13.058649
 0.140000   2.707733   12.243290
 0.145000   2.767277   11.653607
 0.150000   2.824269   11.314755
 0.155000   2.880425   11.170262
 0.160000   2.935971   11.138375
 0.165000   2.991809   11.079506
 0.170000   3.046766   10.950918
 0.175000   3.101318   10.795728
 0.180000   3.154724   10.457644
 0.185000   3.205894   10.054725
 0.190000   3.255271   9.588068
 0.195000   3.301775   9.045374
 0.200000   3.345725   8.434141
 0.205000   3.386116   7.681181
 0.210000   3.422537   6.999691
 0.215000   3.456113   6.242130
 0.220000   3.484958   5.488896
 0.225000   3.511002   4.858449
 0.230000   3.533542   4.178282
 0.235000   3.552785   3.625260
 0.240000   3.569795   3.163611
 0.245000   3.584421   2.730981
 0.250000   3.597105   2.373510
 0.255000   3.608156   1.949005
 0.260000   3.616595   1.516947
 0.265000   3.623326   1.067947
 0.270000   3.627274   0.469143
 0.275000   3.628017   -0.145189
 0.280000   3.625822   -0.818341
 0.285000   3.619834   -1.596359
 0.290000   3.609859   -2.423866
 0.295000   3.595595   -3.302061
 0.300000   3.576838   -4.238342
 0.305000   3.553212   -5.216571
 0.310000   3.524672   -6.319303
 0.315000   3.490019   -7.527238
 0.320000   3.449400   -8.833194
 0.325000   3.401687   -10.368298
 0.330000   3.345717   -12.031434
 0.335000   3.281372   -13.748480
 0.340000   3.208232   -15.634651
 0.345000   3.125026   -17.658553
 0.350000   3.031647   -19.629093
 0.355000   2.928735   -21.593362
 0.360000   2.815713   -23.444480
 0.365000   2.694290   -25.012205
 0.370000   2.565591   -26.372429
 0.375000   2.430566   -27.418933
 0.380000   2.291402   -28.016413
 0.385000   2.150402   -28.426667
 0.390000   2.007135   -28.871650
 0.395000   1.861685   -29.326275
 0.400000   1.713872   -29.911067
 0.405000   1.562575   -30.665543
 0.410000   1.407217   -31.736778
 0.415000   1.245207   -33.140107
 0.420000   1.075816   -34.561966
 0.425000   0.899587   -36.007963
 0.430000   0.715736   -37.655227
 0.435000   0.523035   -39.857379
 0.440000   0.317162   -43.794995
 0.445000   0.085085   -49.875670
 0.450000   -0.181594   -57.750098
 0.455000   -0.492416   -67.455695
 0.460000   -0.856151   -78.884304
 0.465000   -1.281259   -92.080758
 0.470000   -1.776959   -106.872689
 0.475000   -2.349986   -121.059343
 0.480000   -2.987552   -133.070318
 0.485000   -3.680689   -142.656937
 0.490000   -4.414122   -148.919238
 0.495000   -5.169882   -150.748799
 0.500000   -5.921610   -146.839508
 0.505000   -6.638277   -137.816466
 0.510000   -7.299774   -125.449596
 0.515000   -7.892773   -110.781351
 0.520000   -8.407588   -95.012736
 0.525000   -8.842900   -78.769769
 0.530000   -9.195286   -63.640704
 0.535000   -9.479307   -51.573302
 0.540000   -9.711019   -42.479976
 0.545000   -9.904107   -35.908288
 0.550000   -10.070101   -31.338033
 0.555000   -10.217487   -28.507635
 0.560000   -10.355178   -26.968572
 0.565000   -10.487173   -25.801959
 0.570000   -10.613197   -24.521916
 0.575000   -10.732392   -23.176795
 0.580000   -10.844965   -21.594415
 0.585000   -10.948336   -19.626844
 0.590000   -11.041234   -17.147340
 0.595000   -11.119809   -14.060477
 0.600000   -11.181839   -10.447215
 0.605000   -11.224282   -6.401575
 0.610000   -11.245854   -2.252665
 0.615000   -11.246808   1.856586
 0.620000   -11.227288   5.819087
 0.625000   -11.188617   9.386428
 0.630000   -11.133424   12.298088
 0.635000   -11.065637   14.594465
 0.640000   -10.987479   16.331243
 0.645000   -10.902324   17.344863
 0.650000   -10.814031   17.882289
 0.655000   -10.723501   18.271085
 0.660000   -10.631320   18.551948
 0.665000   -10.537982   18.709611
 0.670000   -10.444224   18.896293
 0.675000   -10.349019   19.276218
 0.680000   -10.251462   19.598065
 0.685000   -10.153038   19.833907
 0.690000   -10.053123   20.038621
 0.695000   -9.952652   20.115264
 0.700000   -9.851970   20.044965
 0.705000   -9.752202   19.869004
 0.710000   -9.653280   19.718016
 0.715000   -9.555022   19.474294
 0.720000   -9.458537   19.084772
 0.725000   -9.364174   18.643949
 0.730000   -9.272098   18.183047
 0.735000   -9.182344   17.587116
 0.740000   -9.096226   16.827436
 0.745000   -9.014070   16.032620
 0.750000   -8.935900   15.113376
 0.755000   -8.862936   14.055129
 0.760000   -8.795349   12.947934
 0.765000   -8.733457   11.717809
 0.770000   -8.678171   10.381433
 0.775000   -8.629642   9.016489
 0.780000   -8.588006   7.679815
 0.785000   -8.552844   6.280009
 0.790000   -8.525206   4.836942
 0.795000   -8.504475   3.485990
 0.800000   -8.490346   2.193838
 0.805000   -8.482536   0.777429
 0.810000   -8.482572   -0.782190
 0.815000   -8.490358   -2.374269
 0.820000   -8.506314   -4.205120
 0.825000   -8.532409   -6.421507
 0.830000   -8.570529   -8.767290
 0.835000   -8.620082   -11.128872
 0.840000   -8.681818   -13.574742
 0.845000   -8.755830   -15.919166
 0.850000   -8.841010   -17.995604
 0.855000   -8.935786   -19.671382
 0.860000   -9.037724   -21.092565
 0.865000   -9.146711   -22.283227
 0.870000   -9.260556   -23.029799
 0.875000   -9.377009   -23.412320
 0.880000   -9.494679   -23.502114
 0.885000   -9.612030   -23.065951
 0.890000   -9.725339   -21.872923
 0.895000   -9.830760   -20.131905
 0.900000   -9.926658   -17.830322
 0.905000   -10.009063   -14.751176
 0.910000   -10.074169   -10.976624
 0.915000   -10.118829   -6.552594
 0.920000   -10.139695   -1.689011
 0.925000   -10.135719   3.589738
 0.930000   -10.103798   10.418017
 0.935000   -10.031539   20.179029
 0.940000   -9.902008   32.699303
 0.945000   -9.704546   49.023866
 0.950000   -9.411769   73.360114
 0.955000   -8.970945   105.491354
 0.960000   -8.356855   143.478225
 0.965000   -7.536163   191.257014
 0.970000   -6.444285   244.837610
 0.975000   -5.087787   295.912560
 0.980000   -3.485160   344.389099
 0.985000   -1.643896   401.452508
 0.990000   0.529365   493.762421
 0.995000   3.293729   641.621450
 1.000000   6.945580   819.119034
201 psinorm omghb() domghb/dpsiN
 0.000000   -0.000013   0.106870
 0.005000   0.000479   0.089764
 0.010000   0.000885   0.097678
 0.015000   0.001455   0.120352
 0.020000   0.002088   0.131996
 0.025000   0.002775   0.154401
 0.030000   0.003632   0.189722
 0.035000   0.004673   0.219351
 0.040000   0.005826   0.246668
 0.045000   0.007139   0.266840
 0.050000   0.008494   0.275075
 0.055000   0.009890   0.282208
 0.060000   0.011316   0.284937
 0.065000   0.012739   0.281948
 0.070000   0.014136   0.278017
 0.075000   0.015520   0.274736
 0.080000   0.016883   0.273822
 0.085000   0.018258   0.273800
 0.090000   0.019621   0.272091
 0.095000   0.020979   0.261484
 0.100000   0.022236   0.271196
 0.105000   0.023691   0.293915
 0.110000   0.025175   0.285317
 0.115000   0.026544   0.276266
 0.120000   0.027938   0.276900
 0.125000   0.029313   0.257918
 0.130000   0.030517   0.261923
 0.135000   0.031932   0.266282
 0.140000   0.033180   0.238321
 0.145000   0.034315   0.215520
 0.150000   0.035335   0.214445
 0.155000   0.036460   0.237658
 0.160000   0.037711   0.214909
 0.165000   0.038609   0.140743
 0.170000   0.039119   0.083551
 0.175000   0.039444   0.044263
 0.180000   0.039561   0.013016
 0.185000   0.039574   -0.020939
 0.190000   0.039352   -0.045418
 0.195000   0.039120   -0.068390
 0.200000   0.038668   -0.091423
 0.205000   0.038206   -0.136177
 0.210000   0.037306   -0.186135
 0.215000   0.036345   -0.234051
 0.220000   0.034966   -0.323606
 0.225000   0.033109   -0.261191
 0.230000   0.032354   -0.169920
 0.235000   0.031409   -0.149363
 0.240000   0.030860   -0.064854
 0.245000   0.030761   -0.018580
 0.250000   0.030675   0.070923
 0.255000   0.031470   0.087056
 0.260000   0.031545   -0.019621
 0.265000   0.031274   -0.055960
 0.270000   0.030986   -0.100889
 0.275000   0.030265   -0.154298
 0.280000   0.029443   -0.129348
 0.285000   0.028972   -0.238457
 0.290000   0.027058   -0.322933
 0.295000   0.025742   -0.269794
 0.300000   0.024360   -0.312458
 0.305000   0.022618   -0.345326
 0.310000   0.020907   -0.374007
 0.315000   0.018878   -0.396507
 0.320000   0.016942   -0.343247
 0.325000   0.015445   -0.288808
 0.330000   0.014054   -0.260253
 0.335000   0.012843   -0.196584
 0.340000   0.012088   -0.222366
 0.345000   0.010619   -0.130055
 0.350000   0.010787   0.002256
 0.355000   0.010641   -0.028444
 0.360000   0.010503   -0.055091
 0.365000   0.010091   -0.103771
 0.370000   0.009465   -0.178841
 0.375000   0.008302   -0.137327
 0.380000   0.008092   -0.050892
 0.385000   0.007793   -0.091608
 0.390000   0.007176   -0.124904
 0.395000   0.006544   -0.121922
 0.400000   0.005957   -0.040672
 0.405000   0.006137   -0.009581
 0.410000   0.005861   -0.106057
 0.415000   0.005077   -0.143338
 0.420000   0.004427   -0.141245
 0.425000   0.003664   -0.127502
 0.430000   0.003152   -0.017128
 0.435000   0.003493   0.220096
 0.440000   0.005353   0.575933
 0.445000   0.009252   1.041104
 0.450000   0.015764   1.723971
 0.455000   0.026492   2.320706
 0.460000   0.038971   2.615474
 0.465000   0.052647   2.904567
 0.470000   0.068017   3.102724
 0.475000   0.083674   3.031992
 0.480000   0.098337   2.785865
 0.485000   0.111533   2.086631
 0.490000   0.119203   1.126239
 0.495000   0.122795   0.262512
 0.500000   0.121828   -0.703156
 0.505000   0.115764   -1.504223
 0.510000   0.106786   -2.284985
 0.515000   0.092914   -2.471652
 0.520000   0.082070   -1.899182
 0.525000   0.073922   -1.308769
 0.530000   0.068982   -0.647189
 0.535000   0.067450   0.119306
 0.540000   0.070175   1.027446
 0.545000   0.077725   1.985414
 0.550000   0.090029   2.739490
 0.555000   0.105119   3.250928
 0.560000   0.122538   3.573515
 0.565000   0.140855   3.656631
 0.570000   0.159105   3.657396
 0.575000   0.177429   3.569938
 0.580000   0.194804   3.352574
 0.585000   0.210954   3.057243
 0.590000   0.225377   2.727029
 0.595000   0.238225   2.359520
 0.600000   0.248972   1.899116
 0.605000   0.257216   1.411742
 0.610000   0.263089   0.966200
 0.615000   0.266878   0.512468
 0.620000   0.268214   0.017995
 0.625000   0.267058   -0.433019
 0.630000   0.263884   -0.884693
 0.635000   0.258211   -1.446600
 0.640000   0.249418   -2.130391
 0.645000   0.236907   -2.981812
 0.650000   0.219600   -3.777665
 0.655000   0.199130   -4.342916
 0.660000   0.176170   -4.855335
 0.665000   0.150577   -5.278893
 0.670000   0.123381   -5.330128
 0.675000   0.097276   -5.175596
 0.680000   0.071625   -4.756990
 0.685000   0.049706   -4.167821
 0.690000   0.029947   -3.702414
 0.695000   0.012682   -3.174712
 0.700000   -0.001800   -2.581045
 0.705000   -0.013129   -1.935804
 0.710000   -0.021158   -1.383778
 0.715000   -0.026967   -1.110234
 0.720000   -0.032260   -0.965531
 0.725000   -0.036622   -0.890540
 0.730000   -0.041166   -0.943613
 0.735000   -0.046058   -0.783850
 0.740000   -0.049004   -0.943691
 0.745000   -0.055495   -1.463551
 0.750000   -0.063640   -1.372933
 0.755000   -0.069224   -1.070814
 0.760000   -0.074348   -0.962308
 0.765000   -0.078847   -0.779514
 0.770000   -0.082143   -0.718931
 0.775000   -0.086037   -0.612798
 0.780000   -0.088271   -0.194243
 0.785000   -0.087979   0.279688
 0.790000   -0.085474   0.669347
 0.795000   -0.081286   0.925818
 0.800000   -0.076216   1.141042
 0.805000   -0.069875   1.678722
 0.810000   -0.059429   2.073338
 0.815000   -0.049142   2.173421
 0.820000   -0.037694   2.421860
 0.825000   -0.024923   2.589634
 0.830000   -0.011798   2.714929
 0.835000   0.002226   3.079301
 0.840000   0.018995   3.188701
 0.845000   0.034113   2.972723
 0.850000   0.048722   2.874691
 0.855000   0.062860   2.789121
 0.860000   0.076613   2.819304
 0.865000   0.091053   2.981138
 0.870000   0.106425   3.246072
 0.875000   0.123514   3.750307
 0.880000   0.143928   4.366947
 0.885000   0.167183   4.869828
 0.890000   0.192626   6.063192
 0.895000   0.227815   6.345171
 0.900000   0.256078   6.263619
 0.905000   0.290451   7.214462
 0.910000   0.328222   7.766604
 0.915000   0.368117   7.980223
 0.920000   0.408025   11.022789
 0.925000   0.478345   10.043139
 0.930000   0.508456   7.387548
 0.935000   0.552221   9.661900
 0.940000   0.605075   10.474143
 0.945000   0.656962   8.878418
 0.950000   0.693859   9.098339
 0.955000   0.747945   -4.475628
 0.960000   0.649103   -27.048465
 0.965000   0.477461   -44.383737
 0.970000   0.205266   -64.806819
 0.975000   -0.170607   -82.583428
 0.980000   -0.620569   -89.748066
 0.985000   -1.068088   -87.434799
 0.990000   -1.494917   -73.841265
 0.995000   -1.806501   -46.677800
 1.000000   -1.961695   -15.399787
201 psinorm nz1(10^20/m^3) dnz1/dpsiN
 0.000000   0.014395   0.000002
 0.005000   0.014395   -0.000168
 0.010000   0.014394   -0.000339
 0.015000   0.014392   -0.000513
 0.020000   0.014389   -0.000690
 0.025000   0.014385   -0.000871
 0.030000   0.014380   -0.001054
 0.035000   0.014374   -0.001239
 0.040000   0.014368   -0.001427
 0.045000   0.014360   -0.001616
 0.050000   0.014351   -0.001807
 0.055000   0.014342   -0.001999
 0.060000   0.014331   -0.002191
 0.065000   0.014320   -0.002384
 0.070000   0.014308   -0.002576
 0.075000   0.014294   -0.002767
 0.080000   0.014280   -0.002958
 0.085000   0.014265   -0.003149
 0.090000   0.014248   -0.003339
 0.095000   0.014231   -0.003529
 0.100000   0.014213   -0.003719
 0.105000   0.014194   -0.003910
 0.110000   0.014174   -0.004101
 0.115000   0.014153   -0.004292
 0.120000   0.014131   -0.004481
 0.125000   0.014108   -0.004669
 0.130000   0.014084   -0.004854
 0.135000   0.014060   -0.005037
 0.140000   0.014034   -0.005217
 0.145000   0.014008   -0.005394
 0.150000   0.013980   -0.005566
 0.155000   0.013952   -0.005733
 0.160000   0.013923   -0.005894
 0.165000   0.013893   -0.006049
 0.170000   0.013862   -0.006201
 0.175000   0.013831   -0.006351
 0.180000   0.013799   -0.006498
 0.185000   0.013766   -0.006642
 0.190000   0.013732   -0.006785
 0.195000   0.013698   -0.006928
 0.200000   0.013663   -0.007069
 0.205000   0.013627   -0.007205
 0.210000   0.013591   -0.007335
 0.215000   0.013554   -0.007459
 0.220000   0.013516   -0.007575
 0.225000   0.013478   -0.007681
 0.230000   0.013440   -0.007773
 0.235000   0.013401   -0.007845
 0.240000   0.013361   -0.007899
 0.245000   0.013322   -0.007933
 0.250000   0.013282   -0.007945
 0.255000   0.013242   -0.007933
 0.260000   0.013203   -0.007900
 0.265000   0.013163   -0.007849
 0.270000   0.013124   -0.007782
 0.275000   0.013085   -0.007697
 0.280000   0.013047   -0.007597
 0.285000   0.013009   -0.007480
 0.290000   0.012972   -0.007350
 0.295000   0.012936   -0.007208
 0.300000   0.012900   -0.007054
 0.305000   0.012865   -0.006885
 0.310000   0.012831   -0.006701
 0.315000   0.012798   -0.006499
 0.320000   0.012766   -0.006279
 0.325000   0.012735   -0.006044
 0.330000   0.012706   -0.005795
 0.335000   0.012678   -0.005532
 0.340000   0.012651   -0.005255
 0.345000   0.012625   -0.004964
 0.350000   0.012601   -0.004664
 0.355000   0.012578   -0.004360
 0.360000   0.012557   -0.004052
 0.365000   0.012538   -0.003742
 0.370000   0.012520   -0.003431
 0.375000   0.012504   -0.003118
 0.380000   0.012489   -0.002807
 0.385000   0.012475   -0.002497
 0.390000   0.012464   -0.002187
 0.395000   0.012454   -0.001875
 0.400000   0.012445   -0.001561
 0.405000   0.012438   -0.001247
 0.410000   0.012433   -0.000932
 0.415000   0.012429   -0.000617
 0.420000   0.012426   -0.000304
 0.425000   0.012426   0.000005
 0.430000   0.012426   0.000310
 0.435000   0.012429   0.000607
 0.440000   0.012432   0.000897
 0.445000   0.012438   0.001176
 0.450000   0.012444   0.001444
 0.455000   0.012452   0.001699
 0.460000   0.012461   0.001939
 0.465000   0.012472   0.002163
 0.470000   0.012483   0.002369
 0.475000   0.012495   0.002557
 0.480000   0.012508   0.002728
 0.485000   0.012522   0.002879
 0.490000   0.012537   0.003010
 0.495000   0.012553   0.003122
 0.500000   0.012568   0.003212
 0.505000   0.012585   0.003280
 0.510000   0.012601   0.003326
 0.515000   0.012618   0.003348
 0.520000   0.012635   0.003345
 0.525000   0.012651   0.003317
 0.530000   0.012668   0.003263
 0.535000   0.012684   0.003182
 0.540000   0.012700   0.003072
 0.545000   0.012715   0.002933
 0.550000   0.012729   0.002763
 0.555000   0.012742   0.002562
 0.560000   0.012755   0.002329
 0.565000   0.012766   0.002068
 0.570000   0.012775   0.001779
 0.575000   0.012783   0.001465
 0.580000   0.012790   0.001128
 0.585000   0.012795   0.000769
 0.590000   0.012798   0.000389
 0.595000   0.012799   -0.000012
 0.600000   0.012798   -0.000434
 0.605000   0.012794   -0.000877
 0.610000   0.012789   -0.001340
 0.615000   0.012781   -0.001824
 0.620000   0.012771   -0.002329
 0.625000   0.012758   -0.002852
 0.630000   0.012742   -0.003391
 0.635000   0.012724   -0.003941
 0.640000   0.012703   -0.004498
 0.645000   0.012679   -0.005057
 0.650000   0.012652   -0.005613
 0.655000   0.012623   -0.006162
 0.660000   0.012590   -0.006705
 0.665000   0.012556   -0.007248
 0.670000   0.012518   -0.007795
 0.675000   0.012478   -0.008351
 0.680000   0.012434   -0.008926
 0.685000   0.012388   -0.009522
 0.690000   0.012339   -0.010130
 0.695000   0.012287   -0.010745
 0.700000   0.012232   -0.011365
 0.705000   0.012173   -0.011988
 0.710000   0.012112   -0.012635
 0.715000   0.012047   -0.013336
 0.720000   0.011979   -0.014095
 0.725000   0.011906   -0.014911
 0.730000   0.011829   -0.015782
 0.735000   0.011748   -0.016690
 0.740000   0.011663   -0.017651
 0.745000   0.011572   -0.018633
 0.750000   0.011476   -0.019525
 0.755000   0.011377   -0.020293
 0.760000   0.011273   -0.020934
 0.765000   0.011167   -0.021414
 0.770000   0.011059   -0.021712
 0.775000   0.010950   -0.021780
 0.780000   0.010841   -0.021583
 0.785000   0.010734   -0.021156
 0.790000   0.010630   -0.020541
 0.795000   0.010529   -0.019773
 0.800000   0.010432   -0.018876
 0.805000   0.010340   -0.017865
 0.810000   0.010253   -0.016809
 0.815000   0.010172   -0.015756
 0.820000   0.010096   -0.014704
 0.825000   0.010025   -0.013679
 0.830000   0.009959   -0.012695
 0.835000   0.009898   -0.011762
 0.840000   0.009841   -0.010933
 0.845000   0.009789   -0.010225
 0.850000   0.009739   -0.009598
 0.855000   0.009693   -0.009038
 0.860000   0.009649   -0.008526
 0.865000   0.009607   -0.008038
 0.870000   0.009568   -0.007572
 0.875000   0.009532   -0.007143
 0.880000   0.009497   -0.006774
 0.885000   0.009464   -0.006490
 0.890000   0.009432   -0.006315
 0.895000   0.009401   -0.006307
 0.900000   0.009369   -0.006495
 0.905000   0.009336   -0.006904
 0.910000   0.009300   -0.007620
 0.915000   0.009260   -0.008745
 0.920000   0.009213   -0.010457
 0.925000   0.009155   -0.013345
 0.930000   0.009079   -0.017892
 0.935000   0.008976   -0.024684
 0.940000   0.008832   -0.034919
 0.945000   0.008627   -0.049797
 0.950000   0.008334   -0.070170
 0.955000   0.007925   -0.096673
 0.960000   0.007368   -0.126235
 0.965000   0.006663   -0.152627
 0.970000   0.005841   -0.170117
 0.975000   0.004962   -0.174106
 0.980000   0.004100   -0.163663
 0.985000   0.003325   -0.142215
 0.990000   0.002678   -0.115363
 0.995000   0.002171   -0.088748
 1.000000   0.001791   -0.063621
201 psinorm vtor1(km/s) dvtor1/dpsiN
 0.000000   59.467819   307.861572
 0.005000   60.661063   169.436130
 0.010000   61.162180   87.894145
 0.015000   61.540005   68.659296
 0.020000   61.848773   57.021003
 0.025000   62.110215   48.913890
 0.030000   62.337912   42.587313
 0.035000   62.536088   36.641899
 0.040000   62.704331   30.969015
 0.045000   62.845778   25.595891
 0.050000   62.960290   20.076260
 0.055000   63.046541   14.269297
 0.060000   63.102983   8.291036
 0.065000   63.129451   2.167429
 0.070000   63.124657   -4.254315
 0.075000   63.086908   -10.820899
 0.080000   63.016448   -17.357857
 0.085000   62.913329   -23.820518
 0.090000   62.778243   -30.173765
 0.095000   62.611592   -36.250348
 0.100000   62.415740   -41.765755
 0.105000   62.193934   -46.882772
 0.110000   61.946912   -51.881671
 0.115000   61.675117   -56.711651
 0.120000   61.379795   -61.357951
 0.125000   61.061538   -65.871103
 0.130000   60.721084   -70.007026
 0.135000   60.361468   -73.732074
 0.140000   59.983764   -77.331559
 0.145000   59.588152   -80.843945
 0.150000   59.175324   -84.249455
 0.155000   58.745657   -87.645791
 0.160000   58.298866   -91.101568
 0.165000   57.834642   -94.513336
 0.170000   57.353733   -97.675025
 0.175000   56.857891   -100.434448
 0.180000   56.349388   -102.731583
 0.185000   55.830576   -104.539897
 0.190000   55.303989   -105.786396
 0.195000   54.772712   -106.463500
 0.200000   54.239354   -106.807381
 0.205000   53.704638   -106.915305
 0.210000   53.170201   -106.706651
 0.215000   52.637571   -106.199389
 0.220000   52.108208   -105.319168
 0.225000   51.584380   -103.989082
 0.230000   51.068317   -102.505141
 0.235000   50.559328   -101.066291
 0.240000   50.057654   -99.622904
 0.245000   49.563099   -98.259795
 0.250000   49.075056   -97.058020
 0.255000   48.592519   -96.133374
 0.260000   48.113722   -95.444292
 0.265000   47.638076   -94.783322
 0.270000   47.165889   -94.008065
 0.275000   46.697995   -93.018559
 0.280000   46.235703   -91.758766
 0.285000   45.780408   -90.251772
 0.290000   45.333186   -88.376903
 0.295000   44.896639   -86.064754
 0.300000   44.472538   -83.404294
 0.305000   44.062596   -80.399611
 0.310000   43.668542   -77.053583
 0.315000   43.292060   -73.350624
 0.320000   42.935036   -69.347435
 0.325000   42.598586   -65.150497
 0.330000   42.283531   -60.808684
 0.335000   41.990499   -56.363013
 0.340000   41.719901   -51.850745
 0.345000   41.471991   -47.278077
 0.350000   41.247120   -42.674999
 0.355000   41.045241   -38.059085
 0.360000   40.866529   -33.410561
 0.365000   40.711136   -28.740748
 0.370000   40.579121   -24.066608
 0.375000   40.470470   -19.401679
 0.380000   40.385105   -14.775601
 0.385000   40.322714   -10.220195
 0.390000   40.282903   -5.731429
 0.395000   40.265399   -1.281739
 0.400000   40.270085   3.161671
 0.405000   40.297016   7.638284
 0.410000   40.346468   12.194996
 0.415000   40.418966   16.847050
 0.420000   40.514939   21.564360
 0.425000   40.634610   26.303854
 0.430000   40.777977   31.010482
 0.435000   40.944714   35.631769
 0.440000   41.134295   40.073734
 0.445000   41.345452   44.211261
 0.450000   41.576408   47.967424
 0.455000   41.825126   51.291423
 0.460000   42.089322   54.157118
 0.465000   42.366697   56.619505
 0.470000   42.655517   58.884826
 0.475000   42.955545   61.066987
 0.480000   43.266187   63.094965
 0.485000   43.586495   64.881062
 0.490000   43.914997   66.297019
 0.495000   44.249465   67.251204
 0.500000   44.587509   67.561433
 0.505000   44.925080   66.604031
 0.510000   45.253550   63.900503
 0.515000   45.564085   59.268922
 0.520000   45.846239   52.409000
 0.525000   46.088175   43.088285
 0.530000   46.277122   31.119544
 0.535000   46.399370   16.410961
 0.540000   46.441231   -0.837702
 0.545000   46.390993   -20.240874
 0.550000   46.238823   -41.392236
 0.555000   45.977071   -63.880070
 0.560000   45.600022   -87.419995
 0.565000   45.102871   -111.799167
 0.570000   44.482030   -136.698494
 0.575000   43.735886   -161.717730
 0.580000   42.864853   -186.449456
 0.585000   41.871391   -210.480772
 0.590000   40.760045   -233.390488
 0.595000   39.537486   -254.786251
 0.600000   38.212183   -274.299854
 0.605000   36.794488   -291.567265
 0.610000   35.296510   -306.250701
 0.615000   33.731981   -318.038160
 0.620000   32.116128   -326.709031
 0.625000   30.464891   -332.025117
 0.630000   28.795877   -333.732918
 0.635000   27.127561   -331.595376
 0.640000   25.479924   -325.248113
 0.645000   23.875080   -314.266484
 0.650000   22.337259   -297.796241
 0.655000   20.897118   -275.911167
 0.660000   19.578147   -250.089865
 0.665000   18.396219   -221.680614
 0.670000   17.361341   -191.907057
 0.675000   16.477149   -161.993941
 0.680000   15.741401   -132.546168
 0.685000   15.151687   -104.984442
 0.690000   14.691557   -80.677763
 0.695000   14.344909   -59.465234
 0.700000   14.096905   -41.169750
 0.705000   13.933212   -25.606529
 0.710000   13.840839   -12.447698
 0.715000   13.808735   -1.330769
 0.720000   13.827532   8.254138
 0.725000   13.891276   16.863928
 0.730000   13.996171   24.838770
 0.735000   14.139664   32.340242
 0.740000   14.319573   39.368021
 0.745000   14.533344   45.739770
 0.750000   14.776971   51.209859
 0.755000   15.045443   55.636183
 0.760000   15.333333   58.923386
 0.765000   15.634677   60.979702
 0.770000   15.943130   61.734820
 0.775000   16.252025   61.148347
 0.780000   16.554613   59.281276
 0.785000   16.844838   56.233940
 0.790000   17.116953   52.088186
 0.795000   17.365719   46.953763
 0.800000   17.586490   40.939452
 0.805000   17.775114   34.176288
 0.810000   17.928253   26.856103
 0.815000   18.043675   19.111833
 0.820000   18.119372   11.015527
 0.825000   18.153830   2.654389
 0.830000   18.145916   -5.906641
 0.835000   18.094764   -14.634156
 0.840000   17.999574   -23.554790
 0.845000   17.859216   -32.704195
 0.850000   17.672532   -42.096925
 0.855000   17.438247   -51.768134
 0.860000   17.154851   -61.810324
 0.865000   16.820143   -72.750340
 0.870000   16.427347   -85.062206
 0.875000   15.969521   -98.932640
 0.880000   15.438021   -114.583852
 0.885000   14.823683   -132.052814
 0.890000   14.117493   -151.260768
 0.895000   13.311075   -173.199168
 0.900000   12.385501   -196.240570
 0.905000   11.348669   -218.331480
 0.910000   10.202186   -239.513774
 0.915000   8.953532   -258.396524
 0.920000   7.618221   -273.161716
 0.925000   6.221915   -283.129638
 0.930000   4.786925   -284.191501
 0.935000   3.380000   -272.274011
 0.940000   2.064185   -247.261510
 0.945000   0.907384   -208.592316
 0.950000   -0.021739   -156.803573
 0.955000   -0.660651   -93.934671
 0.960000   -0.961085   -23.303746
 0.965000   -0.893689   49.814603
 0.970000   -0.462939   118.827345
 0.975000   0.294585   177.438156
 0.980000   1.311442   219.921511
 0.985000   2.493800   241.655603
 0.990000   3.727998   240.029563
 0.995000   4.894095   215.284098
 1.000000   5.880839   179.413447
201 psinorm vpol1(km/s) dvpol1/dpsiN
 0.000000   -0.000047   2.157812
 0.005000   0.012000   2.660938
 0.010000   0.026562   3.212500
 0.015000   0.044125   3.737500
 0.020000   0.063938   4.195313
 0.025000   0.086078   4.545313
 0.030000   0.109391   4.737500
 0.035000   0.133453   4.851562
 0.040000   0.157906   4.889063
 0.045000   0.182344   4.884375
 0.050000   0.206750   4.893750
 0.055000   0.231281   4.950000
 0.060000   0.256250   5.096875
 0.065000   0.282250   5.315625
 0.070000   0.309406   5.562500
 0.075000   0.337875   5.826562
 0.080000   0.367672   6.078125
 0.085000   0.398656   6.346875
 0.090000   0.431141   6.590625
 0.095000   0.464562   6.757812
 0.100000   0.498719   6.875000
 0.105000   0.533312   6.926563
 0.110000   0.567984   6.912500
 0.115000   0.602437   6.798437
 0.120000   0.635969   6.617188
 0.125000   0.668609   6.414062
 0.130000   0.700109   6.187500
 0.135000   0.730484   5.976562
 0.140000   0.759875   5.796875
 0.145000   0.788453   5.668750
 0.150000   0.816562   5.607812
 0.155000   0.844531   5.596875
 0.160000   0.872531   5.617188
 0.165000   0.900703   5.623437
 0.170000   0.928766   5.615625
 0.175000   0.956859   5.589063
 0.180000   0.984656   5.509375
 0.185000   1.011953   5.395313
 0.190000   1.038609   5.259375
 0.195000   1.064547   5.098437
 0.200000   1.089594   4.898438
 0.205000   1.113531   4.660938
 0.210000   1.136203   4.425000
 0.215000   1.157781   4.164063
 0.220000   1.177844   3.896875
 0.225000   1.196750   3.657812
 0.230000   1.214422   3.415625
 0.235000   1.230906   3.190625
 0.240000   1.246328   3.001562
 0.245000   1.260922   2.828125
 0.250000   1.274609   2.660938
 0.255000   1.287531   2.489063
 0.260000   1.299500   2.295312
 0.265000   1.310484   2.087500
 0.270000   1.320375   1.850000
 0.275000   1.328984   1.575000
 0.280000   1.336125   1.281250
 0.285000   1.341797   0.964062
 0.290000   1.345766   0.598438
 0.295000   1.347781   0.223438
 0.300000   1.348000   -0.171875
 0.305000   1.346062   -0.607813
 0.310000   1.341922   -1.076562
 0.315000   1.335297   -1.592187
 0.320000   1.326000   -2.167187
 0.325000   1.313625   -2.815625
 0.330000   1.297844   -3.526563
 0.335000   1.278359   -4.278125
 0.340000   1.255062   -5.081250
 0.345000   1.227547   -5.953125
 0.350000   1.195531   -6.823438
 0.355000   1.159312   -7.678125
 0.360000   1.118750   -8.498437
 0.365000   1.074328   -9.223438
 0.370000   1.026516   -9.853125
 0.375000   0.975797   -10.359375
 0.380000   0.922922   -10.698437
 0.385000   0.868812   -10.950000
 0.390000   0.813422   -11.209375
 0.395000   0.756719   -11.484375
 0.400000   0.698578   -11.804687
 0.405000   0.638672   -12.184375
 0.410000   0.576734   -12.706250
 0.415000   0.511609   -13.362500
 0.420000   0.443109   -14.017188
 0.425000   0.371438   -14.692187
 0.430000   0.296187   -15.451562
 0.435000   0.216922   -16.435937
 0.440000   0.131828   -18.148437
 0.445000   0.035437   -20.760937
 0.450000   -0.075781   -24.132812
 0.455000   -0.205891   -28.285937
 0.460000   -0.358641   -33.175000
 0.465000   -0.537641   -38.828125
 0.470000   -0.746922   -45.181250
 0.475000   -0.989453   -51.285938
 0.480000   -1.259781   -56.492188
 0.485000   -1.554375   -60.709375
 0.490000   -1.866875   -63.506250
 0.495000   -2.189437   -64.414062
 0.500000   -2.511016   -62.907812
 0.505000   -2.818516   -59.210937
 0.510000   -3.103125   -54.035937
 0.515000   -3.358875   -47.873437
 0.520000   -3.581859   -41.253125
 0.525000   -3.771406   -34.343750
 0.530000   -3.925297   -27.882813
 0.535000   -4.050234   -22.771875
 0.540000   -4.153016   -18.882812
 0.545000   -4.239063   -16.032813
 0.550000   -4.313344   -14.068750
 0.555000   -4.379750   -12.865625
 0.560000   -4.442000   -12.157812
 0.565000   -4.501328   -11.615625
 0.570000   -4.558156   -11.078125
 0.575000   -4.612109   -10.470313
 0.580000   -4.662859   -9.739063
 0.585000   -4.709500   -8.881250
 0.590000   -4.751672   -7.809375
 0.595000   -4.787594   -6.429687
 0.600000   -4.815969   -4.832813
 0.605000   -4.835922   -3.092188
 0.610000   -4.846891   -1.268750
 0.615000   -4.848609   0.553125
 0.620000   -4.841359   2.276563
 0.625000   -4.825844   3.826562
 0.630000   -4.803094   5.128125
 0.635000   -4.774563   6.154688
 0.640000   -4.741547   6.906250
 0.645000   -4.705500   7.371875
 0.650000   -4.667828   7.642187
 0.655000   -4.629078   7.821875
 0.660000   -4.589609   7.950000
 0.665000   -4.549578   8.050000
 0.670000   -4.509109   8.156250
 0.675000   -4.468016   8.320313
 0.680000   -4.425906   8.476562
 0.685000   -4.383250   8.604687
 0.690000   -4.339859   8.701563
 0.695000   -4.296234   8.735938
 0.700000   -4.252500   8.728125
 0.705000   -4.208953   8.671875
 0.710000   -4.165781   8.604688
 0.715000   -4.122906   8.509375
 0.720000   -4.080687   8.360937
 0.725000   -4.039297   8.178125
 0.730000   -3.998906   7.976562
 0.735000   -3.959531   7.737500
 0.740000   -3.921531   7.428125
 0.745000   -3.885250   7.082813
 0.750000   -3.850703   6.692187
 0.755000   -3.818328   6.254687
 0.760000   -3.788156   5.787500
 0.765000   -3.760453   5.254687
 0.770000   -3.735609   4.695312
 0.775000   -3.713500   4.128125
 0.780000   -3.694328   3.554688
 0.785000   -3.677953   2.956250
 0.790000   -3.664766   2.359375
 0.795000   -3.654359   1.796875
 0.800000   -3.646797   1.240625
 0.805000   -3.641953   0.650000
 0.810000   -3.640297   0.009375
 0.815000   -3.641859   -0.662500
 0.820000   -3.646922   -1.445312
 0.825000   -3.656312   -2.359375
 0.830000   -3.670516   -3.328125
 0.835000   -3.689594   -4.334375
 0.840000   -3.713859   -5.357813
 0.845000   -3.743172   -6.312500
 0.850000   -3.776984   -7.167187
 0.855000   -3.814844   -7.871875
 0.860000   -3.855703   -8.426563
 0.865000   -3.899109   -8.871875
 0.870000   -3.944422   -9.165625
 0.875000   -3.990766   -9.300000
 0.880000   -4.037422   -9.262500
 0.885000   -4.083391   -9.012500
 0.890000   -4.127547   -8.487500
 0.895000   -4.168266   -7.689062
 0.900000   -4.204438   -6.626562
 0.905000   -4.234531   -5.279688
 0.910000   -4.257234   -3.671094
 0.915000   -4.271242   -1.829688
 0.920000   -4.275531   0.190625
 0.925000   -4.269336   2.414844
 0.930000   -4.251383   5.010938
 0.935000   -4.219227   8.434375
 0.940000   -4.167039   13.303906
 0.945000   -4.086188   20.195312
 0.950000   -3.965086   29.753906
 0.955000   -3.788648   42.550781
 0.960000   -3.539578   58.746094
 0.965000   -3.201188   79.492187
 0.970000   -2.744656   103.078906
 0.975000   -2.170398   125.554687
 0.980000   -1.489109   146.689062
 0.985000   -0.703508   171.565625
 0.990000   0.226547   211.063281
 0.995000   1.407125   273.551562
 1.000000   2.962063   348.423437
3 N Z A of ION SPECIES
 6.000000   6.000000   12.010700
 1.000000   1.000000   2.000000
 1.000000   1.000000   2.000000
