201 psinorm ne(10^20/m^3) dne/dpsiN
 0.000000   0.491662   -0.385895
 0.005000   0.489739   -0.383348
 0.010000   0.487829   -0.380810
 0.015000   0.485931   -0.378289
 0.020000   0.484046   -0.375787
 0.025000   0.482173   -0.373302
 0.030000   0.480313   -0.370835
 0.035000   0.478465   -0.368386
 0.040000   0.476629   -0.365953
 0.045000   0.474805   -0.363538
 0.050000   0.472994   -0.361140
 0.055000   0.471194   -0.358758
 0.060000   0.469406   -0.356393
 0.065000   0.467630   -0.354045
 0.070000   0.465866   -0.351714
 0.075000   0.464113   -0.349398
 0.080000   0.462372   -0.347099
 0.085000   0.460642   -0.344816
 0.090000   0.458923   -0.342548
 0.095000   0.457216   -0.340297
 0.100000   0.455520   -0.338061
 0.105000   0.453836   -0.335840
 0.110000   0.452162   -0.333635
 0.115000   0.450499   -0.331445
 0.120000   0.448848   -0.329270
 0.125000   0.447207   -0.327110
 0.130000   0.445576   -0.324965
 0.135000   0.443957   -0.322835
 0.140000   0.442348   -0.320720
 0.145000   0.440750   -0.318619
 0.150000   0.439162   -0.316532
 0.155000   0.437584   -0.314459
 0.160000   0.436017   -0.312401
 0.165000   0.434460   -0.310357
 0.170000   0.432914   -0.308327
 0.175000   0.431377   -0.306310
 0.180000   0.429851   -0.304307
 0.185000   0.428334   -0.302318
 0.190000   0.426827   -0.300342
 0.195000   0.425331   -0.298380
 0.200000   0.423844   -0.296430
 0.205000   0.422366   -0.294494
 0.210000   0.420899   -0.292571
 0.215000   0.419441   -0.290661
 0.220000   0.417992   -0.288763
 0.225000   0.416553   -0.286879
 0.230000   0.415123   -0.285007
 0.235000   0.413703   -0.283147
 0.240000   0.412292   -0.281300
 0.245000   0.410890   -0.279465
 0.250000   0.409497   -0.277642
 0.255000   0.408114   -0.275832
 0.260000   0.406739   -0.274033
 0.265000   0.405373   -0.272247
 0.270000   0.404016   -0.270472
 0.275000   0.402669   -0.268708
 0.280000   0.401329   -0.266957
 0.285000   0.399999   -0.265217
 0.290000   0.398677   -0.263488
 0.295000   0.397364   -0.261771
 0.300000   0.396059   -0.260065
 0.305000   0.394763   -0.258370
 0.310000   0.393476   -0.256686
 0.315000   0.392197   -0.255013
 0.320000   0.390926   -0.253351
 0.325000   0.389663   -0.251699
 0.330000   0.388409   -0.250059
 0.335000   0.387162   -0.248429
 0.340000   0.385924   -0.246809
 0.345000   0.384694   -0.245200
 0.350000   0.383472   -0.243602
 0.355000   0.382258   -0.242013
 0.360000   0.381052   -0.240435
 0.365000   0.379854   -0.238867
 0.370000   0.378664   -0.237309
 0.375000   0.377481   -0.235761
 0.380000   0.376306   -0.234223
 0.385000   0.375139   -0.232694
 0.390000   0.373979   -0.231175
 0.395000   0.372827   -0.229666
 0.400000   0.371682   -0.228166
 0.405000   0.370545   -0.226676
 0.410000   0.369416   -0.225195
 0.415000   0.368293   -0.223724
 0.420000   0.367178   -0.222262
 0.425000   0.366071   -0.220808
 0.430000   0.364970   -0.219364
 0.435000   0.363877   -0.217929
 0.440000   0.362791   -0.216503
 0.445000   0.361712   -0.215086
 0.450000   0.360640   -0.213678
 0.455000   0.359575   -0.212278
 0.460000   0.358517   -0.210887
 0.465000   0.357466   -0.209504
 0.470000   0.356422   -0.208130
 0.475000   0.355385   -0.206765
 0.480000   0.354355   -0.205408
 0.485000   0.353331   -0.204059
 0.490000   0.352314   -0.202718
 0.495000   0.351304   -0.201385
 0.500000   0.350300   -0.200061
 0.505000   0.349303   -0.198744
 0.510000   0.348313   -0.197436
 0.515000   0.347329   -0.196135
 0.520000   0.346351   -0.194842
 0.525000   0.345380   -0.193556
 0.530000   0.344416   -0.192278
 0.535000   0.343458   -0.191008
 0.540000   0.342506   -0.189745
 0.545000   0.341560   -0.188489
 0.550000   0.340621   -0.187241
 0.555000   0.339688   -0.185999
 0.560000   0.338761   -0.184765
 0.565000   0.337840   -0.183537
 0.570000   0.336926   -0.182316
 0.575000   0.336017   -0.181102
 0.580000   0.335115   -0.179893
 0.585000   0.334218   -0.178691
 0.590000   0.333328   -0.177495
 0.595000   0.332443   -0.176304
 0.600000   0.331565   -0.175119
 0.605000   0.330692   -0.173939
 0.610000   0.329825   -0.172763
 0.615000   0.328964   -0.171591
 0.620000   0.328109   -0.170423
 0.625000   0.327260   -0.169258
 0.630000   0.326417   -0.168095
 0.635000   0.325579   -0.166934
 0.640000   0.324747   -0.165772
 0.645000   0.323921   -0.164611
 0.650000   0.323101   -0.163447
 0.655000   0.322287   -0.162279
 0.660000   0.321478   -0.161106
 0.665000   0.320676   -0.159926
 0.670000   0.319879   -0.158735
 0.675000   0.319089   -0.157531
 0.680000   0.318304   -0.156310
 0.685000   0.317525   -0.155068
 0.690000   0.316753   -0.153801
 0.695000   0.315987   -0.152502
 0.700000   0.315228   -0.151165
 0.705000   0.314476   -0.149782
 0.710000   0.313730   -0.148344
 0.715000   0.312992   -0.146840
 0.720000   0.312262   -0.145257
 0.725000   0.311540   -0.143581
 0.730000   0.310826   -0.141794
 0.735000   0.310122   -0.139876
 0.740000   0.309427   -0.137804
 0.745000   0.308744   -0.135549
 0.750000   0.308072   -0.133080
 0.755000   0.307413   -0.130360
 0.760000   0.306768   -0.127345
 0.765000   0.306140   -0.123985
 0.770000   0.305528   -0.120224
 0.775000   0.304937   -0.115994
 0.780000   0.304368   -0.111221
 0.785000   0.303825   -0.105816
 0.790000   0.303310   -0.099682
 0.795000   0.302828   -0.092707
 0.800000   0.302383   -0.084766
 0.805000   0.301981   -0.075721
 0.810000   0.301626   -0.065417
 0.815000   0.301326   -0.053689
 0.820000   0.301089   -0.040358
 0.825000   0.300923   -0.025242
 0.830000   0.300837   -0.008153
 0.835000   0.300841   0.011083
 0.840000   0.300948   0.032614
 0.845000   0.301167   0.056542
 0.850000   0.301513   0.082883
 0.855000   0.301996   0.111520
 0.860000   0.302628   0.142136
 0.865000   0.303418   0.174119
 0.870000   0.304369   0.206429
 0.875000   0.305482   0.237425
 0.880000   0.306744   0.264641
 0.885000   0.308128   0.284494
 0.890000   0.309589   0.291951
 0.895000   0.311048   0.280159
 0.900000   0.312390   0.240117
 0.905000   0.313449   0.160526
 0.910000   0.313995   0.028029
 0.915000   0.313729   -0.171802
 0.920000   0.312277   -0.452345
 0.925000   0.309206   -0.822340
 0.930000   0.304054   -1.280933
 0.935000   0.296397   -1.812300
 0.940000   0.285931   -2.381946
 0.945000   0.272577   -2.937594
 0.950000   0.256555   -3.416871
 0.955000   0.238408   -3.761203
 0.960000   0.218943   -3.931392
 0.965000   0.199094   -3.918101
 0.970000   0.179762   -3.742388
 0.975000   0.161671   -3.446614
 0.980000   0.145296   -3.080825
 0.985000   0.130862   -2.690670
 0.990000   0.118389   -2.310471
 0.995000   0.107758   -1.961607
 1.000000   0.098773   -1.632184
201 psinorm te(KeV) dte/dpsiN
 0.000000   4.366323   -5.884632
 0.005000   4.336982   -5.851597
 0.010000   4.307807   -5.818630
 0.015000   4.278796   -5.785799
 0.020000   4.249949   -5.753104
 0.025000   4.221265   -5.720544
 0.030000   4.192743   -5.688119
 0.035000   4.164384   -5.655830
 0.040000   4.136185   -5.623675
 0.045000   4.108147   -5.591654
 0.050000   4.080268   -5.559769
 0.055000   4.052549   -5.528017
 0.060000   4.024988   -5.496399
 0.065000   3.997585   -5.464915
 0.070000   3.970339   -5.433565
 0.075000   3.943249   -5.402348
 0.080000   3.916316   -5.371264
 0.085000   3.889537   -5.340314
 0.090000   3.862912   -5.309495
 0.095000   3.836442   -5.278810
 0.100000   3.810124   -5.248256
 0.105000   3.783959   -5.217835
 0.110000   3.757946   -5.187545
 0.115000   3.732084   -5.157387
 0.120000   3.706372   -5.127361
 0.125000   3.680810   -5.097465
 0.130000   3.655397   -5.067700
 0.135000   3.630133   -5.038066
 0.140000   3.605017   -5.008563
 0.145000   3.580048   -4.979189
 0.150000   3.555225   -4.949945
 0.155000   3.530548   -4.920831
 0.160000   3.506017   -4.891846
 0.165000   3.481630   -4.862991
 0.170000   3.457387   -4.834264
 0.175000   3.433287   -4.805665
 0.180000   3.409330   -4.777196
 0.185000   3.385515   -4.748854
 0.190000   3.361842   -4.720640
 0.195000   3.338309   -4.692553
 0.200000   3.314916   -4.664594
 0.205000   3.291663   -4.636762
 0.210000   3.268548   -4.609056
 0.215000   3.245572   -4.581477
 0.220000   3.222734   -4.554024
 0.225000   3.200032   -4.526697
 0.230000   3.177467   -4.499496
 0.235000   3.155037   -4.472419
 0.240000   3.132742   -4.445468
 0.245000   3.110582   -4.418642
 0.250000   3.088556   -4.391940
 0.255000   3.066663   -4.365363
 0.260000   3.044902   -4.338909
 0.265000   3.023274   -4.312579
 0.270000   3.001777   -4.286372
 0.275000   2.980410   -4.260288
 0.280000   2.959174   -4.234327
 0.285000   2.938067   -4.208488
 0.290000   2.917089   -4.182771
 0.295000   2.896239   -4.157177
 0.300000   2.875517   -4.131703
 0.305000   2.854922   -4.106351
 0.310000   2.834454   -4.081120
 0.315000   2.814111   -4.056010
 0.320000   2.793893   -4.031019
 0.325000   2.773801   -4.006149
 0.330000   2.753832   -3.981399
 0.335000   2.733987   -3.956767
 0.340000   2.714264   -3.932255
 0.345000   2.694664   -3.907862
 0.350000   2.675186   -3.883586
 0.355000   2.655828   -3.859429
 0.360000   2.636591   -3.835390
 0.365000   2.617474   -3.811469
 0.370000   2.598477   -3.787664
 0.375000   2.579598   -3.763976
 0.380000   2.560837   -3.740405
 0.385000   2.542194   -3.716950
 0.390000   2.523667   -3.693610
 0.395000   2.505258   -3.670387
 0.400000   2.486964   -3.647278
 0.405000   2.468785   -3.624284
 0.410000   2.450721   -3.601405
 0.415000   2.432771   -3.578640
 0.420000   2.414934   -3.555989
 0.425000   2.397211   -3.533452
 0.430000   2.379600   -3.511027
 0.435000   2.362101   -3.488716
 0.440000   2.344713   -3.466517
 0.445000   2.327435   -3.444430
 0.450000   2.310268   -3.422455
 0.455000   2.293211   -3.400592
 0.460000   2.276262   -3.378839
 0.465000   2.259422   -3.357198
 0.470000   2.242690   -3.335667
 0.475000   2.226066   -3.314247
 0.480000   2.209548   -3.292936
 0.485000   2.193136   -3.271735
 0.490000   2.176831   -3.250642
 0.495000   2.160630   -3.229659
 0.500000   2.144534   -3.208784
 0.505000   2.128542   -3.188017
 0.510000   2.112654   -3.167358
 0.515000   2.096869   -3.146807
 0.520000   2.081186   -3.126362
 0.525000   2.065605   -3.106024
 0.530000   2.050126   -3.085793
 0.535000   2.034747   -3.065667
 0.540000   2.019469   -3.045647
 0.545000   2.004291   -3.025733
 0.550000   1.989212   -3.005924
 0.555000   1.974231   -2.986219
 0.560000   1.959349   -2.966618
 0.565000   1.944565   -2.947122
 0.570000   1.929878   -2.927729
 0.575000   1.915288   -2.908439
 0.580000   1.900794   -2.889252
 0.585000   1.886395   -2.870168
 0.590000   1.872092   -2.851186
 0.595000   1.857884   -2.832305
 0.600000   1.843769   -2.813526
 0.605000   1.829748   -2.794848
 0.610000   1.815821   -2.776271
 0.615000   1.801986   -2.757795
 0.620000   1.788243   -2.739418
 0.625000   1.774591   -2.721141
 0.630000   1.761031   -2.702963
 0.635000   1.747562   -2.684885
 0.640000   1.734182   -2.666905
 0.645000   1.720893   -2.649023
 0.650000   1.707692   -2.631239
 0.655000   1.694580   -2.613553
 0.660000   1.681557   -2.595964
 0.665000   1.668621   -2.578471
 0.670000   1.655772   -2.561075
 0.675000   1.643010   -2.543775
 0.680000   1.630334   -2.526571
 0.685000   1.617744   -2.509462
 0.690000   1.605240   -2.492448
 0.695000   1.592820   -2.475529
 0.700000   1.580484   -2.458703
 0.705000   1.568233   -2.441971
 0.710000   1.556065   -2.425332
 0.715000   1.543979   -2.408786
 0.720000   1.531977   -2.392332
 0.725000   1.520056   -2.375970
 0.730000   1.508217   -2.359698
 0.735000   1.496459   -2.343517
 0.740000   1.484782   -2.327424
 0.745000   1.473185   -2.311420
 0.750000   1.461668   -2.295502
 0.755000   1.450230   -2.279670
 0.760000   1.438871   -2.263921
 0.765000   1.427591   -2.248254
 0.770000   1.416388   -2.232665
 0.775000   1.405264   -2.217152
 0.780000   1.394217   -2.201710
 0.785000   1.383247   -2.186335
 0.790000   1.372353   -2.171020
 0.795000   1.361537   -2.155760
 0.800000   1.350796   -2.140545
 0.805000   1.340131   -2.125367
 0.810000   1.329542   -2.110216
 0.815000   1.319029   -2.095083
 0.820000   1.308591   -2.079957
 0.825000   1.298229   -2.064834
 0.830000   1.287943   -2.049714
 0.835000   1.277732   -2.034614
 0.840000   1.267597   -2.019568
 0.845000   1.257537   -2.004654
 0.850000   1.247550   -1.990007
 0.855000   1.237637   -1.975864
 0.860000   1.227792   -1.962613
 0.865000   1.218010   -1.950879
 0.870000   1.208283   -1.941652
 0.875000   1.198594   -1.936468
 0.880000   1.188918   -1.937693
 0.885000   1.179217   -1.948924
 0.890000   1.169429   -1.975592
 0.895000   1.159461   -2.025815
 0.900000   1.149171   -2.111635
 0.905000   1.138345   -2.250727
 0.910000   1.126664   -2.468724
 0.915000   1.113657   -2.802193
 0.920000   1.098642   -3.302104
 0.925000   1.080636   -4.037074
 0.930000   1.058271   -5.094538
 0.935000   1.029691   -6.575868
 0.940000   0.992512   -8.578351
 0.945000   0.943908   -11.153965
 0.950000   0.880973   -14.237022
 0.955000   0.801537   -17.549947
 0.960000   0.705473   -20.538525
 0.965000   0.596152   -22.437722
 0.970000   0.481096   -22.550459
 0.975000   0.370647   -20.650663
 0.980000   0.274589   -17.201326
 0.985000   0.198634   -13.134793
 0.990000   0.143241   -9.348923
 0.995000   0.105145   -6.342361
 1.000000   0.079818   -3.788533
201 psinorm ni(10^20/m^3) dni/dpsiN
 0.000000   0.303194   -0.533604
 0.005000   0.300770   -0.436063
 0.010000   0.298834   -0.351949
 0.015000   0.297251   -0.287262
 0.020000   0.295961   -0.232402
 0.025000   0.294927   -0.184755
 0.030000   0.294114   -0.142772
 0.035000   0.293499   -0.106807
 0.040000   0.293045   -0.076818
 0.045000   0.292731   -0.051706
 0.050000   0.292528   -0.031481
 0.055000   0.292416   -0.014320
 0.060000   0.292385   -0.000424
 0.065000   0.292412   0.010372
 0.070000   0.292489   0.018758
 0.075000   0.292599   0.024597
 0.080000   0.292735   0.028561
 0.085000   0.292885   0.030615
 0.090000   0.293041   0.031101
 0.095000   0.293196   0.029945
 0.100000   0.293340   0.027596
 0.105000   0.293472   0.024563
 0.110000   0.293586   0.020681
 0.115000   0.293679   0.015945
 0.120000   0.293746   0.010526
 0.125000   0.293784   0.004364
 0.130000   0.293789   -0.002356
 0.135000   0.293760   -0.009204
 0.140000   0.293697   -0.016291
 0.145000   0.293597   -0.023560
 0.150000   0.293462   -0.030757
 0.155000   0.293290   -0.037915
 0.160000   0.293082   -0.045053
 0.165000   0.292839   -0.052105
 0.170000   0.292561   -0.059032
 0.175000   0.292249   -0.065800
 0.180000   0.291903   -0.072322
 0.185000   0.291526   -0.078946
 0.190000   0.291114   -0.085463
 0.195000   0.290671   -0.091461
 0.200000   0.290199   -0.097176
 0.205000   0.289699   -0.102622
 0.210000   0.289173   -0.107791
 0.215000   0.288622   -0.112687
 0.220000   0.288046   -0.117306
 0.225000   0.287448   -0.121633
 0.230000   0.286830   -0.125876
 0.235000   0.286190   -0.130195
 0.240000   0.285528   -0.134037
 0.245000   0.284849   -0.137269
 0.250000   0.284155   -0.140260
 0.255000   0.283447   -0.143017
 0.260000   0.282725   -0.145572
 0.265000   0.281991   -0.148375
 0.270000   0.281241   -0.151017
 0.275000   0.280481   -0.153052
 0.280000   0.279711   -0.154905
 0.285000   0.278932   -0.156617
 0.290000   0.278145   -0.158372
 0.295000   0.277348   -0.160254
 0.300000   0.276542   -0.161851
 0.305000   0.275730   -0.163117
 0.310000   0.274911   -0.164321
 0.315000   0.274086   -0.165592
 0.320000   0.273255   -0.166960
 0.325000   0.272417   -0.168095
 0.330000   0.271574   -0.168968
 0.335000   0.270727   -0.169783
 0.340000   0.269876   -0.170707
 0.345000   0.269020   -0.171623
 0.350000   0.268160   -0.172306
 0.355000   0.267297   -0.172891
 0.360000   0.266431   -0.173504
 0.365000   0.265562   -0.174226
 0.370000   0.264689   -0.174890
 0.375000   0.263813   -0.175429
 0.380000   0.262935   -0.175988
 0.385000   0.262053   -0.176679
 0.390000   0.261168   -0.177379
 0.395000   0.260279   -0.177950
 0.400000   0.259388   -0.178495
 0.405000   0.258494   -0.179094
 0.410000   0.257597   -0.179686
 0.415000   0.256698   -0.180149
 0.420000   0.255796   -0.180526
 0.425000   0.254892   -0.180906
 0.430000   0.253987   -0.181266
 0.435000   0.253080   -0.181484
 0.440000   0.252172   -0.181577
 0.445000   0.251264   -0.181663
 0.450000   0.250355   -0.181749
 0.455000   0.249446   -0.181716
 0.460000   0.248538   -0.181564
 0.465000   0.247631   -0.181405
 0.470000   0.246724   -0.181260
 0.475000   0.245818   -0.180999
 0.480000   0.244914   -0.180584
 0.485000   0.244012   -0.180106
 0.490000   0.243113   -0.179573
 0.495000   0.242217   -0.178866
 0.500000   0.241324   -0.177951
 0.505000   0.240437   -0.176921
 0.510000   0.239555   -0.175806
 0.515000   0.238679   -0.174498
 0.520000   0.237810   -0.172965
 0.525000   0.236949   -0.171304
 0.530000   0.236097   -0.169554
 0.535000   0.235254   -0.167625
 0.540000   0.234421   -0.165486
 0.545000   0.233599   -0.163227
 0.550000   0.232789   -0.160898
 0.555000   0.231990   -0.158407
 0.560000   0.231205   -0.155706
 0.565000   0.230433   -0.152873
 0.570000   0.229676   -0.149964
 0.575000   0.228933   -0.146894
 0.580000   0.228207   -0.143602
 0.585000   0.227497   -0.140166
 0.590000   0.226805   -0.136633
 0.595000   0.226131   -0.132965
 0.600000   0.225476   -0.129121
 0.605000   0.224840   -0.125160
 0.610000   0.224224   -0.121117
 0.615000   0.223629   -0.116988
 0.620000   0.223054   -0.112754
 0.625000   0.222501   -0.108420
 0.630000   0.221970   -0.103990
 0.635000   0.221461   -0.099460
 0.640000   0.220975   -0.094809
 0.645000   0.220513   -0.090038
 0.650000   0.220075   -0.085137
 0.655000   0.219662   -0.080112
 0.660000   0.219274   -0.075008
 0.665000   0.218912   -0.069852
 0.670000   0.218575   -0.064665
 0.675000   0.218265   -0.059457
 0.680000   0.217981   -0.054099
 0.685000   0.217724   -0.048388
 0.690000   0.217497   -0.042182
 0.695000   0.217302   -0.035365
 0.700000   0.217143   -0.027895
 0.705000   0.217023   -0.019763
 0.710000   0.216946   -0.010781
 0.715000   0.216915   -0.001229
 0.720000   0.216933   0.008247
 0.725000   0.216998   0.017535
 0.730000   0.217109   0.026641
 0.735000   0.217264   0.035299
 0.740000   0.217462   0.043339
 0.745000   0.217698   0.050343
 0.750000   0.217965   0.055788
 0.755000   0.218255   0.059754
 0.760000   0.218563   0.062374
 0.765000   0.218879   0.063662
 0.770000   0.219199   0.063594
 0.775000   0.219515   0.062335
 0.780000   0.219822   0.060711
 0.785000   0.220122   0.059352
 0.790000   0.220416   0.058434
 0.795000   0.220707   0.058264
 0.800000   0.220999   0.059079
 0.805000   0.221297   0.061219
 0.810000   0.221611   0.065315
 0.815000   0.221951   0.071571
 0.820000   0.222327   0.079866
 0.825000   0.222749   0.090240
 0.830000   0.223229   0.102686
 0.835000   0.223776   0.117214
 0.840000   0.224401   0.133964
 0.845000   0.225116   0.153110
 0.850000   0.225932   0.174691
 0.855000   0.226863   0.198620
 0.860000   0.227918   0.224595
 0.865000   0.229109   0.252090
 0.870000   0.230439   0.280224
 0.875000   0.231911   0.307427
 0.880000   0.233514   0.331192
 0.885000   0.235223   0.347859
 0.890000   0.236992   0.352303
 0.895000   0.238746   0.337713
 0.900000   0.240369   0.295030
 0.905000   0.241696   0.213013
 0.910000   0.242499   0.078696
 0.915000   0.242483   -0.121788
 0.920000   0.241282   -0.400593
 0.925000   0.238477   -0.763294
 0.930000   0.233649   -1.203740
 0.935000   0.226440   -1.697595
 0.940000   0.216673   -2.197393
 0.945000   0.204466   -2.635233
 0.950000   0.190320   -2.935138
 0.955000   0.175114   -3.029079
 0.960000   0.160030   -2.904390
 0.965000   0.146071   -2.617833
 0.970000   0.133851   -2.262710
 0.975000   0.123443   -1.936140
 0.980000   0.114490   -1.692480
 0.985000   0.106519   -1.529321
 0.990000   0.099197   -1.412763
 0.995000   0.092391   -1.305843
 1.000000   0.086138   -1.195292
201 psinorm ti(KeV) dti/dpsiN
 0.000000   5.870196   0.003173
 0.005000   5.869266   -0.374995
 0.010000   5.866446   -0.757671
 0.015000   5.861690   -1.148861
 0.020000   5.854957   -1.547510
 0.025000   5.846215   -1.952464
 0.030000   5.835433   -2.362526
 0.035000   5.822589   -2.776510
 0.040000   5.807668   -3.193047
 0.045000   5.790659   -3.611092
 0.050000   5.771557   -4.029746
 0.055000   5.750361   -4.447782
 0.060000   5.727079   -4.863896
 0.065000   5.701722   -5.276485
 0.070000   5.674314   -5.682777
 0.075000   5.644895   -6.080869
 0.080000   5.613505   -6.470393
 0.085000   5.580191   -6.850388
 0.090000   5.545001   -7.219764
 0.095000   5.507993   -7.577587
 0.100000   5.469226   -7.922122
 0.105000   5.428772   -8.252862
 0.110000   5.386697   -8.570150
 0.115000   5.343070   -8.873111
 0.120000   5.297966   -9.161521
 0.125000   5.251455   -9.436113
 0.130000   5.203605   -9.698347
 0.135000   5.154472   -9.948460
 0.140000   5.104120   -10.183490
 0.145000   5.052637   -10.400660
 0.150000   5.000114   -10.599003
 0.155000   4.946647   -10.777775
 0.160000   4.892336   -10.935833
 0.165000   4.837288   -11.071481
 0.170000   4.781621   -11.184332
 0.175000   4.725445   -11.274516
 0.180000   4.668876   -11.341752
 0.185000   4.612028   -11.386336
 0.190000   4.555012   -11.407465
 0.195000   4.497953   -11.404924
 0.200000   4.440963   -11.384000
 0.205000   4.384113   -11.348706
 0.210000   4.327476   -11.299983
 0.215000   4.271113   -11.240500
 0.220000   4.215071   -11.172565
 0.225000   4.159387   -11.099564
 0.230000   4.104075   -11.023293
 0.235000   4.049154   -10.942704
 0.240000   3.994648   -10.857400
 0.245000   3.940580   -10.767309
 0.250000   3.886975   -10.672633
 0.255000   3.833854   -10.573674
 0.260000   3.781239   -10.461095
 0.265000   3.729243   -10.329547
 0.270000   3.677943   -10.183064
 0.275000   3.627413   -10.021925
 0.280000   3.577724   -9.846501
 0.285000   3.528948   -9.656286
 0.290000   3.481161   -9.450790
 0.295000   3.434440   -9.231641
 0.300000   3.388845   -9.000061
 0.305000   3.344439   -8.756042
 0.310000   3.301284   -8.500346
 0.315000   3.259436   -8.232222
 0.320000   3.218962   -7.965878
 0.325000   3.179777   -7.713055
 0.330000   3.141831   -7.470049
 0.335000   3.105076   -7.237054
 0.340000   3.069461   -7.014124
 0.345000   3.034935   -6.804047
 0.350000   3.001420   -6.605870
 0.355000   2.968876   -6.414929
 0.360000   2.937271   -6.230036
 0.365000   2.906576   -6.050313
 0.370000   2.876768   -5.874612
 0.375000   2.847830   -5.706204
 0.380000   2.819706   -5.538710
 0.385000   2.792443   -5.361652
 0.390000   2.766089   -5.175577
 0.395000   2.740687   -4.981471
 0.400000   2.716275   -4.780202
 0.405000   2.692885   -4.571289
 0.410000   2.670562   -4.355990
 0.415000   2.649325   -4.140942
 0.420000   2.629152   -3.931137
 0.425000   2.610014   -3.728304
 0.430000   2.591869   -3.534115
 0.435000   2.574673   -3.347010
 0.440000   2.558399   -3.168967
 0.445000   2.542983   -3.006038
 0.450000   2.528339   -2.857900
 0.455000   2.514404   -2.722502
 0.460000   2.501114   -2.599926
 0.465000   2.488405   -2.489149
 0.470000   2.476222   -2.391136
 0.475000   2.464493   -2.308574
 0.480000   2.453137   -2.240321
 0.485000   2.442090   -2.184168
 0.490000   2.431295   -2.139092
 0.495000   2.420699   -2.103498
 0.500000   2.410260   -2.074475
 0.505000   2.399954   -2.049565
 0.510000   2.389764   -2.028834
 0.515000   2.379666   -2.013151
 0.520000   2.369633   -2.003068
 0.525000   2.359635   -1.998993
 0.530000   2.349643   -2.001268
 0.535000   2.339623   -2.010075
 0.540000   2.329542   -2.025060
 0.545000   2.319372   -2.045739
 0.550000   2.309085   -2.071854
 0.555000   2.298654   -2.103246
 0.560000   2.288052   -2.140290
 0.565000   2.277251   -2.181937
 0.570000   2.266233   -2.227026
 0.575000   2.254980   -2.275601
 0.580000   2.243477   -2.327157
 0.585000   2.231709   -2.381183
 0.590000   2.219665   -2.437496
 0.595000   2.207334   -2.493219
 0.600000   2.194733   -2.546260
 0.605000   2.181871   -2.597663
 0.610000   2.168756   -2.647869
 0.615000   2.155393   -2.697340
 0.620000   2.141783   -2.746688
 0.625000   2.127926   -2.795456
 0.630000   2.113828   -2.842735
 0.635000   2.099498   -2.888242
 0.640000   2.084946   -2.931540
 0.645000   2.070183   -2.972170
 0.650000   2.055224   -3.010287
 0.655000   2.040080   -3.044952
 0.660000   2.024775   -3.075378
 0.665000   2.009326   -3.102506
 0.670000   1.993750   -3.126940
 0.675000   1.978057   -3.148996
 0.680000   1.962260   -3.170320
 0.685000   1.946354   -3.189644
 0.690000   1.930363   -3.203148
 0.695000   1.914322   -3.209327
 0.700000   1.898270   -3.207114
 0.705000   1.882251   -3.195667
 0.710000   1.866313   -3.174812
 0.715000   1.850503   -3.144307
 0.720000   1.834870   -3.104763
 0.725000   1.819455   -3.057531
 0.730000   1.804295   -3.003373
 0.735000   1.789422   -2.943050
 0.740000   1.774864   -2.876261
 0.745000   1.760659   -2.804064
 0.750000   1.746824   -2.730771
 0.755000   1.733351   -2.659531
 0.760000   1.720228   -2.591968
 0.765000   1.707432   -2.529780
 0.770000   1.694931   -2.474750
 0.775000   1.682684   -2.428415
 0.780000   1.670646   -2.387852
 0.785000   1.658806   -2.349356
 0.790000   1.647153   -2.312063
 0.795000   1.635685   -2.275213
 0.800000   1.624401   -2.239262
 0.805000   1.613292   -2.204620
 0.810000   1.602355   -2.170066
 0.815000   1.591592   -2.137205
 0.820000   1.580983   -2.109340
 0.825000   1.570498   -2.087855
 0.830000   1.560104   -2.074166
 0.835000   1.549757   -2.069695
 0.840000   1.539407   -2.073009
 0.845000   1.529027   -2.083563
 0.850000   1.518571   -2.103891
 0.855000   1.507988   -2.136361
 0.860000   1.497208   -2.184486
 0.865000   1.486143   -2.254962
 0.870000   1.474658   -2.348137
 0.875000   1.462661   -2.462155
 0.880000   1.450037   -2.600647
 0.885000   1.436655   -2.766919
 0.890000   1.422367   -2.966222
 0.895000   1.406993   -3.223486
 0.900000   1.390133   -3.545267
 0.905000   1.371540   -3.928213
 0.910000   1.350850   -4.388374
 0.915000   1.327656   -4.934244
 0.920000   1.301508   -5.573626
 0.925000   1.271920   -6.358021
 0.930000   1.237928   -7.247645
 0.935000   1.199444   -8.168980
 0.940000   1.156238   -9.120065
 0.945000   1.108243   -10.058392
 0.950000   1.055654   -10.926029
 0.955000   0.998983   -11.691450
 0.960000   0.938740   -12.250052
 0.965000   0.876482   -12.517259
 0.970000   0.813567   -12.517852
 0.975000   0.751304   -12.260200
 0.980000   0.690965   -11.760151
 0.985000   0.633702   -11.057306
 0.990000   0.580392   -10.182286
 0.995000   0.531879   -9.180695
 1.000000   0.488585   -8.137020
201 psinorm nb(10^20/m^3) dnb/dpsiN
 0.000000   0.095312   0.147706
 0.005000   0.095814   0.053046
 0.010000   0.095843   -0.028191
 0.015000   0.095532   -0.090008
 0.020000   0.094943   -0.142005
 0.025000   0.094112   -0.186796
 0.030000   0.093075   -0.225930
 0.035000   0.091853   -0.259053
 0.040000   0.090484   -0.286207
 0.045000   0.088991   -0.308493
 0.050000   0.087399   -0.325900
 0.055000   0.085732   -0.340251
 0.060000   0.083997   -0.351345
 0.065000   0.082218   -0.359346
 0.070000   0.080403   -0.364944
 0.075000   0.078569   -0.367999
 0.080000   0.076723   -0.369183
 0.085000   0.074877   -0.368461
 0.090000   0.073039   -0.366174
 0.095000   0.071215   -0.362252
 0.100000   0.069416   -0.357144
 0.105000   0.067644   -0.351356
 0.110000   0.065902   -0.344726
 0.115000   0.064197   -0.337249
 0.120000   0.062530   -0.329099
 0.125000   0.060906   -0.320216
 0.130000   0.059328   -0.310791
 0.135000   0.057798   -0.301257
 0.140000   0.056315   -0.291500
 0.145000   0.054883   -0.281579
 0.150000   0.053499   -0.271751
 0.155000   0.052165   -0.261984
 0.160000   0.050880   -0.252263
 0.165000   0.049643   -0.242652
 0.170000   0.048453   -0.233191
 0.175000   0.047311   -0.223913
 0.180000   0.046214   -0.214908
 0.185000   0.045162   -0.205829
 0.190000   0.044156   -0.196891
 0.195000   0.043193   -0.188509
 0.200000   0.042271   -0.180451
 0.205000   0.041388   -0.172707
 0.210000   0.040544   -0.165286
 0.215000   0.039735   -0.158186
 0.220000   0.038962   -0.151411
 0.225000   0.038221   -0.144970
 0.230000   0.037512   -0.138652
 0.235000   0.036835   -0.132296
 0.240000   0.036189   -0.126458
 0.245000   0.035570   -0.121276
 0.250000   0.034976   -0.116383
 0.255000   0.034406   -0.111768
 0.260000   0.033859   -0.107419
 0.265000   0.033332   -0.102898
 0.270000   0.032830   -0.098614
 0.275000   0.032346   -0.095018
 0.280000   0.031879   -0.091690
 0.285000   0.031429   -0.088591
 0.290000   0.030993   -0.085549
 0.295000   0.030573   -0.082481
 0.300000   0.030169   -0.079794
 0.305000   0.029776   -0.077531
 0.310000   0.029393   -0.075419
 0.315000   0.029021   -0.073335
 0.320000   0.028660   -0.071234
 0.325000   0.028309   -0.069428
 0.330000   0.027966   -0.067942
 0.335000   0.027630   -0.066564
 0.340000   0.027300   -0.065120
 0.345000   0.026978   -0.063720
 0.350000   0.026663   -0.062589
 0.355000   0.026353   -0.061595
 0.360000   0.026047   -0.060625
 0.365000   0.025746   -0.059599
 0.370000   0.025451   -0.058691
 0.375000   0.025159   -0.057966
 0.380000   0.024871   -0.057279
 0.385000   0.024587   -0.056511
 0.390000   0.024306   -0.055771
 0.395000   0.024029   -0.055186
 0.400000   0.023754   -0.054642
 0.405000   0.023482   -0.054039
 0.410000   0.023214   -0.053423
 0.415000   0.022948   -0.052904
 0.420000   0.022685   -0.052426
 0.425000   0.022424   -0.051891
 0.430000   0.022166   -0.051311
 0.435000   0.021911   -0.050796
 0.440000   0.021658   -0.050331
 0.445000   0.021408   -0.049814
 0.450000   0.021160   -0.049239
 0.455000   0.020915   -0.048721
 0.460000   0.020673   -0.048264
 0.465000   0.020432   -0.047759
 0.470000   0.020195   -0.047190
 0.475000   0.019961   -0.046672
 0.480000   0.019728   -0.046220
 0.485000   0.019498   -0.045727
 0.490000   0.019271   -0.045170
 0.495000   0.019047   -0.044659
 0.500000   0.018824   -0.044217
 0.505000   0.018605   -0.043739
 0.510000   0.018387   -0.043195
 0.515000   0.018173   -0.042692
 0.520000   0.017960   -0.042262
 0.525000   0.017750   -0.041806
 0.530000   0.017542   -0.041285
 0.535000   0.017337   -0.040803
 0.540000   0.017134   -0.040401
 0.545000   0.016933   -0.039989
 0.550000   0.016734   -0.039518
 0.555000   0.016538   -0.039080
 0.560000   0.016343   -0.038727
 0.565000   0.016151   -0.038378
 0.570000   0.015960   -0.037975
 0.575000   0.015771   -0.037599
 0.580000   0.015584   -0.037308
 0.585000   0.015398   -0.037028
 0.590000   0.015213   -0.036717
 0.595000   0.015031   -0.036424
 0.600000   0.014849   -0.036199
 0.605000   0.014669   -0.035996
 0.610000   0.014489   -0.035794
 0.615000   0.014311   -0.035607
 0.620000   0.014133   -0.035466
 0.625000   0.013956   -0.035361
 0.630000   0.013779   -0.035273
 0.635000   0.013603   -0.035204
 0.640000   0.013427   -0.035170
 0.645000   0.013252   -0.035169
 0.650000   0.013076   -0.035186
 0.655000   0.012900   -0.035235
 0.660000   0.012723   -0.035317
 0.665000   0.012547   -0.035416
 0.670000   0.012369   -0.035527
 0.675000   0.012191   -0.035654
 0.680000   0.012013   -0.035823
 0.685000   0.011833   -0.036014
 0.690000   0.011653   -0.036194
 0.695000   0.011471   -0.036386
 0.700000   0.011289   -0.036597
 0.705000   0.011105   -0.036861
 0.710000   0.010920   -0.037140
 0.715000   0.010734   -0.037397
 0.720000   0.010546   -0.037665
 0.725000   0.010357   -0.037943
 0.730000   0.010167   -0.038277
 0.735000   0.009974   -0.038624
 0.740000   0.009780   -0.038936
 0.745000   0.009585   -0.039252
 0.750000   0.009388   -0.039571
 0.755000   0.009189   -0.039913
 0.760000   0.008989   -0.040272
 0.765000   0.008787   -0.040601
 0.770000   0.008583   -0.040901
 0.775000   0.008378   -0.041194
 0.780000   0.008171   -0.041479
 0.785000   0.007963   -0.041773
 0.790000   0.007753   -0.042068
 0.795000   0.007542   -0.042331
 0.800000   0.007330   -0.042566
 0.805000   0.007116   -0.042789
 0.810000   0.006902   -0.043001
 0.815000   0.006686   -0.043193
 0.820000   0.006470   -0.043369
 0.825000   0.006253   -0.043517
 0.830000   0.006035   -0.043617
 0.835000   0.005817   -0.043674
 0.840000   0.005598   -0.043691
 0.845000   0.005380   -0.043665
 0.850000   0.005161   -0.043587
 0.855000   0.004944   -0.043442
 0.860000   0.004727   -0.043212
 0.865000   0.004512   -0.042957
 0.870000   0.004297   -0.042716
 0.875000   0.004084   -0.042458
 0.880000   0.003873   -0.042165
 0.885000   0.003663   -0.041821
 0.890000   0.003455   -0.041407
 0.895000   0.003249   -0.040907
 0.900000   0.003046   -0.040315
 0.905000   0.002846   -0.039638
 0.910000   0.002649   -0.038897
 0.915000   0.002457   -0.038095
 0.920000   0.002268   -0.037228
 0.925000   0.002084   -0.036363
 0.930000   0.001905   -0.035636
 0.935000   0.001728   -0.035141
 0.940000   0.001553   -0.034886
 0.945000   0.001379   -0.034745
 0.950000   0.001206   -0.034389
 0.955000   0.001035   -0.033316
 0.960000   0.000873   -0.031147
 0.965000   0.000724   -0.027924
 0.970000   0.000593   -0.024047
 0.975000   0.000483   -0.019938
 0.980000   0.000394   -0.016381
 0.985000   0.000320   -0.014055
 0.990000   0.000253   -0.012747
 0.995000   0.000192   -0.012554
 1.000000   0.000128   -0.013099
201 psinorm pb(KPa) dpb/dpsiN
 0.000000   39.438930   36.314572
 0.005000   39.532374   1.063171
 0.010000   39.449562   -30.091887
 0.015000   39.231456   -54.535454
 0.020000   38.904207   -74.815259
 0.025000   38.483303   -92.127298
 0.030000   37.982934   -107.088266
 0.035000   37.412420   -119.591096
 0.040000   36.787023   -129.631375
 0.045000   36.116107   -137.684303
 0.050000   35.410180   -143.792782
 0.055000   34.678179   -148.678722
 0.060000   33.923393   -152.298326
 0.065000   33.155195   -154.706447
 0.070000   32.376329   -156.187792
 0.075000   31.593318   -156.713367
 0.080000   30.809195   -156.515931
 0.085000   30.028158   -155.593074
 0.090000   29.253264   -154.092201
 0.095000   28.487236   -151.965183
 0.100000   27.733612   -149.415249
 0.105000   26.993084   -146.686311
 0.110000   26.266749   -143.654986
 0.115000   25.556534   -140.269268
 0.120000   24.864057   -136.626794
 0.125000   24.190266   -132.719589
 0.130000   23.536861   -128.621011
 0.135000   22.904056   -124.499288
 0.140000   22.291868   -120.258925
 0.145000   21.701467   -115.965769
 0.150000   21.132210   -111.796021
 0.155000   20.583506   -107.698904
 0.160000   20.055221   -103.639204
 0.165000   19.547114   -99.636691
 0.170000   19.058854   -95.707996
 0.175000   18.590034   -91.869178
 0.180000   18.140162   -88.166328
 0.185000   17.708371   -84.449388
 0.190000   17.295669   -80.783477
 0.195000   16.900536   -77.342948
 0.200000   16.522239   -74.041046
 0.205000   16.160126   -70.872449
 0.210000   15.813515   -67.840187
 0.215000   15.481724   -64.943469
 0.220000   15.164080   -62.185155
 0.225000   14.859872   -59.572588
 0.230000   14.568354   -57.018611
 0.235000   14.289686   -54.450526
 0.240000   14.023849   -52.084952
 0.245000   13.768837   -49.980142
 0.250000   13.524047   -47.993231
 0.255000   13.288905   -46.119031
 0.260000   13.062857   -44.352956
 0.265000   12.845375   -42.526503
 0.270000   12.637592   -40.795256
 0.275000   12.437422   -39.331052
 0.280000   12.244281   -37.972127
 0.285000   12.057701   -36.707185
 0.290000   11.877210   -35.469393
 0.295000   11.703007   -34.225001
 0.300000   11.534960   -33.128491
 0.305000   11.371722   -32.197327
 0.310000   11.212986   -31.326332
 0.315000   11.058459   -30.469030
 0.320000   10.908296   -29.609649
 0.325000   10.762363   -28.865898
 0.330000   10.619637   -28.247086
 0.335000   10.479892   -27.671474
 0.340000   10.342922   -27.073059
 0.345000   10.209161   -26.493569
 0.350000   10.077987   -26.016729
 0.355000   9.948994   -25.593158
 0.360000   9.822055   -25.180125
 0.365000   9.697193   -24.748632
 0.370000   9.574569   -24.362014
 0.375000   9.453572   -24.044269
 0.380000   9.334126   -23.741535
 0.385000   9.216157   -23.410575
 0.390000   9.100020   -23.087860
 0.395000   8.985278   -22.821657
 0.400000   8.871804   -22.574622
 0.405000   8.759532   -22.309597
 0.410000   8.648708   -22.040962
 0.415000   8.539123   -21.806961
 0.420000   8.430638   -21.587946
 0.425000   8.323243   -21.348545
 0.430000   8.217153   -21.092875
 0.435000   8.112314   -20.860539
 0.440000   8.008547   -20.646791
 0.445000   7.905846   -20.414811
 0.450000   7.804399   -20.164396
 0.455000   7.704202   -19.937836
 0.460000   7.605021   -19.735144
 0.465000   7.506851   -19.514453
 0.470000   7.409876   -19.271182
 0.475000   7.314139   -19.047203
 0.480000   7.219404   -18.847516
 0.485000   7.125664   -18.634733
 0.490000   7.033057   -18.401780
 0.495000   6.941646   -18.185625
 0.500000   6.851201   -17.993071
 0.505000   6.761716   -17.789154
 0.510000   6.673309   -17.563383
 0.515000   6.586082   -17.351007
 0.520000   6.499799   -17.161950
 0.525000   6.414462   -16.962336
 0.530000   6.330176   -16.742192
 0.535000   6.247040   -16.537010
 0.540000   6.164806   -16.358452
 0.545000   6.083456   -16.177680
 0.550000   6.003029   -15.975437
 0.555000   5.923701   -15.783703
 0.560000   5.845192   -15.621503
 0.565000   5.767486   -15.460406
 0.570000   5.690588   -15.280263
 0.575000   5.614684   -15.110237
 0.580000   5.539485   -14.970145
 0.585000   5.464982   -14.832104
 0.590000   5.391164   -14.680176
 0.595000   5.318181   -14.534074
 0.600000   5.245824   -14.414716
 0.605000   5.174033   -14.304035
 0.610000   5.102783   -14.191329
 0.615000   5.032120   -14.079987
 0.620000   4.961983   -13.985061
 0.625000   4.892269   -13.904120
 0.630000   4.822942   -13.829579
 0.635000   4.753974   -13.760611
 0.640000   4.685336   -13.704431
 0.645000   4.616929   -13.661148
 0.650000   4.548725   -13.623892
 0.655000   4.480690   -13.597567
 0.660000   4.412749   -13.582824
 0.665000   4.344862   -13.574026
 0.670000   4.277009   -13.569946
 0.675000   4.209163   -13.570583
 0.680000   4.141303   -13.583925
 0.685000   4.073324   -13.603254
 0.690000   4.005270   -13.619706
 0.695000   3.937126   -13.640119
 0.700000   3.868869   -13.666963
 0.705000   3.800457   -13.711274
 0.710000   3.731756   -13.761480
 0.715000   3.662842   -13.806313
 0.720000   3.593693   -13.855207
 0.725000   3.524290   -13.908002
 0.730000   3.454613   -13.979528
 0.735000   3.384495   -14.055875
 0.740000   3.314054   -14.120824
 0.745000   3.243286   -14.187066
 0.750000   3.172184   -14.254305
 0.755000   3.100743   -14.328323
 0.760000   3.028901   -14.406500
 0.765000   2.956678   -14.472931
 0.770000   2.884171   -14.528571
 0.775000   2.811393   -14.581482
 0.780000   2.738356   -14.631373
 0.785000   2.665079   -14.683035
 0.790000   2.591526   -14.734630
 0.795000   2.517733   -14.776327
 0.800000   2.443763   -14.809003
 0.805000   2.369643   -14.837097
 0.810000   2.295392   -14.860893
 0.815000   2.221034   -14.877023
 0.820000   2.146622   -14.884869
 0.825000   2.072185   -14.882119
 0.830000   1.997800   -14.863927
 0.835000   1.923546   -14.830754
 0.840000   1.849493   -14.783689
 0.845000   1.775709   -14.722438
 0.850000   1.702268   -14.644003
 0.855000   1.629269   -14.543635
 0.860000   1.556832   -14.413215
 0.865000   1.485137   -14.269361
 0.870000   1.414139   -14.123823
 0.875000   1.343898   -13.963933
 0.880000   1.274499   -13.785113
 0.885000   1.206047   -13.582550
 0.890000   1.138674   -13.351053
 0.895000   1.072537   -13.085733
 0.900000   1.007816   -12.784631
 0.905000   0.944690   -12.450307
 0.910000   0.883313   -12.089592
 0.915000   0.823795   -11.708168
 0.920000   0.766232   -11.309583
 0.925000   0.710699   -10.922979
 0.930000   0.657002   -10.610182
 0.935000   0.604597   -10.426511
 0.940000   0.552737   -10.406852
 0.945000   0.500528   -10.550023
 0.950000   0.447236   -10.790562
 0.955000   0.392623   -10.979077
 0.960000   0.337446   -10.935772
 0.965000   0.283265   -10.543412
 0.970000   0.232012   -9.778433
 0.975000   0.185481   -8.676994
 0.980000   0.145242   -7.414479
 0.985000   0.111336   -6.186295
 0.990000   0.083379   -5.018292
 0.995000   0.061153   -4.191663
 1.000000   0.041462   -3.684703
201 psinorm ptot(KPa) dptot/dpsiN
 0.000000   103.809680   -87.215422
 0.005000   103.305652   -114.395781
 0.010000   102.665722   -138.756873
 0.015000   101.918083   -158.264266
 0.020000   101.083079   -174.565924
 0.025000   100.172424   -188.612910
 0.030000   99.196950   -200.876074
 0.035000   98.163663   -211.279240
 0.040000   97.084158   -219.809618
 0.045000   95.965567   -226.835167
 0.050000   94.815806   -232.395074
 0.055000   93.641616   -237.035816
 0.060000   92.445448   -240.724099
 0.065000   91.234375   -243.490397
 0.070000   90.010544   -245.539544
 0.075000   88.778980   -246.843329
 0.080000   87.542111   -247.568215
 0.085000   86.303297   -247.707193
 0.090000   85.065039   -247.368063
 0.095000   83.829617   -246.500736
 0.100000   82.600031   -245.256703
 0.105000   81.377050   -243.829525
 0.110000   80.161736   -242.109088
 0.115000   78.955959   -240.036540
 0.120000   77.761371   -237.690666
 0.125000   76.579052   -235.069255
 0.130000   75.410678   -232.234374
 0.135000   74.256708   -229.317353
 0.140000   73.117504   -226.215798
 0.145000   71.994550   -222.975677
 0.150000   70.887748   -219.746795
 0.155000   69.797082   -216.476949
 0.160000   68.722978   -213.126256
 0.165000   67.665820   -209.700988
 0.170000   66.625968   -206.212846
 0.175000   65.603691   -202.676537
 0.180000   64.599203   -199.130903
 0.185000   63.612382   -195.453900
 0.190000   62.644664   -191.691788
 0.195000   61.695465   -187.988961
 0.200000   60.764774   -184.303780
 0.205000   59.852427   -180.652996
 0.210000   58.958244   -177.045248
 0.215000   58.081974   -173.494429
 0.220000   57.223300   -170.015822
 0.225000   56.381816   -166.633770
 0.230000   55.556962   -163.284549
 0.235000   54.748971   -159.901446
 0.240000   53.957948   -156.664217
 0.245000   53.182328   -153.623936
 0.250000   52.421709   -150.664120
 0.255000   51.675687   -147.782659
 0.260000   50.943882   -144.933303
 0.265000   50.226354   -141.949894
 0.270000   49.524383   -138.984010
 0.275000   48.836514   -136.183930
 0.280000   48.162544   -133.416774
 0.285000   47.502346   -130.672599
 0.290000   46.855818   -127.893603
 0.295000   46.223410   -125.059145
 0.300000   45.605226   -122.307852
 0.305000   45.000332   -119.656094
 0.310000   44.408665   -117.018278
 0.315000   43.830149   -114.351948
 0.320000   43.265146   -111.709039
 0.325000   42.713059   -109.244678
 0.330000   42.172699   -106.949505
 0.335000   41.643564   -104.753068
 0.340000   41.125168   -102.597414
 0.345000   40.617589   -100.530658
 0.350000   40.119862   -98.620722
 0.355000   39.631382   -96.803430
 0.360000   39.151828   -95.036231
 0.365000   38.681020   -93.289629
 0.370000   38.218931   -91.613619
 0.375000   37.764884   -90.043593
 0.380000   37.318495   -88.503758
 0.385000   36.879846   -86.909335
 0.390000   36.449402   -85.294340
 0.395000   36.026903   -83.705811
 0.400000   35.612344   -82.115398
 0.405000   35.205749   -80.487910
 0.410000   34.807465   -78.841059
 0.415000   34.417338   -77.237167
 0.420000   34.035093   -75.680227
 0.425000   33.660536   -74.145842
 0.430000   33.293635   -72.644072
 0.435000   32.934095   -71.202387
 0.440000   32.581611   -69.824790
 0.445000   32.235847   -68.504505
 0.450000   31.896566   -67.239318
 0.455000   31.563454   -66.057244
 0.460000   31.235993   -64.957862
 0.465000   30.913875   -63.898770
 0.470000   30.597006   -62.879486
 0.475000   30.285081   -61.947329
 0.480000   29.977532   -61.100289
 0.485000   29.674078   -60.294760
 0.490000   29.374585   -59.519159
 0.495000   29.078886   -58.798681
 0.500000   28.786598   -58.126475
 0.505000   28.497621   -57.460919
 0.510000   28.211989   -56.792670
 0.515000   27.929695   -56.156180
 0.520000   27.650427   -55.562176
 0.525000   27.374073   -54.981909
 0.530000   27.100608   -54.407923
 0.535000   26.829994   -53.872670
 0.540000   26.561881   -53.384915
 0.545000   26.296145   -52.916986
 0.550000   26.032711   -52.450223
 0.555000   25.771642   -52.012351
 0.560000   25.512588   -51.621886
 0.565000   25.255423   -51.249038
 0.570000   25.000097   -50.870956
 0.575000   24.746714   -50.513897
 0.580000   24.494958   -50.193485
 0.585000   24.244779   -49.882652
 0.590000   23.996132   -49.566390
 0.595000   23.749115   -49.251939
 0.600000   23.503613   -48.950851
 0.605000   23.259607   -48.651304
 0.610000   23.017100   -48.345593
 0.615000   22.776151   -48.038910
 0.620000   22.536710   -47.747980
 0.625000   22.298671   -47.469008
 0.630000   22.062020   -47.191333
 0.635000   21.826758   -46.913058
 0.640000   21.592890   -46.639303
 0.645000   21.360365   -46.368668
 0.650000   21.129203   -46.094845
 0.655000   20.899416   -45.819526
 0.660000   20.671008   -45.541828
 0.665000   20.443998   -45.260602
 0.670000   20.218402   -44.977542
 0.675000   19.994222   -44.694167
 0.680000   19.771460   -44.421045
 0.685000   19.550012   -44.141738
 0.690000   19.330043   -43.829891
 0.695000   19.111713   -43.484098
 0.700000   18.895202   -43.102267
 0.705000   18.680690   -42.692336
 0.710000   18.468278   -42.238053
 0.715000   18.258310   -41.734723
 0.720000   18.050931   -41.209731
 0.725000   17.846213   -40.670156
 0.730000   17.644230   -40.132500
 0.735000   17.444888   -39.591342
 0.740000   17.248316   -39.032449
 0.745000   17.054563   -38.480583
 0.750000   16.863510   -37.961815
 0.755000   16.674945   -37.489531
 0.760000   16.488615   -37.061940
 0.765000   16.304325   -36.667187
 0.770000   16.121943   -36.311196
 0.775000   15.941213   -36.001664
 0.780000   15.761927   -35.706714
 0.785000   15.584146   -35.401235
 0.790000   15.407914   -35.074433
 0.795000   15.233402   -34.704955
 0.800000   15.060865   -34.288090
 0.805000   14.890521   -33.820118
 0.810000   14.722663   -33.280879
 0.815000   14.557712   -32.666482
 0.820000   14.395999   -31.988942
 0.825000   14.237823   -31.248018
 0.830000   14.083518   -30.442354
 0.835000   13.933399   -29.576029
 0.840000   13.787758   -28.641257
 0.845000   13.646987   -27.633242
 0.850000   13.511426   -26.561533
 0.855000   13.381371   -25.439885
 0.860000   13.257027   -24.293072
 0.865000   13.138441   -23.195322
 0.870000   13.025074   -22.210088
 0.875000   12.916340   -21.397234
 0.880000   12.811101   -20.884801
 0.885000   12.707492   -20.849164
 0.890000   12.602610   -21.537192
 0.895000   12.492120   -23.350835
 0.900000   12.369101   -26.713862
 0.905000   12.224981   -32.105319
 0.910000   12.048048   -40.156180
 0.915000   11.823420   -51.488408
 0.920000   11.533164   -66.629528
 0.925000   11.157124   -86.023883
 0.930000   10.672925   -109.266898
 0.935000   10.064455   -135.047642
 0.940000   9.322449   -161.374712
 0.945000   8.450708   -185.172272
 0.950000   7.470726   -202.756756
 0.955000   6.423141   -210.620528
 0.960000   5.364521   -206.459904
 0.965000   4.358542   -190.373114
 0.970000   3.460790   -165.135612
 0.975000   2.707185   -135.276301
 0.980000   2.108027   -105.724477
 0.985000   1.649941   -80.117566
 0.990000   1.306851   -59.838320
 0.995000   1.051557   -44.846941
 1.000000   0.858382   -32.423405
201 psinorm omeg(kRad/s) domeg/dpsiN
 0.000000   62.606743   0.039881
 0.005000   62.606218   -0.249764
 0.010000   62.604245   -0.606971
 0.015000   62.600148   -1.115307
 0.020000   62.593092   -1.803312
 0.025000   62.582115   -2.693698
 0.030000   62.566155   -3.802817
 0.035000   62.544087   -5.138007
 0.040000   62.514775   -6.684049
 0.045000   62.477247   -8.420630
 0.050000   62.430569   -10.329862
 0.055000   62.373948   -12.380223
 0.060000   62.306767   -14.534755
 0.065000   62.228600   -16.752626
 0.070000   62.139240   -18.937262
 0.075000   62.039228   -21.080575
 0.080000   61.928435   -23.244807
 0.085000   61.806780   -25.421428
 0.090000   61.674220   -27.616899
 0.095000   61.530611   -29.850744
 0.100000   61.375713   -32.098753
 0.105000   61.209623   -34.367832
 0.110000   61.032035   -36.675816
 0.115000   60.842865   -38.985071
 0.120000   60.642184   -41.289898
 0.125000   60.429966   -43.616406
 0.130000   60.206020   -45.989657
 0.135000   59.970070   -48.434948
 0.140000   59.721670   -50.933587
 0.145000   59.460734   -53.430644
 0.150000   59.187364   -55.903645
 0.155000   58.901697   -58.348187
 0.160000   58.603882   -60.746322
 0.165000   58.294234   -63.073878
 0.170000   57.973143   -65.324605
 0.175000   57.640988   -67.480099
 0.180000   57.298342   -69.517687
 0.185000   56.945811   -71.433414
 0.190000   56.584008   -73.207074
 0.195000   56.213740   -74.829848
 0.200000   55.835710   -76.340691
 0.205000   55.450333   -77.706813
 0.210000   55.058641   -78.847344
 0.215000   54.661860   -79.729119
 0.220000   54.261350   -80.300135
 0.225000   53.858859   -80.497000
 0.230000   53.456380   -80.468208
 0.235000   53.054177   -80.320765
 0.240000   52.653173   -80.004915
 0.245000   52.254127   -79.551995
 0.250000   51.857653   -78.966767
 0.255000   51.464460   -78.175340
 0.260000   51.075899   -77.277121
 0.265000   50.691689   -76.353319
 0.270000   50.312366   -75.341334
 0.275000   49.938275   -74.279560
 0.280000   49.569570   -73.198984
 0.285000   49.206285   -72.104726
 0.290000   48.848523   -71.120760
 0.295000   48.495078   -70.293462
 0.300000   48.145589   -69.516992
 0.305000   47.799908   -68.742823
 0.310000   47.458160   -67.911988
 0.315000   47.120788   -66.955501
 0.320000   46.788605   -65.860072
 0.325000   46.462187   -64.653117
 0.330000   46.142074   -63.342332
 0.335000   45.828764   -61.937044
 0.340000   45.522704   -60.447855
 0.345000   45.224285   -58.854635
 0.350000   44.934157   -57.198463
 0.355000   44.652301   -55.532695
 0.360000   44.378830   -53.845125
 0.365000   44.113850   -52.142260
 0.370000   43.857408   -50.434223
 0.375000   43.609507   -48.716146
 0.380000   43.370246   -47.006746
 0.385000   43.139440   -45.313389
 0.390000   42.917112   -43.607801
 0.395000   42.703362   -41.884043
 0.400000   42.498272   -40.147044
 0.405000   42.301891   -38.391875
 0.410000   42.114353   -36.665334
 0.415000   41.935238   -35.062227
 0.420000   41.763731   -33.628758
 0.425000   41.598950   -32.368659
 0.430000   41.440044   -31.265383
 0.435000   41.286297   -30.345644
 0.440000   41.136588   -29.566003
 0.445000   40.990637   -28.752293
 0.450000   40.849065   -27.831010
 0.455000   40.712326   -26.800686
 0.460000   40.581058   -25.629074
 0.465000   40.456036   -24.331821
 0.470000   40.337740   -22.879986
 0.475000   40.227236   -21.179752
 0.480000   40.125942   -19.262386
 0.485000   40.034612   -17.215065
 0.490000   39.953792   -15.083389
 0.495000   39.883778   -12.922543
 0.500000   39.824566   -10.781867
 0.505000   39.775959   -8.720885
 0.510000   39.737358   -6.818792
 0.515000   39.707772   -5.133832
 0.520000   39.686019   -3.695099
 0.525000   39.670821   -2.515225
 0.530000   39.660867   -1.597176
 0.535000   39.654849   -0.940452
 0.540000   39.651462   -0.546339
 0.545000   39.649385   -0.422264
 0.550000   39.647240   -0.582024
 0.555000   39.643565   -1.045348
 0.560000   39.636786   -1.841609
 0.565000   39.625149   -3.002057
 0.570000   39.606766   -4.558725
 0.575000   39.579562   -6.548080
 0.580000   39.541285   -9.004684
 0.585000   39.489515   -11.960846
 0.590000   39.421676   -15.458223
 0.595000   39.334933   -19.437788
 0.600000   39.227299   -23.798357
 0.605000   39.096949   -28.487585
 0.610000   38.942423   -33.432481
 0.615000   38.762624   -38.562286
 0.620000   38.556800   -43.758572
 0.625000   38.325039   -48.947601
 0.630000   38.067324   -54.091963
 0.635000   37.784119   -59.108606
 0.640000   37.476238   -63.934319
 0.645000   37.144776   -68.518983
 0.650000   36.791048   -72.731970
 0.655000   36.417456   -76.640631
 0.660000   36.024642   -80.402469
 0.665000   35.613431   -84.029643
 0.670000   35.184345   -87.601086
 0.675000   34.737421   -91.210225
 0.680000   34.272243   -95.036038
 0.685000   33.787060   -99.150449
 0.690000   33.280738   -103.305943
 0.695000   32.754001   -107.198024
 0.700000   32.208758   -110.606192
 0.705000   31.647939   -113.360564
 0.710000   31.075153   -115.434846
 0.715000   30.493590   -116.769753
 0.720000   29.907455   -117.267859
 0.725000   29.320912   -116.958690
 0.730000   28.737868   -115.869812
 0.735000   28.162214   -114.014886
 0.740000   27.597719   -111.399263
 0.745000   27.048221   -108.068398
 0.750000   26.517035   -104.238510
 0.755000   26.005836   -100.186664
 0.760000   25.515169   -96.101924
 0.765000   25.044817   -92.097446
 0.770000   24.594194   -88.300764
 0.775000   24.161809   -84.748788
 0.780000   23.746706   -81.075124
 0.785000   23.351058   -77.010374
 0.790000   22.976603   -72.605626
 0.795000   22.625002   -67.924425
 0.800000   22.297358   -63.156230
 0.805000   21.993439   -58.511526
 0.810000   21.712243   -54.144159
 0.815000   21.451998   -50.373816
 0.820000   21.208505   -47.564258
 0.825000   20.976355   -45.932687
 0.830000   20.749178   -45.643846
 0.835000   20.519917   -46.786456
 0.840000   20.281314   -49.356038
 0.845000   20.026356   -53.298070
 0.850000   19.748333   -58.543431
 0.855000   19.440922   -65.029219
 0.860000   19.098041   -72.768932
 0.865000   18.713233   -82.017555
 0.870000   18.277865   -92.898453
 0.875000   17.784248   -105.294331
 0.880000   17.224922   -119.106677
 0.885000   16.593181   -134.114267
 0.890000   15.883779   -149.951811
 0.895000   15.093663   -166.726302
 0.900000   14.216516   -183.079199
 0.905000   13.262871   -197.352258
 0.910000   12.242993   -209.028069
 0.915000   11.172591   -217.030411
 0.920000   10.072689   -220.372838
 0.925000   8.968862   -218.686807
 0.930000   7.885821   -210.816995
 0.935000   6.860692   -196.257179
 0.940000   5.923250   -176.422498
 0.945000   5.096467   -152.953294
 0.950000   4.393717   -127.919899
 0.955000   3.817268   -103.237552
 0.960000   3.361341   -80.959840
 0.965000   3.007670   -62.706215
 0.970000   2.734279   -48.823665
 0.975000   2.519433   -39.029038
 0.980000   2.343989   -32.638307
 0.985000   2.193050   -28.603693
 0.990000   2.057952   -26.120177
 0.995000   1.931848   -24.636157
 1.000000   1.811590   -23.467157
201 psinorm omegp(kRad/s) domegp/dpsiN
 0.000000   0.008022   67.728775
 0.005000   0.281407   41.625252
 0.010000   0.424275   27.233747
 0.015000   0.553745   25.257695
 0.020000   0.676852   24.215401
 0.025000   0.795899   23.159232
 0.030000   0.908444   21.695243
 0.035000   1.012851   20.352385
 0.040000   1.111968   19.263096
 0.045000   1.205482   18.283360
 0.050000   1.294802   17.700916
 0.055000   1.382491   17.696634
 0.060000   1.471768   18.252686
 0.065000   1.565018   19.081480
 0.070000   1.662583   20.080139
 0.075000   1.765820   21.176900
 0.080000   1.874352   22.153069
 0.085000   1.987350   23.029547
 0.090000   2.104647   23.580607
 0.095000   2.223156   23.674693
 0.100000   2.341394   23.439209
 0.105000   2.457549   22.934734
 0.110000   2.570741   22.147354
 0.115000   2.679022   21.050145
 0.120000   2.781243   19.780037
 0.125000   2.876822   18.650409
 0.130000   2.967747   17.662929
 0.135000   3.053452   16.780723
 0.140000   3.135554   16.104314
 0.145000   3.214495   15.579537
 0.150000   3.291350   15.060348
 0.155000   3.365098   14.490350
 0.160000   3.436253   13.886675
 0.165000   3.503965   13.220360
 0.170000   3.568457   12.511974
 0.175000   3.629085   11.654973
 0.180000   3.685006   10.767956
 0.185000   3.736764   9.782335
 0.190000   3.782830   8.762795
 0.195000   3.824392   7.770600
 0.200000   3.860536   6.737082
 0.205000   3.891763   5.786516
 0.210000   3.918401   4.974289
 0.215000   3.941506   4.463286
 0.220000   3.963034   4.074081
 0.225000   3.982247   3.682807
 0.230000   3.999862   3.394176
 0.235000   4.016189   3.093404
 0.240000   4.030796   2.752282
 0.245000   4.043711   2.327889
 0.250000   4.054075   1.761648
 0.255000   4.061328   1.212357
 0.260000   4.066198   0.604188
 0.265000   4.067370   -0.168735
 0.270000   4.064511   -0.893873
 0.275000   4.058431   -1.647847
 0.280000   4.048033   -2.465066
 0.285000   4.033780   -3.182864
 0.290000   4.016204   -3.967752
 0.295000   3.994103   -4.778373
 0.300000   3.968420   -5.515549
 0.305000   3.938947   -6.350546
 0.310000   3.904915   -7.215597
 0.315000   3.866791   -8.067189
 0.320000   3.824243   -9.038803
 0.325000   3.776403   -10.054488
 0.330000   3.723698   -11.056200
 0.335000   3.665841   -12.111027
 0.340000   3.602588   -13.126619
 0.345000   3.534575   -14.052837
 0.350000   3.462059   -14.933619
 0.355000   3.385239   -15.762252
 0.360000   3.304437   -16.557711
 0.365000   3.219662   -17.446885
 0.370000   3.129968   -18.454554
 0.375000   3.035116   -19.533942
 0.380000   2.934629   -20.859934
 0.385000   2.826517   -22.444391
 0.390000   2.710185   -24.133870
 0.395000   2.585178   -25.949448
 0.400000   2.450690   -27.895527
 0.405000   2.306223   -29.803329
 0.410000   2.152657   -31.738388
 0.415000   1.988839   -34.044095
 0.420000   1.812216   -37.045601
 0.425000   1.618383   -41.027772
 0.430000   1.401938   -46.189348
 0.435000   1.156490   -52.742379
 0.440000   0.874514   -61.157656
 0.445000   0.544913   -70.652446
 0.450000   0.167990   -80.393722
 0.455000   -0.259024   -90.490296
 0.460000   -0.736913   -100.449069
 0.465000   -1.263515   -109.746412
 0.470000   -1.834377   -117.314557
 0.475000   -2.436660   -121.866739
 0.480000   -3.053045   -122.985937
 0.485000   -3.666520   -120.715621
 0.490000   -4.260201   -115.261346
 0.495000   -4.819133   -106.303214
 0.500000   -5.323233   -94.428918
 0.505000   -5.763422   -82.259002
 0.510000   -6.145823   -71.023483
 0.515000   -6.473657   -60.714209
 0.520000   -6.752965   -51.895849
 0.525000   -6.992616   -44.950239
 0.530000   -7.202467   -40.538784
 0.535000   -7.398003   -38.450970
 0.540000   -7.586977   -37.590371
 0.545000   -7.773907   -37.328866
 0.550000   -7.960266   -37.278852
 0.555000   -8.146696   -37.543873
 0.560000   -8.335704   -37.845047
 0.565000   -8.525146   -37.522583
 0.570000   -8.710930   -36.485807
 0.575000   -8.890004   -34.861385
 0.580000   -9.059544   -32.526309
 0.585000   -9.215267   -29.384242
 0.590000   -9.353387   -25.450009
 0.595000   -9.469767   -20.960656
 0.600000   -9.562993   -16.176237
 0.605000   -9.631530   -11.246372
 0.610000   -9.675457   -6.507804
 0.615000   -9.696608   -2.125916
 0.620000   -9.696716   1.790763
 0.625000   -9.678700   5.132623
 0.630000   -9.645390   7.867961
 0.635000   -9.600021   10.122043
 0.640000   -9.544169   12.060395
 0.645000   -9.479417   13.719385
 0.650000   -9.406976   15.272692
 0.655000   -9.326690   16.854648
 0.660000   -9.238429   18.434632
 0.665000   -9.142343   19.927738
 0.670000   -9.039152   21.337842
 0.675000   -8.928965   22.731700
 0.680000   -8.811835   24.202982
 0.685000   -8.686935   25.987358
 0.690000   -8.551961   28.389171
 0.695000   -8.403043   31.629994
 0.700000   -8.235661   36.075365
 0.705000   -8.042290   41.812595
 0.710000   -7.817535   48.105352
 0.715000   -7.561236   54.401635
 0.720000   -7.273519   60.387542
 0.725000   -6.957361   65.497931
 0.730000   -6.618540   69.253011
 0.735000   -6.264831   70.608664
 0.740000   -5.912453   68.804726
 0.745000   -5.576784   64.184445
 0.750000   -5.270608   57.226757
 0.755000   -5.004516   48.528375
 0.760000   -4.785325   38.659762
 0.765000   -4.617918   28.787610
 0.770000   -4.497449   20.088990
 0.775000   -4.417028   12.727072
 0.780000   -4.370178   6.513178
 0.785000   -4.351897   0.943405
 0.790000   -4.360744   -4.921385
 0.795000   -4.401111   -12.243987
 0.800000   -4.483184   -21.890915
 0.805000   -4.620020   -34.307509
 0.810000   -4.826259   -49.520349
 0.815000   -5.115223   -66.909877
 0.820000   -5.495358   -85.274324
 0.825000   -5.967966   -101.545146
 0.830000   -6.510809   -113.082530
 0.835000   -7.098792   -118.925157
 0.840000   -7.700061   -118.258877
 0.845000   -8.281380   -111.249136
 0.850000   -8.812552   -98.938666
 0.855000   -9.270767   -84.060757
 0.860000   -9.653159   -68.950920
 0.865000   -9.960276   -54.531283
 0.870000   -10.198472   -41.822289
 0.875000   -10.378499   -30.910020
 0.880000   -10.507572   -21.759782
 0.885000   -10.596097   -14.355662
 0.890000   -10.651129   -7.886080
 0.895000   -10.674958   -1.758686
 0.900000   -10.668716   4.225373
 0.905000   -10.632704   10.612536
 0.910000   -10.562591   17.127113
 0.915000   -10.461433   22.694059
 0.920000   -10.335650   27.376775
 0.925000   -10.187665   33.337290
 0.930000   -10.002277   39.377720
 0.935000   -9.793888   44.334589
 0.940000   -9.558931   51.053746
 0.945000   -9.283351   61.168358
 0.950000   -8.947248   71.987396
 0.955000   -8.563477   80.023032
 0.960000   -8.147017   83.033635
 0.965000   -7.733140   78.442229
 0.970000   -7.362595   70.098141
 0.975000   -7.032159   76.881339
 0.980000   -6.593782   135.013834
 0.985000   -5.682020   278.797869
 0.990000   -3.805803   501.588357
 0.995000   -0.666137   712.539249
 1.000000   3.319590   881.751329
201 psinorm omgvb(kRad/s) domgvb/dpsiN
 0.000000   62.614765   67.768656
 0.005000   62.887626   41.375488
 0.010000   63.028520   26.626775
 0.015000   63.153893   24.142388
 0.020000   63.269944   22.412090
 0.025000   63.378014   20.465534
 0.030000   63.474599   17.892425
 0.035000   63.556938   15.214378
 0.040000   63.626743   12.579047
 0.045000   63.682729   9.862730
 0.050000   63.725370   7.371054
 0.055000   63.756439   5.316411
 0.060000   63.778534   3.717932
 0.065000   63.793619   2.328855
 0.070000   63.801823   1.142877
 0.075000   63.805048   0.096325
 0.080000   63.802786   -1.091738
 0.085000   63.794130   -2.391881
 0.090000   63.778867   -4.036291
 0.095000   63.753767   -6.176051
 0.100000   63.717107   -8.659543
 0.105000   63.667172   -11.433098
 0.110000   63.602776   -14.528462
 0.115000   63.521887   -17.934927
 0.120000   63.423427   -21.509861
 0.125000   63.306789   -24.965997
 0.130000   63.173767   -28.326728
 0.135000   63.023521   -31.654224
 0.140000   62.857224   -34.829273
 0.145000   62.675229   -37.851107
 0.150000   62.478713   -40.843298
 0.155000   62.266796   -43.857837
 0.160000   62.040135   -46.859647
 0.165000   61.798199   -49.853519
 0.170000   61.541600   -52.812631
 0.175000   61.270073   -55.825126
 0.180000   60.983349   -58.749731
 0.185000   60.682576   -61.651079
 0.190000   60.366838   -64.444280
 0.195000   60.038133   -67.059249
 0.200000   59.696245   -69.603608
 0.205000   59.342097   -71.920297
 0.210000   58.977042   -73.873054
 0.215000   58.603366   -75.265833
 0.220000   58.224384   -76.226055
 0.225000   57.841106   -76.814192
 0.230000   57.456242   -77.074032
 0.235000   57.070365   -77.227362
 0.240000   56.683968   -77.252633
 0.245000   56.297839   -77.224106
 0.250000   55.911727   -77.205119
 0.255000   55.525788   -76.962983
 0.260000   55.142098   -76.672932
 0.265000   54.759058   -76.522055
 0.270000   54.376877   -76.235207
 0.275000   53.996706   -75.927406
 0.280000   53.617603   -75.664050
 0.285000   53.240066   -75.287590
 0.290000   52.864727   -75.088512
 0.295000   52.489181   -75.071836
 0.300000   52.114009   -75.032542
 0.305000   51.738855   -75.093369
 0.310000   51.363075   -75.127585
 0.315000   50.987579   -75.022689
 0.320000   50.612848   -74.898875
 0.325000   50.238591   -74.707604
 0.330000   49.865772   -74.398532
 0.335000   49.494605   -74.048071
 0.340000   49.125291   -73.574475
 0.345000   48.758861   -72.907472
 0.350000   48.396217   -72.132082
 0.355000   48.037540   -71.294947
 0.360000   47.683267   -70.402836
 0.365000   47.333511   -69.589145
 0.370000   46.987376   -68.888777
 0.375000   46.644624   -68.250088
 0.380000   46.304875   -67.866680
 0.385000   45.965957   -67.757780
 0.390000   45.627297   -67.741671
 0.395000   45.288540   -67.833491
 0.400000   44.948962   -68.042571
 0.405000   44.608114   -68.195204
 0.410000   44.267010   -68.403721
 0.415000   43.924077   -69.106322
 0.420000   43.575947   -70.674359
 0.425000   43.217334   -73.396431
 0.430000   42.841983   -77.454731
 0.435000   42.442786   -83.088023
 0.440000   42.011102   -90.723659
 0.445000   41.535550   -99.404739
 0.450000   41.017055   -108.224733
 0.455000   40.453302   -117.290982
 0.460000   39.844145   -126.078143
 0.465000   39.192521   -134.078233
 0.470000   38.503363   -140.194543
 0.475000   37.790576   -143.046490
 0.480000   37.072898   -142.248323
 0.485000   36.368092   -137.930686
 0.490000   35.693591   -130.344735
 0.495000   35.064645   -119.225758
 0.500000   34.501333   -105.210785
 0.505000   34.012537   -90.979887
 0.510000   33.591535   -77.842275
 0.515000   33.234114   -65.848040
 0.520000   32.933054   -55.590948
 0.525000   32.678205   -47.465465
 0.530000   32.458400   -42.135960
 0.535000   32.256845   -39.391421
 0.540000   32.064485   -38.136710
 0.545000   31.875478   -37.751130
 0.550000   31.686974   -37.860875
 0.555000   31.496869   -38.589220
 0.560000   31.301082   -39.686656
 0.565000   31.100003   -40.524640
 0.570000   30.895835   -41.044532
 0.575000   30.689558   -41.409465
 0.580000   30.481741   -41.530993
 0.585000   30.274248   -41.345088
 0.590000   30.068290   -40.908232
 0.595000   29.865165   -40.398445
 0.600000   29.664305   -39.974594
 0.605000   29.465419   -39.733957
 0.610000   29.266966   -39.940286
 0.615000   29.066016   -40.688203
 0.620000   28.860084   -41.967809
 0.625000   28.646338   -43.814978
 0.630000   28.421934   -46.224003
 0.635000   28.184098   -48.986563
 0.640000   27.932068   -51.873924
 0.645000   27.665359   -54.799598
 0.650000   27.384072   -57.459278
 0.655000   27.090766   -59.785983
 0.660000   26.786213   -61.967837
 0.665000   26.471088   -64.101906
 0.670000   26.145194   -66.263245
 0.675000   25.808456   -68.478525
 0.680000   25.460408   -70.833056
 0.685000   25.100125   -73.163090
 0.690000   24.728777   -74.916772
 0.695000   24.350957   -75.568030
 0.700000   23.973097   -74.530827
 0.705000   23.605649   -71.547968
 0.710000   23.257617   -67.329495
 0.715000   22.932354   -62.368117
 0.720000   22.633936   -56.880317
 0.725000   22.363551   -51.460759
 0.730000   22.119329   -46.616801
 0.735000   21.897383   -43.406222
 0.740000   21.685266   -42.594537
 0.745000   21.471437   -43.883952
 0.750000   21.246427   -47.011753
 0.755000   21.001320   -51.658289
 0.760000   20.729844   -57.442162
 0.765000   20.426898   -63.309836
 0.770000   20.096746   -68.211774
 0.775000   19.744781   -72.021716
 0.780000   19.376529   -74.561945
 0.785000   18.999161   -76.066969
 0.790000   18.615859   -77.527011
 0.795000   18.223891   -80.168411
 0.800000   17.814175   -85.047145
 0.805000   17.373420   -92.819035
 0.810000   16.885984   -103.664507
 0.815000   16.336775   -117.283693
 0.820000   15.713147   -132.838581
 0.825000   15.008389   -147.477833
 0.830000   14.238369   -158.726376
 0.835000   13.421125   -165.711613
 0.840000   12.581253   -167.614915
 0.845000   11.744976   -164.547205
 0.850000   10.935781   -157.482097
 0.855000   10.170155   -149.089976
 0.860000   9.444881   -141.719851
 0.865000   8.752956   -136.548838
 0.870000   8.079393   -134.720742
 0.875000   7.405749   -136.204351
 0.880000   6.717349   -140.866459
 0.885000   5.997084   -148.469929
 0.890000   5.232650   -157.837891
 0.895000   4.418705   -168.484988
 0.900000   3.547800   -178.853826
 0.905000   2.630167   -186.739722
 0.910000   1.680403   -191.900955
 0.915000   0.711158   -194.336352
 0.920000   -0.262961   -192.996063
 0.925000   -1.218803   -185.349517
 0.930000   -2.116456   -171.439275
 0.935000   -2.933196   -151.922590
 0.940000   -3.635682   -125.368751
 0.945000   -4.186883   -91.784937
 0.950000   -4.553531   -55.932503
 0.955000   -4.746208   -23.214520
 0.960000   -4.785676   2.073794
 0.965000   -4.725470   15.736015
 0.970000   -4.628316   21.274476
 0.975000   -4.512726   37.852301
 0.980000   -4.249793   102.375527
 0.985000   -3.488970   250.194177
 0.990000   -1.747851   475.468179
 0.995000   1.265711   687.903092
 1.000000   5.131180   858.284172
201 psinorm omgpp(kRad/s) domgpp/dpsiN
 0.000000   -0.052049   -25.934017
 0.005000   -0.210285   -37.360365
 0.010000   -0.425653   -43.564226
 0.015000   -0.645927   -44.489060
 0.020000   -0.870543   -45.286614
 0.025000   -1.098793   -45.944555
 0.030000   -1.329989   -46.480241
 0.035000   -1.563596   -46.891564
 0.040000   -1.798904   -47.167538
 0.045000   -2.035271   -47.313251
 0.050000   -2.272037   -47.322768
 0.055000   -2.508499   -47.195620
 0.060000   -2.743993   -46.934428
 0.065000   -2.977843   -46.473808
 0.070000   -3.208731   -45.788986
 0.075000   -3.435733   -44.936760
 0.080000   -3.658099   -43.931979
 0.085000   -3.875053   -42.769216
 0.090000   -4.085791   -41.628214
 0.095000   -4.291335   -40.445656
 0.100000   -4.490247   -39.066503
 0.105000   -4.682000   -37.587168
 0.110000   -4.866119   -36.000982
 0.115000   -5.042010   -34.292298
 0.120000   -5.209042   -32.805054
 0.125000   -5.370060   -31.517650
 0.130000   -5.524219   -30.087363
 0.135000   -5.670934   -28.503297
 0.140000   -5.809252   -26.691831
 0.145000   -5.937852   -24.615842
 0.150000   -6.055410   -22.390839
 0.155000   -6.161761   -20.117595
 0.160000   -6.256586   -17.760855
 0.165000   -6.339369   -15.304586
 0.170000   -6.409632   -12.760747
 0.175000   -6.466977   -9.884797
 0.180000   -6.508480   -7.181437
 0.185000   -6.538791   -4.831993
 0.190000   -6.556800   -2.395387
 0.195000   -6.562745   -0.049036
 0.200000   -6.557290   2.137806
 0.205000   -6.541367   4.271134
 0.210000   -6.514579   5.673602
 0.215000   -6.484631   6.453976
 0.220000   -6.450039   7.364696
 0.225000   -6.410984   8.194359
 0.230000   -6.368095   8.911729
 0.235000   -6.321867   9.219396
 0.240000   -6.275901   9.507335
 0.245000   -6.226793   10.349377
 0.250000   -6.172408   11.481277
 0.255000   -6.111980   12.834478
 0.260000   -6.044063   14.452113
 0.265000   -5.967459   16.060757
 0.270000   -5.883455   17.958081
 0.275000   -5.787878   20.172281
 0.280000   -5.681733   22.116668
 0.285000   -5.566712   23.851153
 0.290000   -5.443221   25.497052
 0.295000   -5.311741   27.231167
 0.300000   -5.170909   29.198721
 0.305000   -5.019754   30.868582
 0.310000   -4.862224   31.864373
 0.315000   -4.701110   32.232002
 0.320000   -4.539904   31.953405
 0.325000   -4.381576   31.255500
 0.330000   -4.227349   30.097340
 0.335000   -4.080603   28.648979
 0.340000   -3.940859   27.442529
 0.345000   -3.806178   26.467866
 0.350000   -3.676180   25.583210
 0.355000   -3.550345   24.623588
 0.360000   -3.429944   23.505805
 0.365000   -3.315287   23.134327
 0.370000   -3.198601   23.281208
 0.375000   -3.082475   23.278596
 0.380000   -2.965815   23.508024
 0.385000   -2.847395   23.947429
 0.390000   -2.726341   24.755805
 0.395000   -2.599837   25.999721
 0.400000   -2.466343   26.905188
 0.405000   -2.330785   27.155502
 0.410000   -2.194788   27.073418
 0.415000   -2.060051   26.703562
 0.420000   -1.927753   26.399090
 0.425000   -1.796060   25.313816
 0.430000   -1.674615   23.583497
 0.435000   -1.560225   22.133821
 0.440000   -1.453276   20.623934
 0.445000   -1.353986   19.087536
 0.450000   -1.262401   17.909564
 0.455000   -1.174890   16.232623
 0.460000   -1.100075   14.154767
 0.465000   -1.033342   12.545709
 0.470000   -0.974618   10.945212
 0.475000   -0.923890   9.338372
 0.480000   -0.881234   7.700918
 0.485000   -0.846881   5.935437
 0.490000   -0.821880   4.363156
 0.495000   -0.803250   3.197732
 0.500000   -0.789902   2.201734
 0.505000   -0.781232   1.293689
 0.510000   -0.776965   0.427164
 0.515000   -0.776961   -0.548504
 0.520000   -0.782450   -1.656855
 0.525000   -0.793529   -2.748778
 0.530000   -0.809938   -3.799267
 0.535000   -0.831522   -4.810903
 0.540000   -0.858047   -5.817340
 0.545000   -0.889695   -6.786901
 0.550000   -0.925916   -7.664105
 0.555000   -0.966336   -8.495484
 0.560000   -1.010871   -9.299049
 0.565000   -1.059327   -10.061201
 0.570000   -1.111483   -10.846133
 0.575000   -1.167788   -11.564223
 0.580000   -1.227125   -12.096234
 0.585000   -1.288750   -12.529871
 0.590000   -1.352424   -12.856116
 0.595000   -1.417312   -13.011885
 0.600000   -1.482543   -13.014594
 0.605000   -1.547458   -12.968331
 0.610000   -1.612226   -12.987369
 0.615000   -1.677331   -13.038229
 0.620000   -1.742609   -13.050940
 0.625000   -1.807841   -13.026790
 0.630000   -1.872876   -13.012494
 0.635000   -1.937966   -13.021331
 0.640000   -2.003090   -12.900295
 0.645000   -2.066969   -12.663941
 0.650000   -2.129729   -12.409077
 0.655000   -2.191059   -12.096041
 0.660000   -2.250690   -11.801793
 0.665000   -2.309077   -11.639402
 0.670000   -2.367084   -11.315585
 0.675000   -2.422233   -10.950603
 0.680000   -2.476590   -10.940008
 0.685000   -2.531633   -11.231830
 0.690000   -2.588908   -11.969705
 0.695000   -2.651330   -13.442489
 0.700000   -2.723333   -13.903501
 0.705000   -2.790365   -13.405293
 0.710000   -2.857386   -13.284090
 0.715000   -2.923206   -12.893283
 0.720000   -2.986319   -12.261084
 0.725000   -3.045817   -11.881152
 0.730000   -3.105130   -9.910980
 0.735000   -3.144927   -6.677117
 0.740000   -3.171901   -3.894596
 0.745000   -3.183873   -0.724823
 0.750000   -3.179149   2.712819
 0.755000   -3.156745   6.645498
 0.760000   -3.112695   10.395080
 0.765000   -3.052794   13.402023
 0.770000   -2.978674   16.006641
 0.775000   -2.892727   18.102006
 0.780000   -2.797654   19.637613
 0.785000   -2.696351   21.257765
 0.790000   -2.585077   21.754311
 0.795000   -2.478808   20.974887
 0.800000   -2.375328   20.297828
 0.805000   -2.275830   19.325057
 0.810000   -2.182077   18.032303
 0.815000   -2.095507   16.398925
 0.820000   -2.018088   14.551563
 0.825000   -1.949991   13.182163
 0.830000   -1.886266   12.364535
 0.835000   -1.826346   11.571695
 0.840000   -1.770549   10.671670
 0.845000   -1.719629   9.605312
 0.850000   -1.674496   8.230001
 0.855000   -1.637329   6.336658
 0.860000   -1.611130   3.964469
 0.865000   -1.597684   1.242800
 0.870000   -1.598702   -1.796986
 0.875000   -1.615654   -5.595280
 0.880000   -1.654654   -9.852464
 0.885000   -1.714179   -13.753815
 0.890000   -1.792193   -18.221455
 0.895000   -1.896393   -24.080136
 0.900000   -2.032994   -31.284123
 0.905000   -2.209235   -41.625641
 0.910000   -2.449250   -55.054687
 0.915000   -2.759782   -68.118332
 0.920000   -3.130434   -84.049432
 0.925000   -3.600276   -107.827322
 0.930000   -4.208707   -141.501135
 0.935000   -5.015287   -193.562244
 0.940000   -6.144329   -270.220440
 0.945000   -7.717492   -356.458150
 0.950000   -9.708911   -447.184309
 0.955000   -12.189335   -535.079370
 0.960000   -15.059704   -586.649100
 0.965000   -18.055826   -573.184401
 0.970000   -20.791548   -463.759127
 0.975000   -22.693417   -231.024238
 0.980000   -23.101791   62.627218
 0.985000   -22.067145   329.370153
 0.990000   -19.808089   526.387244
 0.995000   -16.803272   617.531416
 1.000000   -13.632775   650.667449
201 psinorm omgeb(kRad/s) domgeb/dpsiN
 0.000000   62.562716   41.834639
 0.005000   62.677341   4.015124
 0.010000   62.602867   -16.937451
 0.015000   62.507966   -20.346672
 0.020000   62.399401   -22.874525
 0.025000   62.279221   -25.479022
 0.030000   62.144611   -28.587816
 0.035000   61.993343   -31.677186
 0.040000   61.827839   -34.588491
 0.045000   61.647458   -37.450521
 0.050000   61.453333   -39.951714
 0.055000   61.247941   -41.879209
 0.060000   61.034541   -43.216497
 0.065000   60.815776   -44.144953
 0.070000   60.593092   -44.646109
 0.075000   60.369315   -44.840435
 0.080000   60.144688   -45.023717
 0.085000   59.919077   -45.161097
 0.090000   59.693077   -45.664506
 0.095000   59.462432   -46.621708
 0.100000   59.226859   -47.726046
 0.105000   58.985172   -49.020267
 0.110000   58.736657   -50.529444
 0.115000   58.479878   -52.227225
 0.120000   58.214385   -54.314915
 0.125000   57.936728   -56.483647
 0.130000   57.649548   -58.414090
 0.135000   57.352587   -60.157521
 0.140000   57.047973   -61.521104
 0.145000   56.737376   -62.466949
 0.150000   56.423303   -63.234137
 0.155000   56.105035   -63.975432
 0.160000   55.783549   -64.620503
 0.165000   55.458830   -65.158105
 0.170000   55.131968   -65.573378
 0.175000   54.803096   -65.709923
 0.180000   54.474869   -65.931168
 0.185000   54.143785   -66.483072
 0.190000   53.810038   -66.839667
 0.195000   53.475388   -67.108285
 0.200000   53.138955   -67.465802
 0.205000   52.800730   -67.649163
 0.210000   52.462464   -68.199453
 0.215000   52.118735   -68.811857
 0.220000   51.774345   -68.861358
 0.225000   51.430122   -68.619834
 0.230000   51.088147   -68.162303
 0.235000   50.748499   -68.007965
 0.240000   50.408067   -67.745299
 0.245000   50.071046   -66.874729
 0.250000   49.739320   -65.723842
 0.255000   49.413807   -64.128505
 0.260000   49.098035   -62.220820
 0.265000   48.791599   -60.461298
 0.270000   48.493422   -58.277126
 0.275000   48.208828   -55.755125
 0.280000   47.935870   -53.547381
 0.285000   47.673354   -51.436438
 0.290000   47.421506   -49.591460
 0.295000   47.177439   -47.840669
 0.300000   46.943099   -45.833820
 0.305000   46.719101   -44.224786
 0.310000   46.500852   -43.263213
 0.315000   46.286469   -42.790688
 0.320000   46.072945   -42.945469
 0.325000   45.857014   -43.452104
 0.330000   45.638424   -44.301192
 0.335000   45.414003   -45.399093
 0.340000   45.184433   -46.131945
 0.345000   44.952683   -46.439606
 0.350000   44.720037   -46.548872
 0.355000   44.487194   -46.671359
 0.360000   44.253323   -46.897031
 0.365000   44.018224   -46.454818
 0.370000   43.788775   -45.607569
 0.375000   43.562148   -44.971492
 0.380000   43.339060   -44.358656
 0.385000   43.118562   -43.810351
 0.390000   42.900956   -42.985867
 0.395000   42.688703   -41.833771
 0.400000   42.482619   -41.137383
 0.405000   42.277329   -41.039702
 0.410000   42.072222   -41.330303
 0.415000   41.864026   -42.402760
 0.420000   41.648194   -44.275270
 0.425000   41.421274   -48.082616
 0.430000   41.167368   -53.871234
 0.435000   40.882561   -60.954202
 0.440000   40.557826   -70.099725
 0.445000   40.181564   -80.317203
 0.450000   39.754654   -90.315168
 0.455000   39.278412   -101.058359
 0.460000   38.744070   -111.923376
 0.465000   38.159179   -121.532524
 0.470000   37.528745   -129.249332
 0.475000   36.866685   -133.708118
 0.480000   36.191664   -134.547405
 0.485000   35.521211   -131.995249
 0.490000   34.871711   -125.981579
 0.495000   34.261395   -116.028025
 0.500000   33.711431   -103.009051
 0.505000   33.231305   -89.686198
 0.510000   32.814569   -77.415112
 0.515000   32.457154   -66.396544
 0.520000   32.150604   -57.247803
 0.525000   31.884676   -50.214243
 0.530000   31.648461   -45.935227
 0.535000   31.425323   -44.202324
 0.540000   31.206438   -43.954050
 0.545000   30.985783   -44.538031
 0.550000   30.761058   -45.524980
 0.555000   30.530533   -47.084704
 0.560000   30.290211   -48.985705
 0.565000   30.040676   -50.585841
 0.570000   29.784352   -51.890665
 0.575000   29.521769   -52.973688
 0.580000   29.254615   -53.627227
 0.585000   28.985497   -53.874959
 0.590000   28.715866   -53.764349
 0.595000   28.447854   -53.410330
 0.600000   28.181763   -52.989188
 0.605000   27.917962   -52.702289
 0.610000   27.654740   -52.927655
 0.615000   27.388685   -53.726432
 0.620000   27.117475   -55.018749
 0.625000   26.838498   -56.841768
 0.630000   26.549058   -59.236497
 0.635000   26.246133   -62.007894
 0.640000   25.928979   -64.774219
 0.645000   25.598391   -67.463540
 0.650000   25.254343   -69.868355
 0.655000   24.899707   -71.882023
 0.660000   24.535523   -73.769631
 0.665000   24.162011   -75.741307
 0.670000   23.778110   -77.578830
 0.675000   23.386222   -79.429127
 0.680000   22.983819   -81.773064
 0.685000   22.568492   -84.394920
 0.690000   22.139869   -86.886477
 0.695000   21.699627   -89.010519
 0.700000   21.249764   -88.434327
 0.705000   20.815284   -84.953262
 0.710000   20.400232   -80.613585
 0.715000   20.009148   -75.261400
 0.720000   19.647618   -69.141401
 0.725000   19.317734   -63.341910
 0.730000   19.014199   -56.527781
 0.735000   18.752456   -50.083339
 0.740000   18.513365   -46.489133
 0.745000   18.287565   -44.608775
 0.750000   18.067277   -44.298934
 0.755000   17.844575   -45.012790
 0.760000   17.617150   -47.047082
 0.765000   17.374105   -49.907812
 0.770000   17.118071   -52.205133
 0.775000   16.852053   -53.919710
 0.780000   16.578874   -54.924332
 0.785000   16.302810   -54.809204
 0.790000   16.030782   -55.772701
 0.795000   15.745083   -59.193525
 0.800000   15.438847   -64.749317
 0.805000   15.097590   -73.493978
 0.810000   14.703907   -85.632204
 0.815000   14.241268   -100.884768
 0.820000   13.695060   -118.287019
 0.825000   13.058398   -134.295670
 0.830000   12.352103   -146.361841
 0.835000   11.594779   -154.139917
 0.840000   10.810704   -156.943245
 0.845000   10.025347   -154.941893
 0.850000   9.261285   -149.252096
 0.855000   8.532826   -142.753318
 0.860000   7.833752   -137.755382
 0.865000   7.155272   -135.306038
 0.870000   6.480691   -136.517728
 0.875000   5.790095   -141.799631
 0.880000   5.062695   -150.718923
 0.885000   4.282905   -162.223743
 0.890000   3.440457   -176.059346
 0.895000   2.522312   -192.565124
 0.900000   1.514806   -210.137949
 0.905000   0.420932   -228.365363
 0.910000   -0.768847   -246.955643
 0.915000   -2.048624   -262.454683
 0.920000   -3.393394   -277.045495
 0.925000   -4.819079   -293.176840
 0.930000   -6.325163   -312.940410
 0.935000   -7.948483   -345.484835
 0.940000   -9.780011   -395.589192
 0.945000   -11.904375   -448.243086
 0.950000   -14.262442   -503.116811
 0.955000   -16.935543   -558.293889
 0.960000   -19.845381   -584.575305
 0.965000   -22.781296   -557.448386
 0.970000   -25.419865   -442.484651
 0.975000   -27.206143   -193.171937
 0.980000   -27.351584   165.002745
 0.985000   -25.556115   579.564330
 0.990000   -21.555941   1001.855424
 0.995000   -15.537561   1305.434508
 1.000000   -8.501596   1508.951621
201 psinorm er(kV/m) der/dpsiN
 0.000000   0.896480   1181.490994
 0.005000   5.650468   720.104365
 0.010000   8.097523   430.011292
 0.015000   9.950581   343.747661
 0.020000   11.535000   295.698519
 0.025000   12.907566   260.795438
 0.030000   14.142954   236.353773
 0.035000   15.271104   216.913815
 0.040000   16.312092   200.987129
 0.045000   17.280975   186.562259
 0.050000   18.177715   173.805258
 0.055000   19.019028   162.121952
 0.060000   19.798935   153.923443
 0.065000   20.558262   147.250928
 0.070000   21.271444   137.163909
 0.075000   21.929901   130.845290
 0.080000   22.579897   126.996175
 0.085000   23.199863   117.544583
 0.090000   23.755343   113.670186
 0.095000   24.336565   109.157620
 0.100000   24.846919   102.876199
 0.105000   25.365327   99.003592
 0.110000   25.836955   92.542824
 0.115000   26.290755   88.938207
 0.120000   26.726337   83.194216
 0.125000   27.122697   78.922930
 0.130000   27.515566   74.343102
 0.135000   27.866128   69.628241
 0.140000   28.211849   66.470402
 0.145000   28.530832   61.440328
 0.150000   28.826252   59.425438
 0.155000   29.125087   54.125899
 0.160000   29.367511   52.983712
 0.165000   29.654924   47.423802
 0.170000   29.841749   45.400707
 0.175000   30.108931   43.529017
 0.180000   30.277039   38.277966
 0.185000   30.491711   39.896682
 0.190000   30.676006   32.706496
 0.195000   30.818776   34.081213
 0.200000   31.016818   27.946738
 0.205000   31.098243   24.674598
 0.210000   31.263564   28.152597
 0.215000   31.379769   19.781779
 0.220000   31.461382   21.446487
 0.225000   31.594234   17.401280
 0.230000   31.635394   13.663591
 0.235000   31.730870   18.220257
 0.240000   31.817597   10.457863
 0.245000   31.835448   10.375625
 0.250000   31.921353   13.042222
 0.255000   31.965871   7.259704
 0.260000   31.993950   10.365746
 0.265000   32.069528   9.302147
 0.270000   32.086972   6.200700
 0.275000   32.131535   11.756617
 0.280000   32.204538   8.014752
 0.285000   32.211683   6.498879
 0.290000   32.269527   12.754001
 0.295000   32.339223   7.176976
 0.300000   32.341297   6.597202
 0.305000   32.405195   12.827747
 0.310000   32.469574   6.794189
 0.315000   32.473136   5.628886
 0.320000   32.525863   9.923757
 0.325000   32.572374   3.583615
 0.330000   32.561699   1.562297
 0.335000   32.587997   4.634938
 0.340000   32.608048   -1.171220
 0.345000   32.576285   -2.955651
 0.350000   32.578492   0.248637
 0.355000   32.578771   -3.936969
 0.360000   32.539122   -5.919396
 0.365000   32.519577   -3.300465
 0.370000   32.506118   -5.290292
 0.375000   32.466674   -6.922061
 0.380000   32.436897   -5.165603
 0.385000   32.415018   -5.895919
 0.390000   32.377938   -7.642601
 0.395000   32.338592   -6.434755
 0.400000   32.313590   -5.843715
 0.405000   32.280155   -8.164691
 0.410000   32.231943   -8.787521
 0.415000   32.192280   -8.821415
 0.420000   32.143729   -12.514671
 0.425000   32.067133   -16.402198
 0.430000   31.979707   -20.069208
 0.435000   31.866441   -27.090288
 0.440000   31.708804   -35.582099
 0.445000   31.510620   -43.566868
 0.450000   31.273136   -52.015198
 0.455000   30.990468   -62.081266
 0.460000   30.652323   -71.432345
 0.465000   30.276145   -79.183616
 0.470000   29.860487   -86.862831
 0.475000   29.407516   -91.531530
 0.480000   28.945171   -92.384145
 0.485000   28.483675   -91.364284
 0.490000   28.031529   -87.772649
 0.495000   27.605948   -80.290821
 0.500000   27.228620   -70.137491
 0.505000   26.904574   -60.458595
 0.510000   26.624034   -51.174299
 0.515000   26.392831   -42.212318
 0.520000   26.201911   -35.470071
 0.525000   26.038130   -30.442159
 0.530000   25.897490   -27.023679
 0.535000   25.767893   -25.775080
 0.540000   25.639739   -26.353576
 0.545000   25.504357   -27.207350
 0.550000   25.367665   -27.865910
 0.555000   25.225698   -29.796773
 0.560000   25.069698   -31.950484
 0.565000   24.906193   -33.217536
 0.570000   24.737522   -34.469025
 0.575000   24.561503   -36.156709
 0.580000   24.375955   -36.983061
 0.585000   24.191672   -36.948579
 0.590000   24.006469   -37.505459
 0.595000   23.816618   -37.772145
 0.600000   23.628748   -37.263143
 0.605000   23.443986   -37.072683
 0.610000   23.258021   -38.106713
 0.615000   23.062919   -39.004099
 0.620000   22.867980   -39.686958
 0.625000   22.666050   -41.794500
 0.630000   22.450035   -44.438240
 0.635000   22.221667   -46.624245
 0.640000   21.983793   -48.768326
 0.645000   21.733984   -52.061142
 0.650000   21.463181   -54.395279
 0.655000   21.190031   -55.502087
 0.660000   20.908160   -57.560374
 0.665000   20.614428   -60.020399
 0.670000   20.307956   -61.522569
 0.675000   19.999202   -62.715806
 0.680000   19.680798   -65.567521
 0.685000   19.343527   -68.281809
 0.690000   18.997980   -69.953552
 0.695000   18.643991   -71.796294
 0.700000   18.280017   -72.358593
 0.705000   17.920405   -69.479022
 0.710000   17.585227   -65.036865
 0.715000   17.270037   -61.011090
 0.720000   16.975116   -56.489272
 0.725000   16.705144   -51.183662
 0.730000   16.463280   -44.794401
 0.735000   16.257200   -40.144044
 0.740000   16.061839   -37.426359
 0.745000   15.882936   -35.087921
 0.750000   15.710960   -34.726598
 0.755000   15.535670   -36.433800
 0.760000   15.346622   -38.280078
 0.765000   15.152869   -39.937649
 0.770000   14.947245   -42.398021
 0.775000   14.728889   -44.650321
 0.780000   14.500742   -45.372612
 0.785000   14.275163   -44.825803
 0.790000   14.052484   -46.305913
 0.795000   13.812104   -49.787607
 0.800000   13.554608   -54.378950
 0.805000   13.268315   -61.933384
 0.810000   12.935274   -73.343707
 0.815000   12.534877   -87.104690
 0.820000   12.064227   -102.142255
 0.825000   11.513455   -116.467874
 0.830000   10.899549   -127.776825
 0.835000   10.235687   -134.922002
 0.840000   9.550329   -137.274946
 0.845000   8.862937   -135.809142
 0.850000   8.192237   -131.281639
 0.855000   7.550121   -125.714989
 0.860000   6.935087   -121.236662
 0.865000   6.337754   -119.321998
 0.870000   5.741867   -120.692126
 0.875000   5.130833   -125.438916
 0.880000   4.487478   -133.339675
 0.885000   3.797436   -143.630010
 0.890000   3.051178   -155.943078
 0.895000   2.238005   -170.594132
 0.900000   1.345237   -186.293427
 0.905000   0.375071   -202.676159
 0.910000   -0.681525   -219.235898
 0.915000   -1.817288   -233.115119
 0.920000   -3.012676   -247.286062
 0.925000   -4.290148   -264.065117
 0.930000   -5.653327   -282.285705
 0.935000   -7.113006   -310.924695
 0.940000   -8.762574   -363.107082
 0.945000   -10.744076   -419.265871
 0.950000   -12.955233   -465.428192
 0.955000   -15.398358   -511.177856
 0.960000   -18.067011   -557.311009
 0.965000   -20.971468   -546.829102
 0.970000   -23.535302   -424.744757
 0.975000   -25.218916   -184.411141
 0.980000   -25.379414   142.878427
 0.985000   -23.790132   527.911300
 0.990000   -20.100301   928.225230
 0.995000   -14.507879   1213.540042
 1.000000   -7.964900   1403.651520
201 psinorm ommvb() dommvb/dpsiN
 0.000000   -7.642417   16901.851065
 0.005000   68.143025   13412.326056
 0.010000   126.480843   10898.722248
 0.015000   177.130248   9458.627547
 0.020000   221.067119   8123.809700
 0.025000   258.368345   7125.821092
 0.030000   292.325329   6392.703998
 0.035000   322.295385   5621.627113
 0.040000   348.541601   4865.421792
 0.045000   370.949603   4171.446716
 0.050000   390.256068   3677.035023
 0.055000   407.719953   3299.239940
 0.060000   423.248467   2895.123671
 0.065000   436.671190   2517.882711
 0.070000   448.427294   2210.419494
 0.075000   458.775385   1916.939672
 0.080000   467.596691   1602.247794
 0.085000   474.797863   1306.237924
 0.090000   480.659070   1074.522651
 0.095000   485.543089   869.526381
 0.100000   489.354334   674.560839
 0.105000   492.288697   419.089866
 0.110000   493.545233   184.749386
 0.115000   494.136191   29.444147
 0.120000   493.839674   -151.610762
 0.125000   492.620084   -332.248608
 0.130000   490.517188   -496.975483
 0.135000   487.650329   -705.222729
 0.140000   483.464961   -908.413715
 0.145000   478.566192   -991.034926
 0.150000   473.554612   -1043.891517
 0.155000   468.127277   -1136.777744
 0.160000   462.186834   -1233.121609
 0.165000   455.796060   -1316.926041
 0.170000   449.017574   -1389.143967
 0.175000   441.904621   -1430.031175
 0.180000   434.717262   -1460.249421
 0.185000   427.302127   -1519.766847
 0.190000   419.519593   -1575.789716
 0.195000   411.544229   -1604.826324
 0.200000   403.471330   -1619.941130
 0.205000   395.344818   -1624.413617
 0.210000   387.227194   -1791.856536
 0.215000   377.426253   -1809.406289
 0.220000   369.133131   -1606.242978
 0.225000   361.363823   -1540.833148
 0.230000   353.724800   -1518.281145
 0.235000   346.181011   -1496.317683
 0.240000   338.761623   -1462.438445
 0.245000   331.556627   -1522.670188
 0.250000   323.534921   -1592.353107
 0.255000   315.633096   -1420.687695
 0.260000   309.328044   -1233.908555
 0.265000   303.294010   -1183.455014
 0.270000   297.493494   -1135.374949
 0.275000   291.940261   -1215.086681
 0.280000   285.342627   -1232.157068
 0.285000   279.618690   -1016.924072
 0.290000   275.173386   -864.600602
 0.295000   270.972684   -816.227952
 0.300000   267.011107   -825.967384
 0.305000   262.713010   -878.071404
 0.310000   258.230393   -742.355658
 0.315000   255.289454   -565.957004
 0.320000   252.570823   -522.390228
 0.325000   250.065552   -546.762765
 0.330000   247.103195   -547.670639
 0.335000   244.588845   -419.460890
 0.340000   242.908586   -322.305273
 0.345000   241.365792   -292.933103
 0.350000   239.979255   -359.117610
 0.355000   237.774616   -319.228122
 0.360000   236.786974   -179.785979
 0.365000   235.976756   -151.464909
 0.370000   235.272325   -176.900949
 0.375000   234.207747   -184.981620
 0.380000   233.422509   -109.034311
 0.385000   233.117404   -57.911561
 0.390000   232.843393   -76.369383
 0.395000   232.353710   -106.423033
 0.400000   231.779163   -56.982924
 0.405000   231.783881   3.271541
 0.410000   231.811878   -0.527374
 0.415000   231.778607   -58.405658
 0.420000   231.227822   -50.133878
 0.425000   231.277268   6.176915
 0.430000   231.289591   -2.728610
 0.435000   231.249982   -83.611246
 0.440000   230.453478   -93.517929
 0.445000   230.314803   -32.762931
 0.450000   230.125849   -42.721355
 0.455000   229.887589   -117.089271
 0.460000   228.954956   -133.149712
 0.465000   228.556092   -81.112794
 0.470000   228.143828   -86.406064
 0.475000   227.692032   -159.384369
 0.480000   226.549985   -166.221370
 0.485000   226.029818   -95.068211
 0.490000   225.599303   -82.907188
 0.495000   225.200746   -140.556157
 0.500000   224.193741   -138.381141
 0.505000   223.816935   -60.367698
 0.510000   223.590064   -41.285641
 0.515000   223.404078   -97.473559
 0.520000   222.615328   -107.509406
 0.525000   222.328984   -37.516060
 0.530000   222.240168   -15.544408
 0.535000   222.173540   -68.930038
 0.540000   221.550867   -79.984643
 0.545000   221.373694   -18.561305
 0.550000   221.365254   -2.389554
 0.555000   221.349798   -41.095692
 0.560000   220.954297   -57.059275
 0.565000   220.779205   -6.522898
 0.570000   220.889068   25.279892
 0.575000   221.032004   10.174288
 0.580000   220.990811   -7.991491
 0.585000   220.952089   27.282867
 0.590000   221.263640   68.647375
 0.595000   221.638563   75.068678
 0.600000   222.014327   68.660556
 0.605000   222.325169   103.972421
 0.610000   223.054051   152.269430
 0.615000   223.847863   166.149195
 0.620000   224.715543   170.468569
 0.625000   225.552549   206.477654
 0.630000   226.780319   259.529988
 0.635000   228.147849   286.504427
 0.640000   229.645364   316.961644
 0.645000   231.317465   354.913831
 0.650000   233.194502   397.745483
 0.655000   235.294920   436.019293
 0.660000   237.554695   467.691452
 0.665000   239.971834   522.856826
 0.670000   242.783263   569.614820
 0.675000   245.667983   589.142720
 0.680000   248.674690   618.961240
 0.685000   251.857595   658.017251
 0.690000   255.254863   731.216358
 0.695000   259.169759   779.974012
 0.700000   263.054603   804.381359
 0.705000   267.213572   861.915545
 0.710000   271.673759   927.431230
 0.715000   276.487884   1042.307449
 0.720000   282.096833   1111.137310
 0.725000   287.599258   1135.912640
 0.730000   293.455959   1211.219371
 0.735000   299.711451   1289.671857
 0.740000   306.352678   1416.525798
 0.745000   313.876709   1507.255742
 0.750000   321.425235   1531.715811
 0.755000   329.193867   1591.221768
 0.760000   337.337453   1665.678680
 0.765000   345.850654   1744.345763
 0.770000   354.780911   1867.790869
 0.775000   364.528563   1945.058209
 0.780000   374.231493   1989.292390
 0.785000   384.421487   2095.924367
 0.790000   395.190736   2214.250574
 0.795000   406.563992   2333.004358
 0.800000   418.520780   2483.161967
 0.805000   431.395612   2613.566716
 0.810000   444.656447   2704.012953
 0.815000   458.435742   2819.093253
 0.820000   472.847380   2957.718235
 0.825000   488.012924   3114.201894
 0.830000   503.989399   3264.439426
 0.835000   520.657318   3399.041658
 0.840000   537.979815   3557.500614
 0.845000   556.232324   3739.972735
 0.850000   575.379543   3918.412148
 0.855000   595.416446   4102.749533
 0.860000   616.407038   4332.318167
 0.865000   638.739628   4647.768065
 0.870000   662.884719   5003.583971
 0.875000   688.775467   5351.094317
 0.880000   716.395662   5590.660646
 0.885000   744.682074   5812.566733
 0.890000   774.521329   6123.779662
 0.895000   805.919870   6395.398087
 0.900000   838.475310   6652.510631
 0.905000   872.444977   7002.014167
 0.910000   908.495452   7482.046780
 0.915000   947.265444   8146.434472
 0.920000   989.959796   9296.394095
 0.925000   1040.229385   11496.602603
 0.930000   1104.925822   15466.318256
 0.935000   1194.892568   22028.816775
 0.940000   1325.213990   31769.061080
 0.945000   1512.583179   44636.507946
 0.950000   1771.579070   59251.058941
 0.955000   2105.093768   72239.862735
 0.960000   2493.977697   79801.018402
 0.965000   2903.103952   78941.477823
 0.970000   3283.392475   67517.400464
 0.975000   3578.277957   46390.641890
 0.980000   3747.298894   27468.699647
 0.985000   3852.964953   21070.586782
 0.990000   3958.004762   25270.457591
 0.995000   4105.669529   235908.965950
 1.000000   6317.094421   648660.990944
201 psinorm ommpp() dommpp/dpsiN
 0.000000   70.205134   -16860.016426
 0.005000   -5.465685   -13408.310933
 0.010000   -63.877976   -10915.659698
 0.015000   -114.622282   -9478.974219
 0.020000   -158.667718   -8146.684225
 0.025000   -196.089124   -7151.300114
 0.030000   -230.180719   -6421.291814
 0.035000   -260.302042   -5653.304299
 0.040000   -286.713762   -4900.010283
 0.045000   -309.302145   -4208.897237
 0.050000   -328.802734   -3716.986737
 0.055000   -346.472012   -3341.119149
 0.060000   -362.213926   -2938.340167
 0.065000   -375.855414   -2562.027664
 0.070000   -387.834202   -2255.065603
 0.075000   -398.406070   -1961.780107
 0.080000   -407.452003   -1647.271511
 0.085000   -414.878785   -1351.399021
 0.090000   -420.965994   -1120.187157
 0.095000   -426.080657   -916.148089
 0.100000   -430.127475   -722.286885
 0.105000   -433.303525   -468.110133
 0.110000   -434.808576   -235.278830
 0.115000   -435.656314   -81.671372
 0.120000   -435.625290   97.295847
 0.125000   -434.683355   275.764961
 0.130000   -432.867640   438.561393
 0.135000   -430.297741   645.065208
 0.140000   -426.416988   846.892611
 0.145000   -421.828815   928.567977
 0.150000   -417.131308   980.657380
 0.155000   -412.022241   1072.802312
 0.160000   -406.403285   1168.501107
 0.165000   -400.337230   1251.767937
 0.170000   -393.885606   1323.570590
 0.175000   -387.101525   1364.321252
 0.180000   -380.242393   1394.318253
 0.185000   -373.158342   1453.283775
 0.190000   -365.709555   1508.950049
 0.195000   -358.068841   1537.718039
 0.200000   -350.332375   1552.475328
 0.205000   -342.544088   1556.764454
 0.210000   -334.764731   1723.657083
 0.215000   -325.307517   1740.594432
 0.220000   -317.358786   1537.381620
 0.225000   -309.933701   1472.213314
 0.230000   -302.636653   1450.118842
 0.235000   -295.432513   1428.309717
 0.240000   -288.353556   1394.693147
 0.245000   -281.485581   1455.795459
 0.250000   -273.795601   1526.629265
 0.255000   -266.219289   1356.559190
 0.260000   -260.230009   1171.687735
 0.265000   -254.502411   1122.993716
 0.270000   -249.000072   1077.097823
 0.275000   -243.731433   1159.331555
 0.280000   -237.406757   1178.609687
 0.285000   -231.945336   965.487634
 0.290000   -227.751880   815.009142
 0.295000   -223.795245   768.387283
 0.300000   -220.068007   780.133564
 0.305000   -215.993909   833.846618
 0.310000   -211.729541   699.092446
 0.315000   -209.002985   523.166316
 0.320000   -206.497878   479.444759
 0.325000   -204.208537   503.310660
 0.330000   -201.464772   503.369447
 0.335000   -199.174843   374.061798
 0.340000   -197.724154   276.173328
 0.345000   -196.413109   246.493497
 0.350000   -195.259219   312.568738
 0.355000   -193.287422   272.556763
 0.360000   -192.533651   132.888949
 0.365000   -191.958532   105.010091
 0.370000   -191.483550   131.293380
 0.375000   -190.645599   140.010127
 0.380000   -190.083449   64.675655
 0.385000   -189.998842   14.101210
 0.390000   -189.942437   33.383517
 0.395000   -189.665007   64.589263
 0.400000   -189.296544   15.845541
 0.405000   -189.506552   -44.311243
 0.410000   -189.739656   -40.802929
 0.415000   -189.914581   16.002898
 0.420000   -189.579628   5.858608
 0.425000   -189.855995   -54.259531
 0.430000   -190.122223   -51.142625
 0.435000   -190.367421   22.657045
 0.440000   -189.895652   23.418204
 0.445000   -190.133239   -47.554272
 0.450000   -190.371195   -47.593813
 0.455000   -190.609177   16.030912
 0.460000   -190.210886   21.226336
 0.465000   -190.396914   -40.419729
 0.470000   -190.615083   -42.843268
 0.475000   -190.825346   25.676251
 0.480000   -190.358321   31.673964
 0.485000   -190.508607   -36.927039
 0.490000   -190.727591   -43.074391
 0.495000   -190.939351   24.528132
 0.500000   -190.482310   35.372090
 0.505000   -190.585630   -29.318499
 0.510000   -190.775495   -36.129471
 0.515000   -190.946924   31.077014
 0.520000   -190.464725   50.261604
 0.525000   -190.444308   -12.698183
 0.530000   -190.591707   -30.390818
 0.535000   -190.748217   24.727713
 0.540000   -190.344429   36.030593
 0.545000   -190.387911   -25.976725
 0.550000   -190.604197   -43.135426
 0.555000   -190.819265   -5.989012
 0.560000   -190.664087   8.073570
 0.565000   -190.738529   -44.062944
 0.570000   -191.104716   -77.170557
 0.575000   -191.510235   -63.147976
 0.580000   -191.736196   -45.635736
 0.585000   -191.966592   -81.157826
 0.590000   -192.547774   -122.411723
 0.595000   -193.190709   -128.479008
 0.600000   -193.832564   -121.649744
 0.605000   -194.407207   -156.674709
 0.610000   -195.399311   -205.197085
 0.615000   -196.459178   -219.875627
 0.620000   -197.598068   -225.487318
 0.625000   -198.714051   -263.319422
 0.630000   -200.231262   -318.766485
 0.635000   -201.901716   -348.512321
 0.640000   -203.716385   -381.735863
 0.645000   -205.719074   -422.377370
 0.650000   -207.940159   -467.613838
 0.655000   -210.395213   -507.901316
 0.660000   -213.019172   -541.461083
 0.665000   -215.809824   -598.598134
 0.670000   -219.005153   -647.193650
 0.675000   -222.281760   -668.571848
 0.680000   -225.690872   -700.734304
 0.685000   -229.289103   -742.412171
 0.690000   -233.114993   -818.102835
 0.695000   -237.470131   -868.984531
 0.700000   -241.804839   -892.815686
 0.705000   -246.398288   -946.868806
 0.710000   -251.273527   -1008.044815
 0.715000   -256.478736   -1117.568849
 0.720000   -262.449215   -1180.278711
 0.725000   -268.281524   -1199.254550
 0.730000   -274.441761   -1267.747152
 0.735000   -280.958995   -1339.755196
 0.740000   -287.839313   -1463.014931
 0.745000   -295.589144   -1551.864517
 0.750000   -303.357958   -1576.014745
 0.755000   -311.349292   -1636.234558
 0.760000   -319.720304   -1712.725761
 0.765000   -328.476549   -1794.253576
 0.770000   -337.662839   -1919.996002
 0.775000   -347.676509   -1998.977919
 0.780000   -357.652618   -2044.216722
 0.785000   -368.118677   -2150.733571
 0.790000   -379.159954   -2270.023275
 0.795000   -390.818909   -2392.197883
 0.800000   -403.081933   -2547.911284
 0.805000   -416.298022   -2687.060694
 0.810000   -429.952540   -2789.645157
 0.815000   -444.194474   -2919.978021
 0.820000   -459.152320   -3076.005254
 0.825000   -474.954526   -3248.497563
 0.830000   -491.637296   -3410.801266
 0.835000   -509.062539   -3553.181575
 0.840000   -527.169112   -3714.443859
 0.845000   -546.206978   -3894.914628
 0.850000   -566.118258   -4067.664244
 0.855000   -586.883620   -4245.502852
 0.860000   -608.573286   -4470.073549
 0.865000   -631.584356   -4783.074103
 0.870000   -656.404027   -5140.101699
 0.875000   -682.985373   -5492.893949
 0.880000   -711.332967   -5741.379569
 0.885000   -740.399168   -5974.790476
 0.890000   -771.080872   -6299.839008
 0.895000   -803.397558   -6587.963211
 0.900000   -836.960504   -6862.648580
 0.905000   -872.024044   -7230.379531
 0.910000   -909.264299   -7729.002423
 0.915000   -949.314068   -8408.889155
 0.920000   -993.353191   -9573.439590
 0.925000   -1045.048464   -11789.779443
 0.930000   -1111.250985   -15779.258667
 0.935000   -1202.841051   -22374.301609
 0.940000   -1334.994001   -32164.650271
 0.945000   -1524.487554   -45084.751032
 0.950000   -1785.841511   -59754.175752
 0.955000   -2122.029311   -72798.156624
 0.960000   -2513.823078   -80385.593707
 0.965000   -2925.885248   -79498.926210
 0.970000   -3308.812340   -67959.885115
 0.975000   -3605.484099   -46583.813828
 0.980000   -3774.650478   -27303.696902
 0.985000   -3878.521068   -20491.022452
 0.990000   -3979.560703   -24268.602167
 0.995000   -4121.207090   -234603.531442
 1.000000   -6325.596017   -647152.039324
201 psinorm omevb() domevb/dpsiN
 0.000000   32.831348   70.367925
 0.005000   33.110380   41.244972
 0.010000   33.243797   24.516429
 0.015000   33.355544   20.859270
 0.020000   33.452390   18.084609
 0.025000   33.536390   15.234431
 0.030000   33.604734   11.881079
 0.035000   33.655201   8.548273
 0.040000   33.690217   5.394651
 0.045000   33.709147   2.291421
 0.050000   33.713131   -0.449858
 0.055000   33.704649   -2.616327
 0.060000   33.686968   -4.191480
 0.065000   33.662734   -5.356695
 0.070000   33.633401   -6.093505
 0.075000   33.601799   -6.522384
 0.080000   33.568177   -6.939120
 0.085000   33.532408   -7.308859
 0.090000   33.495089   -8.043531
 0.095000   33.451973   -9.230906
 0.100000   33.402780   -10.564330
 0.105000   33.346329   -12.086549
 0.110000   33.281914   -13.822643
 0.115000   33.208103   -15.746259
 0.120000   33.124451   -18.058707
 0.125000   33.027516   -20.451122
 0.130000   32.919940   -22.604175
 0.135000   32.801474   -24.569147
 0.140000   32.674249   -26.153205
 0.145000   32.539942   -27.318459
 0.150000   32.401064   -28.303996
 0.155000   32.256902   -29.262582
 0.160000   32.108438   -30.123887
 0.165000   31.955663   -30.876672
 0.170000   31.799672   -31.506076
 0.175000   31.640602   -31.855706
 0.180000   31.481115   -32.288991
 0.185000   31.317712   -33.051894
 0.190000   31.150596   -33.618448
 0.195000   30.981528   -34.095990
 0.200000   30.809636   -34.661398
 0.205000   30.634914   -35.051620
 0.210000   30.459120   -35.807744
 0.215000   30.276837   -36.624958
 0.220000   30.092870   -36.878248
 0.225000   29.908054   -36.839492
 0.230000   29.724475   -36.583716
 0.235000   29.542217   -36.630120
 0.240000   29.358174   -36.567185
 0.245000   29.176545   -35.895341
 0.250000   28.999220   -34.942176
 0.255000   28.827123   -33.543560
 0.260000   28.663785   -31.831598
 0.265000   28.508807   -30.266805
 0.270000   28.361117   -28.276370
 0.275000   28.226044   -25.947118
 0.280000   28.101646   -23.931136
 0.285000   27.986732   -22.010972
 0.290000   27.881536   -20.355795
 0.295000   27.783174   -18.793827
 0.300000   27.693598   -16.974828
 0.305000   27.613426   -15.552673
 0.310000   27.538071   -14.777011
 0.315000   27.465656   -14.489433
 0.320000   27.393177   -14.828201
 0.325000   27.317374   -15.517863
 0.330000   27.237998   -16.549023
 0.335000   27.151884   -17.828044
 0.340000   27.059717   -18.741067
 0.345000   26.964473   -19.227952
 0.350000   26.867438   -19.515499
 0.355000   26.769318   -19.815328
 0.360000   26.669285   -20.217404
 0.365000   26.567144   -19.950662
 0.370000   26.469778   -19.277952
 0.375000   26.374364   -18.815488
 0.380000   26.281623   -18.375338
 0.385000   26.190611   -17.998798
 0.390000   26.101635   -17.345161
 0.395000   26.017159   -16.362995
 0.400000   25.938005   -15.835626
 0.405000   25.858803   -15.906052
 0.410000   25.778945   -16.363853
 0.415000   25.695165   -17.602607
 0.420000   25.602919   -19.640512
 0.425000   25.498760   -23.612353
 0.430000   25.366795   -29.564572
 0.435000   25.203114   -36.810246
 0.440000   24.998693   -46.117584
 0.445000   24.741938   -56.495988
 0.450000   24.433733   -66.653993
 0.455000   24.075398   -77.556338
 0.460000   23.658169   -88.579627
 0.465000   23.189602   -98.346165
 0.470000   22.674708   -106.219483
 0.475000   22.127407   -110.833901
 0.480000   21.566369   -111.827940
 0.485000   21.009128   -109.429658
 0.490000   20.472072   -103.568981
 0.495000   19.973438   -93.767541
 0.500000   19.534397   -80.899798
 0.505000   19.164440   -67.727291
 0.510000   18.857124   -55.605662
 0.515000   18.608383   -44.735657
 0.520000   18.409767   -35.734576
 0.525000   18.251037   -28.847768
 0.530000   18.121290   -24.714585
 0.535000   18.003892   -23.126581
 0.540000   17.890024   -23.022258
 0.545000   17.773669   -23.749222
 0.550000   17.652532   -24.878166
 0.555000   17.524887   -26.578865
 0.560000   17.386743   -28.619791
 0.565000   17.238689   -30.358763
 0.570000   17.083155   -31.801286
 0.575000   16.920677   -33.020817
 0.580000   16.752947   -33.809605
 0.585000   16.582580   -34.191252
 0.590000   16.411035   -34.213129
 0.595000   16.240449   -33.990063
 0.600000   16.071134   -33.698209
 0.605000   15.903467   -33.538784
 0.610000   15.735746   -33.889631
 0.615000   15.564571   -34.811688
 0.620000   15.387629   -36.224837
 0.625000   15.202322   -38.165949
 0.630000   15.005970   -40.675695
 0.635000   14.795565   -43.558630
 0.640000   14.570383   -46.432546
 0.645000   14.331240   -49.224962
 0.650000   14.078134   -51.727729
 0.655000   13.813963   -53.833450
 0.660000   13.539799   -55.806324
 0.665000   13.255899   -57.855445
 0.670000   12.961245   -59.761375
 0.675000   12.658286   -61.669624
 0.680000   12.344549   -64.059397
 0.685000   12.017692   -66.713041
 0.690000   11.677418   -69.220077
 0.695000   11.325491   -71.340659
 0.700000   10.964012   -70.739004
 0.705000   10.618101   -67.206909
 0.710000   10.291943   -62.786500
 0.715000   9.990236   -57.319080
 0.720000   9.718752   -51.043785
 0.725000   9.479798   -45.042516
 0.730000   9.268327   -37.972711
 0.735000   9.100071   -31.210167
 0.740000   8.956225   -27.225638
 0.745000   8.827815   -24.871521
 0.750000   8.707510   -23.991696
 0.755000   8.587898   -24.024810
 0.760000   8.467262   -25.251166
 0.765000   8.335386   -27.158287
 0.770000   8.195679   -28.335687
 0.775000   8.052029   -28.741173
 0.780000   7.908267   -28.222489
 0.785000   7.769804   -26.342752
 0.790000   7.644839   -25.271565
 0.795000   7.517089   -26.357796
 0.800000   7.381261   -29.249212
 0.805000   7.224596   -34.971377
 0.810000   7.031548   -43.704545
 0.815000   6.787551   -55.152381
 0.820000   6.480024   -68.345371
 0.825000   6.104097   -79.754573
 0.830000   5.682478   -86.874383
 0.835000   5.235353   -89.444902
 0.840000   4.788029   -86.926212
 0.845000   4.366091   -79.721556
 0.850000   3.990814   -69.301258
 0.855000   3.673079   -59.066191
 0.860000   3.400152   -52.076722
 0.865000   3.152312   -50.441595
 0.870000   2.895736   -56.749806
 0.875000   2.584813   -73.435340
 0.880000   2.161382   -102.800178
 0.885000   1.556812   -147.424061
 0.890000   0.687142   -211.777346
 0.895000   -0.560962   -302.189115
 0.900000   -2.334749   -424.386251
 0.905000   -4.804824   -586.484197
 0.910000   -8.199591   -797.358948
 0.915000   -12.778414   -1062.100163
 0.920000   -18.820593   -1388.457773
 0.925000   -26.662992   -1777.588229
 0.930000   -36.596475   -2217.623234
 0.935000   -48.839224   -2683.216432
 0.940000   -63.428640   -3114.836142
 0.945000   -79.987585   -3395.369098
 0.950000   -97.382331   -3385.479243
 0.955000   -113.842378   -2932.747402
 0.960000   -126.709805   -1915.461348
 0.965000   -132.996991   -384.112649
 0.970000   -130.550931   1376.577206
 0.975000   -119.231219   2931.966719
 0.980000   -101.231264   3877.121393
 0.985000   -80.460005   4120.353932
 0.990000   -60.027725   3889.842378
 0.995000   -41.561581   3413.297224
 1.000000   -25.894752   2853.434387
201 psinorm omepp() domepp/dpsiN
 0.000000   29.731369   -28.533286
 0.005000   29.566961   -37.229849
 0.010000   29.359070   -41.453879
 0.015000   29.152422   -41.205942
 0.020000   28.947011   -40.959134
 0.025000   28.742831   -40.713452
 0.030000   28.539876   -40.468895
 0.035000   28.338142   -40.225459
 0.040000   28.137622   -39.983142
 0.045000   27.938310   -39.741942
 0.050000   27.740202   -39.501856
 0.055000   27.543292   -39.262882
 0.060000   27.347573   -39.025017
 0.065000   27.153042   -38.788258
 0.070000   26.959691   -38.552604
 0.075000   26.767516   -38.318051
 0.080000   26.576510   -38.084596
 0.085000   26.386670   -37.852239
 0.090000   26.197988   -37.620974
 0.095000   26.010460   -37.390801
 0.100000   25.824080   -37.161717
 0.105000   25.638843   -36.933718
 0.110000   25.454743   -36.706802
 0.115000   25.271775   -36.480966
 0.120000   25.089933   -36.256208
 0.125000   24.909213   -36.032525
 0.130000   24.729608   -35.809915
 0.135000   24.551113   -35.588374
 0.140000   24.373724   -35.367900
 0.145000   24.197434   -35.148489
 0.150000   24.022239   -34.930140
 0.155000   23.848133   -34.712850
 0.160000   23.675111   -34.496615
 0.165000   23.503167   -34.281433
 0.170000   23.332296   -34.067302
 0.175000   23.162494   -33.854217
 0.180000   22.993754   -33.642177
 0.185000   22.826072   -33.431178
 0.190000   22.659442   -33.221219
 0.195000   22.493860   -33.012295
 0.200000   22.329319   -32.804403
 0.205000   22.165816   -32.597542
 0.210000   22.003344   -32.391709
 0.215000   21.841899   -32.186899
 0.220000   21.681475   -31.983111
 0.225000   21.522068   -31.780341
 0.230000   21.363672   -31.578587
 0.235000   21.206282   -31.377845
 0.240000   21.049893   -31.178113
 0.245000   20.894501   -30.979388
 0.250000   20.740099   -30.781666
 0.255000   20.586684   -30.584945
 0.260000   20.434250   -30.389222
 0.265000   20.282792   -30.194493
 0.270000   20.132305   -30.000756
 0.275000   19.982784   -29.808008
 0.280000   19.834225   -29.616245
 0.285000   19.686622   -29.425466
 0.290000   19.539970   -29.235666
 0.295000   19.394265   -29.046842
 0.300000   19.249502   -28.858992
 0.305000   19.105675   -28.672113
 0.310000   18.962781   -28.486201
 0.315000   18.820813   -28.301254
 0.320000   18.679768   -28.117268
 0.325000   18.539641   -27.934241
 0.330000   18.400426   -27.752169
 0.335000   18.262119   -27.571049
 0.340000   18.124715   -27.390878
 0.345000   17.988210   -27.211654
 0.350000   17.852599   -27.033373
 0.355000   17.717876   -26.856031
 0.360000   17.584038   -26.679627
 0.365000   17.451080   -26.504156
 0.370000   17.318997   -26.329616
 0.375000   17.187784   -26.156005
 0.380000   17.057437   -25.983318
 0.385000   16.927951   -25.811552
 0.390000   16.799321   -25.640706
 0.395000   16.671544   -25.470775
 0.400000   16.544613   -25.301758
 0.405000   16.418526   -25.133650
 0.410000   16.293277   -24.966449
 0.415000   16.168862   -24.800153
 0.420000   16.045275   -24.634758
 0.425000   15.922514   -24.470262
 0.430000   15.800573   -24.306662
 0.435000   15.679447   -24.143956
 0.440000   15.559133   -23.982141
 0.445000   15.439626   -23.821215
 0.450000   15.320921   -23.661175
 0.455000   15.203014   -23.502021
 0.460000   15.085901   -23.343749
 0.465000   14.969577   -23.186358
 0.470000   14.854037   -23.029848
 0.475000   14.739278   -22.874217
 0.480000   14.625295   -22.719465
 0.485000   14.512084   -22.565592
 0.490000   14.399639   -22.412598
 0.495000   14.287958   -22.260484
 0.500000   14.177034   -22.109253
 0.505000   14.066865   -21.958907
 0.510000   13.957445   -21.809450
 0.515000   13.848771   -21.660888
 0.520000   13.740836   -21.513226
 0.525000   13.633638   -21.366474
 0.530000   13.527172   -21.220642
 0.535000   13.421432   -21.075743
 0.540000   13.316414   -20.931792
 0.545000   13.212114   -20.788808
 0.550000   13.108526   -20.646815
 0.555000   13.005646   -20.505839
 0.560000   12.903468   -20.365914
 0.565000   12.801987   -20.227078
 0.570000   12.701197   -20.089379
 0.575000   12.601093   -19.952872
 0.580000   12.501668   -19.817622
 0.585000   12.402917   -19.683707
 0.590000   12.304831   -19.551219
 0.595000   12.207405   -19.420267
 0.600000   12.110629   -19.290979
 0.605000   12.014495   -19.163505
 0.610000   11.918994   -19.038024
 0.615000   11.824115   -18.914744
 0.620000   11.729846   -18.793913
 0.625000   11.636175   -18.675819
 0.630000   11.543088   -18.560803
 0.635000   11.450567   -18.449264
 0.640000   11.358595   -18.341673
 0.645000   11.267151   -18.238578
 0.650000   11.176209   -18.140626
 0.655000   11.085744   -18.048574
 0.660000   10.995724   -17.963307
 0.665000   10.906111   -17.885862
 0.670000   10.816865   -17.817455
 0.675000   10.727937   -17.759504
 0.680000   10.639270   -17.713666
 0.685000   10.550800   -17.681879
 0.690000   10.462451   -17.666400
 0.695000   10.374136   -17.669860
 0.700000   10.285753   -17.695323
 0.705000   10.197183   -17.746352
 0.710000   10.108289   -17.827085
 0.715000   10.018912   -17.942320
 0.720000   9.928866   -18.097615
 0.725000   9.837936   -18.299395
 0.730000   9.745872   -18.555070
 0.735000   9.652385   -18.873172
 0.740000   9.557140   -19.263496
 0.745000   9.459750   -19.737254
 0.750000   9.359768   -20.307238
 0.755000   9.256678   -20.987980
 0.760000   9.149888   -21.795916
 0.765000   9.038719   -22.749525
 0.770000   8.922393   -23.869446
 0.775000   8.800024   -25.178536
 0.780000   8.670607   -26.701843
 0.785000   8.533006   -28.466452
 0.790000   8.385943   -30.501136
 0.795000   8.227994   -32.835728
 0.800000   8.057586   -35.500105
 0.805000   7.872993   -38.522602
 0.810000   7.672360   -41.927659
 0.815000   7.453717   -45.732387
 0.820000   7.215036   -49.941648
 0.825000   6.954300   -54.541097
 0.830000   6.669625   -59.487458
 0.835000   6.359426   -64.695015
 0.840000   6.022675   -70.017033
 0.845000   5.659255   -75.220337
 0.850000   5.270471   -79.950838
 0.855000   4.859747   -83.687128
 0.860000   4.433600   -85.678660
 0.865000   4.002960   -84.864443
 0.870000   3.584955   -79.767922
 0.875000   3.205281   -68.364291
 0.880000   2.901313   -47.918745
 0.885000   2.726094   -14.799682
 0.890000   2.753316   35.718000
 0.895000   3.083274   109.623991
 0.900000   3.849556   214.248302
 0.905000   5.225757   358.118834
 0.910000   7.430744   550.403305
 0.915000   10.729790   799.645480
 0.920000   15.427199   1111.412278
 0.925000   21.843913   1484.411389
 0.930000   30.271313   1904.682823
 0.935000   40.890741   2337.731597
 0.940000   53.648629   2719.246950
 0.945000   68.083210   2947.126011
 0.950000   83.119889   2882.362432
 0.955000   96.906835   2374.453513
 0.960000   106.864424   1330.886043
 0.965000   110.215695   -173.335737
 0.970000   105.131067   -1819.061857
 0.975000   92.025077   -3125.138656
 0.980000   73.879680   -3712.118648
 0.985000   54.903890   -3540.789602
 0.990000   38.471784   -2887.986955
 0.995000   26.024020   -2107.862716
 1.000000   17.393157   -1344.482766
201 psinorm kpol(km/s/T) dkpol/dpsiN
 0.000000   0.007894   68.650974
 0.005000   0.287766   43.297865
 0.010000   0.440873   29.466345
 0.015000   0.582430   27.822905
 0.020000   0.719102   27.054200
 0.025000   0.852972   26.216654
 0.030000   0.981268   24.899238
 0.035000   1.101964   23.657266
 0.040000   1.217841   22.651854
 0.045000   1.328482   21.746310
 0.050000   1.435304   21.255612
 0.055000   1.541039   21.391304
 0.060000   1.649217   22.155020
 0.065000   1.762589   23.236278
 0.070000   1.881580   24.514269
 0.075000   2.007731   25.915241
 0.080000   2.140732   27.194599
 0.085000   2.279677   28.370379
 0.090000   2.424436   29.174526
 0.095000   2.571423   29.452610
 0.100000   2.718962   29.350593
 0.105000   2.864929   28.924239
 0.110000   3.008205   28.154102
 0.115000   3.146470   27.009728
 0.120000   3.278302   25.646458
 0.125000   3.402934   24.428261
 0.130000   3.522584   23.364680
 0.135000   3.636581   22.416163
 0.140000   3.746746   21.700841
 0.145000   3.853589   21.157889
 0.150000   3.958325   20.616423
 0.155000   4.059754   20.008221
 0.160000   4.158407   19.348323
 0.165000   4.253237   18.607204
 0.170000   4.344479   17.808932
 0.175000   4.431326   16.821907
 0.180000   4.512698   15.785558
 0.185000   4.589182   14.620315
 0.190000   4.658901   13.404489
 0.195000   4.723227   12.209483
 0.200000   4.780996   10.954936
 0.205000   4.832776   9.793171
 0.210000   4.878928   8.797220
 0.215000   4.920748   8.166777
 0.220000   4.960596   7.684041
 0.225000   4.997589   7.200171
 0.230000   5.032597   6.838514
 0.235000   5.065974   6.459756
 0.240000   5.097195   6.028777
 0.245000   5.126262   5.488669
 0.250000   5.152082   4.765756
 0.255000   5.173919   4.057283
 0.260000   5.192654   3.270226
 0.265000   5.206621   2.269668
 0.270000   5.215351   1.319877
 0.275000   5.219820   0.327476
 0.280000   5.218626   -0.749644
 0.285000   5.212324   -1.708146
 0.290000   5.201544   -2.758389
 0.295000   5.184740   -3.846082
 0.300000   5.163084   -4.847205
 0.305000   5.136268   -5.981784
 0.310000   5.103266   -7.161808
 0.315000   5.064650   -8.331517
 0.320000   5.019951   -9.664387
 0.325000   4.968006   -11.063126
 0.330000   4.909319   -12.453250
 0.335000   4.843473   -13.919951
 0.340000   4.770120   -15.342725
 0.345000   4.690046   -16.656084
 0.350000   4.603559   -17.914211
 0.355000   4.510904   -19.109932
 0.360000   4.412460   -20.269647
 0.365000   4.308208   -21.558859
 0.370000   4.196871   -23.012319
 0.375000   4.078084   -24.573500
 0.380000   3.951136   -26.474742
 0.385000   3.813337   -28.731818
 0.390000   3.663818   -31.146274
 0.395000   3.501874   -33.745562
 0.400000   3.326362   -36.533521
 0.405000   3.136539   -39.285380
 0.410000   2.933509   -42.090615
 0.415000   2.715633   -45.416211
 0.420000   2.479346   -49.712731
 0.425000   2.218506   -55.379213
 0.430000   1.925554   -62.698179
 0.435000   1.591524   -71.974173
 0.440000   1.205813   -83.872776
 0.445000   0.752796   -97.328888
 0.450000   0.232524   -111.201201
 0.455000   -0.359216   -125.642731
 0.460000   -1.023904   -139.970968
 0.465000   -1.758926   -153.455106
 0.470000   -2.558455   -164.596173
 0.475000   -3.404887   -171.575730
 0.480000   -4.274212   -173.779699
 0.485000   -5.142684   -171.233895
 0.490000   -5.986551   -164.188048
 0.495000   -6.784565   -152.160151
 0.500000   -7.508152   -135.949070
 0.505000   -8.144056   -119.225062
 0.510000   -8.700403   -103.727273
 0.515000   -9.181328   -89.460293
 0.520000   -9.595006   -77.233242
 0.525000   -9.953661   -67.600998
 0.530000   -10.271016   -61.534779
 0.535000   -10.569009   -58.759257
 0.540000   -10.858609   -57.719907
 0.545000   -11.146208   -57.533148
 0.550000   -11.433940   -57.652042
 0.555000   -11.722728   -58.223794
 0.560000   -12.016178   -58.845214
 0.565000   -12.311180   -58.568568
 0.570000   -12.601864   -57.260055
 0.575000   -12.883781   -55.086280
 0.580000   -13.152726   -51.864797
 0.585000   -13.402429   -47.456534
 0.590000   -13.627292   -41.869213
 0.595000   -13.821121   -35.434455
 0.600000   -13.981636   -28.536175
 0.605000   -14.106483   -21.393450
 0.610000   -14.195571   -14.488903
 0.615000   -14.251372   -8.071092
 0.620000   -14.276282   -2.309746
 0.625000   -14.274469   2.630702
 0.630000   -14.249975   6.706800
 0.635000   -14.207401   10.090878
 0.640000   -14.149066   13.015942
 0.645000   -14.077242   15.544429
 0.650000   -13.993622   17.932469
 0.655000   -13.897917   20.370797
 0.660000   -13.789914   22.815107
 0.665000   -13.669766   25.147001
 0.670000   -13.538444   27.366592
 0.675000   -13.396100   29.567094
 0.680000   -13.242773   31.894604
 0.685000   -13.077154   34.710912
 0.690000   -12.895664   38.471103
 0.695000   -12.692443   43.512599
 0.700000   -12.460538   50.407218
 0.705000   -12.188371   59.296975
 0.710000   -11.867568   69.070424
 0.715000   -11.497666   78.894680
 0.720000   -11.078621   88.297939
 0.725000   -10.614687   96.410107
 0.730000   -10.114520   102.482830
 0.735000   -9.589859   104.907877
 0.740000   -9.065441   102.498348
 0.745000   -8.564875   95.744979
 0.750000   -8.107991   85.355071
 0.755000   -7.711325   72.230335
 0.760000   -7.385688   57.233718
 0.765000   -7.138987   42.156074
 0.770000   -6.964127   28.820626
 0.775000   -6.850781   17.496905
 0.780000   -6.789158   7.902356
 0.785000   -6.771758   -0.739106
 0.790000   -6.796549   -9.884073
 0.795000   -6.870598   -21.349221
 0.800000   -7.010042   -36.507638
 0.805000   -7.235675   -56.083861
 0.810000   -7.570880   -80.142816
 0.815000   -8.037103   -107.737014
 0.820000   -8.648250   -136.998890
 0.825000   -9.407092   -163.097013
 0.830000   -10.279220   -181.836830
 0.835000   -11.225460   -191.648809
 0.840000   -12.195709   -191.190907
 0.845000   -13.137369   -180.660165
 0.850000   -14.002310   -161.643184
 0.855000   -14.753801   -138.445504
 0.860000   -15.386765   -114.771431
 0.865000   -15.901515   -92.087433
 0.870000   -16.307640   -72.025651
 0.875000   -16.621772   -54.747752
 0.880000   -16.855117   -40.223655
 0.885000   -17.024008   -28.435094
 0.890000   -17.139468   -18.089618
 0.895000   -17.204905   -8.249254
 0.900000   -17.221961   1.401179
 0.905000   -17.190893   11.755069
 0.910000   -17.104410   22.367696
 0.915000   -16.967216   31.488387
 0.920000   -16.789526   39.213183
 0.925000   -16.575084   49.063867
 0.930000   -16.298887   59.093044
 0.935000   -15.984154   67.397529
 0.940000   -15.624912   78.625821
 0.945000   -15.197895   95.480071
 0.950000   -14.670111   113.561192
 0.955000   -14.062283   127.141616
 0.960000   -13.398695   132.505892
 0.965000   -12.737224   125.365061
 0.970000   -12.145045   111.994988
 0.975000   -11.617275   123.577516
 0.980000   -10.909269   220.253779
 0.985000   -9.414737   459.396809
 0.990000   -6.315301   830.772096
 0.995000   -1.107016   1184.011124
 1.000000   5.524810   1468.719162
201 psinorm omghb() domghb/dpsiN
 0.000000   -0.000050   0.074267
 0.005000   0.000281   0.058314
 0.010000   0.000533   0.067564
 0.015000   0.000957   0.094746
 0.020000   0.001480   0.112388
 0.025000   0.002081   0.130396
 0.030000   0.002784   0.155622
 0.035000   0.003637   0.180324
 0.040000   0.004588   0.198801
 0.045000   0.005625   0.212027
 0.050000   0.006708   0.212695
 0.055000   0.007752   0.207470
 0.060000   0.008783   0.198988
 0.065000   0.009742   0.183772
 0.070000   0.010620   0.169666
 0.075000   0.011438   0.168565
 0.080000   0.012306   0.177071
 0.085000   0.013209   0.180431
 0.090000   0.014110   0.199452
 0.095000   0.015204   0.217944
 0.100000   0.016290   0.257412
 0.105000   0.017778   0.299209
 0.110000   0.019282   0.307688
 0.115000   0.020855   0.322639
 0.120000   0.022508   0.346322
 0.125000   0.024318   0.379111
 0.130000   0.026299   0.390930
 0.135000   0.028227   0.358526
 0.140000   0.029885   0.316283
 0.145000   0.031390   0.297438
 0.150000   0.032859   0.294351
 0.155000   0.034334   0.289482
 0.160000   0.035754   0.283367
 0.165000   0.037167   0.271519
 0.170000   0.038469   0.270720
 0.175000   0.039874   0.258259
 0.180000   0.041051   0.251138
 0.185000   0.042386   0.247595
 0.190000   0.043527   0.233009
 0.195000   0.044716   0.293804
 0.200000   0.046465   0.308393
 0.205000   0.047800   0.266255
 0.210000   0.049128   0.258703
 0.215000   0.050387   0.229834
 0.220000   0.051426   0.233171
 0.225000   0.052719   0.212325
 0.230000   0.053550   0.152898
 0.235000   0.054248   0.110570
 0.240000   0.054655   0.071467
 0.245000   0.054962   0.077059
 0.250000   0.055426   0.087288
 0.255000   0.055835   -0.122551
 0.260000   0.054200   -0.247451
 0.265000   0.053361   -0.209158
 0.270000   0.052109   -0.239152
 0.275000   0.050969   -0.219813
 0.280000   0.049911   -0.244775
 0.285000   0.048521   -0.270237
 0.290000   0.047208   -0.216360
 0.295000   0.046358   -0.193395
 0.300000   0.045274   -0.184880
 0.305000   0.044509   -0.153266
 0.310000   0.043742   -0.214181
 0.315000   0.042367   0.090503
 0.320000   0.044647   0.370907
 0.325000   0.046076   0.256954
 0.330000   0.047216   0.247048
 0.335000   0.048547   0.257962
 0.340000   0.049796   0.280873
 0.345000   0.051355   0.234633
 0.350000   0.052142   0.116521
 0.355000   0.052521   0.047627
 0.360000   0.052618   0.008127
 0.365000   0.052602   0.008732
 0.370000   0.052706   0.122289
 0.375000   0.053825   -0.007308
 0.380000   0.052633   -0.215796
 0.385000   0.051667   -0.157350
 0.390000   0.051059   -0.093760
 0.395000   0.050729   -0.024580
 0.400000   0.050813   -0.029570
 0.405000   0.050434   -0.003483
 0.410000   0.050779   0.230756
 0.415000   0.052741   0.509356
 0.420000   0.055872   0.873829
 0.425000   0.061479   1.368374
 0.430000   0.069556   1.708748
 0.435000   0.078567   2.081866
 0.440000   0.090375   2.565991
 0.445000   0.104227   2.842463
 0.450000   0.118799   3.151596
 0.455000   0.135743   3.206537
 0.460000   0.150865   2.804693
 0.465000   0.163790   2.410005
 0.470000   0.174965   1.946014
 0.475000   0.183250   1.168110
 0.480000   0.186646   -0.045000
 0.485000   0.182800   -1.250256
 0.490000   0.174143   -2.122670
 0.495000   0.161573   -2.836984
 0.500000   0.145773   -3.309683
 0.505000   0.128476   -3.458736
 0.510000   0.111186   -3.580610
 0.515000   0.092670   -3.055247
 0.520000   0.080633   -2.052792
 0.525000   0.072142   -1.383466
 0.530000   0.066799   -0.797646
 0.535000   0.064166   -0.288218
 0.540000   0.063917   0.148129
 0.545000   0.065647   0.366493
 0.550000   0.067582   0.437652
 0.555000   0.070024   0.543003
 0.560000   0.073012   0.546605
 0.565000   0.075490   0.505648
 0.570000   0.078068   0.480686
 0.575000   0.080296   0.354536
 0.580000   0.081613   0.190470
 0.585000   0.082201   0.091744
 0.590000   0.082531   -0.020363
 0.595000   0.081998   -0.089980
 0.600000   0.081631   -0.054356
 0.605000   0.081454   0.039533
 0.610000   0.082026   0.222789
 0.615000   0.083682   0.409967
 0.620000   0.086126   0.563066
 0.625000   0.089313   0.734167
 0.630000   0.093468   0.877599
 0.635000   0.098089   0.916273
 0.640000   0.102630   0.915302
 0.645000   0.107242   0.950127
 0.650000   0.112132   0.839226
 0.655000   0.115634   0.678780
 0.660000   0.118920   0.633012
 0.665000   0.121964   0.627374
 0.670000   0.125193   0.687520
 0.675000   0.128839   0.881884
 0.680000   0.134012   1.032837
 0.685000   0.139167   0.875451
 0.690000   0.142767   0.573983
 0.695000   0.144907   0.203579
 0.700000   0.144802   -0.355972
 0.705000   0.141348   -0.733193
 0.710000   0.137470   -1.373828
 0.715000   0.127609   -2.339422
 0.720000   0.114076   -2.407503
 0.725000   0.103534   -2.040702
 0.730000   0.093669   -1.820128
 0.735000   0.085333   -1.384584
 0.740000   0.079823   -1.040910
 0.745000   0.074924   -0.548966
 0.750000   0.074334   0.207632
 0.755000   0.077000   0.699012
 0.760000   0.081324   0.916239
 0.765000   0.086163   0.786705
 0.770000   0.089191   0.554748
 0.775000   0.091710   0.560024
 0.780000   0.094791   0.412689
 0.785000   0.095837   0.358945
 0.790000   0.098381   0.694707
 0.795000   0.102784   1.250852
 0.800000   0.110889   2.402085
 0.805000   0.126805   4.050691
 0.810000   0.151396   5.216364
 0.815000   0.178969   5.735606
 0.820000   0.208752   5.828603
 0.825000   0.237255   5.224900
 0.830000   0.261001   3.911968
 0.835000   0.276374   1.905314
 0.840000   0.280054   -0.015768
 0.845000   0.276217   -1.266663
 0.850000   0.267388   -1.935505
 0.855000   0.256862   -1.962401
 0.860000   0.247764   -1.445279
 0.865000   0.242409   -0.322905
 0.870000   0.244535   1.163419
 0.875000   0.254043   2.576164
 0.880000   0.270296   3.826654
 0.885000   0.292309   4.762013
 0.890000   0.317916   6.160992
 0.895000   0.353919   6.430030
 0.900000   0.382217   6.006860
 0.905000   0.413988   6.122744
 0.910000   0.443444   6.119468
 0.915000   0.475183   6.149571
 0.920000   0.504940   8.204398
 0.925000   0.557227   7.656301
 0.930000   0.581503   8.213730
 0.935000   0.639364   14.040385
 0.940000   0.721907   18.848183
 0.945000   0.827846   23.287206
 0.950000   0.954779   31.107392
 0.955000   1.138920   21.475953
 0.960000   1.169538   -3.895998
 0.965000   1.099960   -30.880950
 0.970000   0.860729   -69.216267
 0.975000   0.407797   -113.967342
 0.980000   -0.278945   -155.549950
 0.985000   -1.147702   -179.005345
 0.990000   -2.068998   -155.610469
 0.995000   -2.703807   -69.793825
 1.000000   -2.766936   44.542113
201 psinorm nz1(10^20/m^3) dnz1/dpsiN
 0.000000   0.015526   0.000001
 0.005000   0.015526   -0.000055
 0.010000   0.015525   -0.000112
 0.015000   0.015525   -0.000170
 0.020000   0.015524   -0.000230
 0.025000   0.015522   -0.000292
 0.030000   0.015521   -0.000356
 0.035000   0.015519   -0.000421
 0.040000   0.015517   -0.000488
 0.045000   0.015514   -0.000556
 0.050000   0.015511   -0.000626
 0.055000   0.015508   -0.000698
 0.060000   0.015504   -0.000771
 0.065000   0.015500   -0.000845
 0.070000   0.015496   -0.000921
 0.075000   0.015491   -0.000999
 0.080000   0.015486   -0.001079
 0.085000   0.015480   -0.001162
 0.090000   0.015474   -0.001246
 0.095000   0.015468   -0.001332
 0.100000   0.015461   -0.001419
 0.105000   0.015453   -0.001508
 0.110000   0.015446   -0.001598
 0.115000   0.015437   -0.001690
 0.120000   0.015429   -0.001783
 0.125000   0.015420   -0.001876
 0.130000   0.015410   -0.001970
 0.135000   0.015400   -0.002062
 0.140000   0.015389   -0.002155
 0.145000   0.015378   -0.002247
 0.150000   0.015367   -0.002337
 0.155000   0.015355   -0.002427
 0.160000   0.015343   -0.002514
 0.165000   0.015330   -0.002600
 0.170000   0.015317   -0.002684
 0.175000   0.015303   -0.002766
 0.180000   0.015289   -0.002846
 0.185000   0.015274   -0.002924
 0.190000   0.015260   -0.002998
 0.195000   0.015244   -0.003068
 0.200000   0.015229   -0.003134
 0.205000   0.015213   -0.003194
 0.210000   0.015197   -0.003249
 0.215000   0.015181   -0.003298
 0.220000   0.015164   -0.003341
 0.225000   0.015147   -0.003379
 0.230000   0.015130   -0.003413
 0.235000   0.015113   -0.003443
 0.240000   0.015096   -0.003467
 0.245000   0.015078   -0.003487
 0.250000   0.015061   -0.003500
 0.255000   0.015043   -0.003508
 0.260000   0.015026   -0.003507
 0.265000   0.015008   -0.003496
 0.270000   0.014991   -0.003473
 0.275000   0.014974   -0.003440
 0.280000   0.014957   -0.003394
 0.285000   0.014940   -0.003335
 0.290000   0.014923   -0.003261
 0.295000   0.014907   -0.003173
 0.300000   0.014891   -0.003070
 0.305000   0.014876   -0.002954
 0.310000   0.014862   -0.002824
 0.315000   0.014848   -0.002681
 0.320000   0.014835   -0.002526
 0.325000   0.014823   -0.002363
 0.330000   0.014811   -0.002191
 0.335000   0.014801   -0.002014
 0.340000   0.014791   -0.001830
 0.345000   0.014783   -0.001643
 0.350000   0.014775   -0.001451
 0.355000   0.014768   -0.001254
 0.360000   0.014762   -0.001051
 0.365000   0.014758   -0.000840
 0.370000   0.014754   -0.000621
 0.375000   0.014751   -0.000394
 0.380000   0.014750   -0.000159
 0.385000   0.014750   0.000083
 0.390000   0.014751   0.000329
 0.395000   0.014753   0.000578
 0.400000   0.014757   0.000828
 0.405000   0.014761   0.001076
 0.410000   0.014767   0.001319
 0.415000   0.014775   0.001555
 0.420000   0.014783   0.001782
 0.425000   0.014792   0.001998
 0.430000   0.014803   0.002202
 0.435000   0.014814   0.002392
 0.440000   0.014827   0.002567
 0.445000   0.014840   0.002732
 0.450000   0.014854   0.002885
 0.455000   0.014869   0.003027
 0.460000   0.014884   0.003157
 0.465000   0.014901   0.003277
 0.470000   0.014917   0.003387
 0.475000   0.014934   0.003484
 0.480000   0.014952   0.003566
 0.485000   0.014970   0.003629
 0.490000   0.014988   0.003671
 0.495000   0.015007   0.003690
 0.500000   0.015025   0.003684
 0.505000   0.015044   0.003653
 0.510000   0.015062   0.003594
 0.515000   0.015080   0.003509
 0.520000   0.015097   0.003398
 0.525000   0.015114   0.003259
 0.530000   0.015129   0.003093
 0.535000   0.015144   0.002903
 0.540000   0.015158   0.002690
 0.545000   0.015171   0.002454
 0.550000   0.015183   0.002196
 0.555000   0.015193   0.001915
 0.560000   0.015202   0.001611
 0.565000   0.015209   0.001286
 0.570000   0.015215   0.000937
 0.575000   0.015219   0.000565
 0.580000   0.015221   0.000169
 0.585000   0.015221   -0.000250
 0.590000   0.015218   -0.000691
 0.595000   0.015214   -0.001153
 0.600000   0.015207   -0.001633
 0.605000   0.015197   -0.002130
 0.610000   0.015185   -0.002642
 0.615000   0.015171   -0.003166
 0.620000   0.015154   -0.003701
 0.625000   0.015134   -0.004246
 0.630000   0.015111   -0.004805
 0.635000   0.015086   -0.005378
 0.640000   0.015057   -0.005966
 0.645000   0.015026   -0.006567
 0.650000   0.014992   -0.007187
 0.655000   0.014954   -0.007822
 0.660000   0.014914   -0.008464
 0.665000   0.014870   -0.009110
 0.670000   0.014822   -0.009757
 0.675000   0.014772   -0.010403
 0.680000   0.014718   -0.011065
 0.685000   0.014661   -0.011778
 0.690000   0.014601   -0.012571
 0.695000   0.014536   -0.013459
 0.700000   0.014466   -0.014445
 0.705000   0.014391   -0.015526
 0.710000   0.014311   -0.016737
 0.715000   0.014224   -0.018036
 0.720000   0.014130   -0.019307
 0.725000   0.014031   -0.020529
 0.730000   0.013925   -0.021693
 0.735000   0.013814   -0.022759
 0.740000   0.013698   -0.023701
 0.745000   0.013577   -0.024440
 0.750000   0.013453   -0.024883
 0.755000   0.013328   -0.025034
 0.760000   0.013203   -0.024908
 0.765000   0.013079   -0.024508
 0.770000   0.012958   -0.023820
 0.775000   0.012841   -0.022856
 0.780000   0.012729   -0.021742
 0.785000   0.012623   -0.020566
 0.790000   0.012524   -0.019341
 0.795000   0.012430   -0.018107
 0.800000   0.012342   -0.016880
 0.805000   0.012261   -0.015692
 0.810000   0.012186   -0.014622
 0.815000   0.012115   -0.013678
 0.820000   0.012049   -0.012809
 0.825000   0.011987   -0.011994
 0.830000   0.011929   -0.011204
 0.835000   0.011875   -0.010410
 0.840000   0.011825   -0.009610
 0.845000   0.011779   -0.008817
 0.850000   0.011737   -0.008037
 0.855000   0.011698   -0.007276
 0.860000   0.011664   -0.006541
 0.865000   0.011633   -0.005836
 0.870000   0.011605   -0.005180
 0.875000   0.011581   -0.004591
 0.880000   0.011560   -0.004064
 0.885000   0.011540   -0.003591
 0.890000   0.011524   -0.003158
 0.895000   0.011509   -0.002775
 0.900000   0.011496   -0.002433
 0.905000   0.011485   -0.002142
 0.910000   0.011474   -0.001961
 0.915000   0.011465   -0.001986
 0.920000   0.011455   -0.002421
 0.925000   0.011441   -0.003781
 0.930000   0.011417   -0.006926
 0.935000   0.011371   -0.013261
 0.940000   0.011284   -0.024944
 0.945000   0.011122   -0.044603
 0.950000   0.010838   -0.074557
 0.955000   0.010376   -0.116468
 0.960000   0.009673   -0.165976
 0.965000   0.008717   -0.212057
 0.970000   0.007553   -0.242605
 0.975000   0.006291   -0.248423
 0.980000   0.005069   -0.228661
 0.985000   0.004004   -0.191216
 0.990000   0.003157   -0.147494
 0.995000   0.002529   -0.107202
 1.000000   0.002085   -0.070632
201 psinorm vtor1(km/s) dvtor1/dpsiN
 0.000000   109.425769   547.873105
 0.005000   111.550020   301.827630
 0.010000   112.444045   157.080836
 0.015000   113.120829   123.344343
 0.020000   113.677488   103.252750
 0.025000   114.153356   89.608889
 0.030000   114.573577   79.356323
 0.035000   114.946919   70.056891
 0.040000   115.274146   61.618236
 0.045000   115.563102   54.160838
 0.050000   115.815754   46.924858
 0.055000   116.032350   39.726516
 0.060000   116.213020   32.819090
 0.065000   116.360541   26.280486
 0.070000   116.475825   19.860833
 0.075000   116.559150   13.680352
 0.080000   116.612628   7.772291
 0.085000   116.636873   1.987806
 0.090000   116.632506   -3.837685
 0.095000   116.598496   -9.621243
 0.100000   116.536294   -15.230728
 0.105000   116.446188   -20.872084
 0.110000   116.327573   -26.572350
 0.115000   116.180465   -32.165046
 0.120000   116.005922   -37.675268
 0.125000   115.803712   -43.262580
 0.130000   115.573297   -48.879102
 0.135000   115.314921   -54.564883
 0.140000   115.027648   -60.358141
 0.145000   114.711340   -66.135743
 0.150000   114.366290   -71.823103
 0.155000   113.993109   -77.432692
 0.160000   113.591963   -82.982570
 0.165000   113.163283   -88.372157
 0.170000   112.708242   -93.561710
 0.175000   112.227666   -98.563934
 0.180000   111.722602   -103.353525
 0.185000   111.194131   -107.886549
 0.190000   110.643737   -112.109884
 0.195000   110.073032   -116.051770
 0.200000   109.483219   -119.773546
 0.205000   108.875296   -123.181368
 0.210000   108.251406   -126.133154
 0.215000   107.613965   -128.586854
 0.220000   106.965537   -130.412535
 0.225000   106.309840   -131.466133
 0.230000   105.650876   -132.071988
 0.235000   104.989120   -132.435959
 0.240000   104.326516   -132.438376
 0.245000   103.664736   -132.144636
 0.250000   103.005070   -131.589486
 0.255000   102.348841   -130.606930
 0.260000   101.699000   -129.376996
 0.265000   101.055071   -128.085541
 0.270000   100.418145   -126.611268
 0.275000   99.788958   -125.019175
 0.280000   99.167953   -123.363675
 0.285000   98.555322   -121.670040
 0.290000   97.951253   -120.182148
 0.295000   97.353500   -118.982975
 0.300000   96.761423   -117.874849
 0.305000   96.174752   -116.773180
 0.310000   95.593691   -115.543782
 0.315000   95.019314   -114.034176
 0.320000   94.453350   -112.235671
 0.325000   93.896957   -110.201344
 0.330000   93.351336   -107.942159
 0.335000   92.817536   -105.479175
 0.340000   92.296544   -102.832610
 0.345000   91.789209   -99.955227
 0.350000   91.296992   -96.930738
 0.355000   90.819902   -93.882366
 0.360000   90.358168   -90.775276
 0.365000   89.912149   -87.611411
 0.370000   89.482054   -84.420386
 0.375000   89.067945   -81.208836
 0.380000   88.669966   -77.999087
 0.385000   88.287955   -74.793716
 0.390000   87.922029   -71.555309
 0.395000   87.572401   -68.275106
 0.400000   87.239278   -64.948498
 0.405000   86.922917   -61.562080
 0.410000   86.623657   -58.232005
 0.415000   86.340596   -55.146019
 0.420000   86.072197   -52.387063
 0.425000   85.816726   -49.975828
 0.430000   85.572439   -47.887811
 0.435000   85.337848   -46.166873
 0.440000   85.110770   -44.719639
 0.445000   84.890651   -43.205374
 0.450000   84.678716   -41.462550
 0.455000   84.476026   -39.476077
 0.460000   84.283955   -37.193033
 0.465000   84.104096   -34.644908
 0.470000   83.937506   -31.759529
 0.475000   83.786500   -28.346335
 0.480000   83.654043   -24.473353
 0.485000   83.541767   -20.313340
 0.490000   83.450909   -15.963414
 0.495000   83.382133   -11.540623
 0.500000   83.335503   -7.145505
 0.505000   83.310677   -2.904220
 0.510000   83.306461   1.016530
 0.515000   83.320843   4.495250
 0.520000   83.351414   7.465369
 0.525000   83.395496   9.898917
 0.530000   83.450403   11.793637
 0.535000   83.513433   13.139968
 0.540000   83.581802   13.935132
 0.545000   83.652784   14.169283
 0.550000   83.723495   13.801686
 0.555000   83.790801   12.789905
 0.560000   83.851394   11.075414
 0.565000   83.901555   8.584351
 0.570000   83.937238   5.246389
 0.575000   83.954019   0.983040
 0.580000   83.947068   -4.284505
 0.585000   83.911174   -10.625487
 0.590000   83.840813   -18.134995
 0.595000   83.729824   -26.692006
 0.600000   83.573893   -36.078704
 0.605000   83.369037   -46.193037
 0.610000   83.111963   -56.880080
 0.615000   82.800236   -67.985565
 0.620000   82.432107   -79.262567
 0.625000   82.007611   -90.552954
 0.630000   81.526578   -101.775001
 0.635000   80.989861   -112.751261
 0.640000   80.399065   -123.343638
 0.645000   79.756424   -133.445682
 0.650000   79.064608   -142.773160
 0.655000   78.328693   -151.465896
 0.660000   77.549949   -159.866175
 0.665000   76.730031   -167.995439
 0.670000   75.869995   -176.022354
 0.675000   74.969807   -184.150997
 0.680000   74.028485   -192.766203
 0.685000   73.042145   -202.026414
 0.690000   72.008221   -211.396257
 0.695000   70.928183   -220.217380
 0.700000   69.806047   -228.011129
 0.705000   68.648071   -234.401924
 0.710000   67.462028   -239.330544
 0.715000   66.254766   -242.663348
 0.720000   65.035394   -244.181087
 0.725000   63.812955   -243.943576
 0.730000   62.595959   -242.004095
 0.735000   61.392914   -238.388096
 0.740000   60.212078   -233.100762
 0.745000   59.061906   -226.234970
 0.750000   57.949728   -218.261412
 0.755000   56.879292   -209.780286
 0.760000   55.851925   -201.204056
 0.765000   54.867252   -192.781703
 0.770000   53.924108   -184.792860
 0.775000   53.019323   -177.320672
 0.780000   52.150901   -169.560002
 0.785000   51.323723   -160.920444
 0.790000   50.541697   -151.510529
 0.795000   49.808618   -141.466345
 0.800000   49.127033   -131.205906
 0.805000   48.496559   -121.191715
 0.810000   47.915116   -111.764876
 0.815000   47.378910   -103.633162
 0.820000   46.878785   -97.605811
 0.825000   46.402852   -94.170533
 0.830000   45.937079   -93.699293
 0.835000   45.465859   -96.399321
 0.840000   44.973086   -102.270558
 0.845000   44.443153   -111.201860
 0.850000   43.861067   -123.049286
 0.855000   43.212661   -137.682236
 0.860000   42.484245   -155.139917
 0.865000   41.661261   -175.998584
 0.870000   40.724259   -200.543822
 0.875000   39.655823   -228.525691
 0.880000   38.439002   -259.734577
 0.885000   37.058477   -293.686313
 0.890000   35.502139   -329.572639
 0.895000   33.762751   -367.639740
 0.900000   31.825742   -404.850037
 0.905000   29.714251   -437.485551
 0.910000   27.450886   -464.370818
 0.915000   25.070543   -483.071650
 0.920000   22.620170   -491.346029
 0.925000   20.157082   -488.332079
 0.930000   17.736849   -471.395160
 0.935000   15.443131   -439.351975
 0.940000   13.343329   -395.344167
 0.945000   11.489689   -343.035311
 0.950000   9.912976   -287.071246
 0.955000   8.618976   -231.768322
 0.960000   7.595293   -181.771679
 0.965000   6.801260   -140.762524
 0.970000   6.187668   -109.553540
 0.975000   5.705724   -87.532567
 0.980000   5.312342   -73.177888
 0.985000   4.973945   -64.135000
 0.990000   4.670992   -58.592802
 0.995000   4.388017   -55.308654
 1.000000   4.117905   -52.736120
201 psinorm vpol1(km/s) dvpol1/dpsiN
 0.000000   0.000070   2.657031
 0.005000   0.014656   3.177344
 0.010000   0.031844   3.689844
 0.015000   0.051555   4.155469
 0.020000   0.073398   4.555469
 0.025000   0.097109   4.876563
 0.030000   0.122164   5.085156
 0.035000   0.147961   5.228125
 0.040000   0.174445   5.349219
 0.045000   0.201453   5.456250
 0.050000   0.229008   5.593750
 0.055000   0.257391   5.810938
 0.060000   0.287117   6.137500
 0.065000   0.318766   6.532812
 0.070000   0.352445   6.968750
 0.075000   0.388453   7.445312
 0.080000   0.426898   7.914844
 0.085000   0.467602   8.375000
 0.090000   0.510648   8.763281
 0.095000   0.555234   9.035156
 0.100000   0.601000   9.228906
 0.105000   0.647523   9.328906
 0.110000   0.694289   9.333594
 0.115000   0.740859   9.235156
 0.120000   0.786641   9.063281
 0.125000   0.831492   8.898438
 0.130000   0.875625   8.753906
 0.135000   0.919031   8.621875
 0.140000   0.961844   8.535938
 0.145000   1.004391   8.477344
 0.150000   1.046617   8.413281
 0.155000   1.088523   8.324219
 0.160000   1.129859   8.203125
 0.165000   1.170555   8.059375
 0.170000   1.210453   7.882812
 0.175000   1.249383   7.654687
 0.180000   1.287000   7.384375
 0.185000   1.323227   7.079297
 0.190000   1.357793   6.738672
 0.195000   1.390613   6.385937
 0.200000   1.421652   6.024219
 0.205000   1.450855   5.658984
 0.210000   1.478242   5.356641
 0.215000   1.504422   5.136719
 0.220000   1.529609   4.953906
 0.225000   1.553961   4.798438
 0.230000   1.577594   4.646484
 0.235000   1.600426   4.502734
 0.240000   1.622621   4.339844
 0.245000   1.643824   4.123047
 0.250000   1.663852   3.876953
 0.255000   1.682594   3.598047
 0.260000   1.699832   3.288281
 0.265000   1.715477   2.943359
 0.270000   1.729266   2.568359
 0.275000   1.741160   2.183203
 0.280000   1.751098   1.790234
 0.285000   1.759062   1.397656
 0.290000   1.765074   0.986719
 0.295000   1.768930   0.570312
 0.300000   1.770777   0.150781
 0.305000   1.770438   -0.297656
 0.310000   1.767801   -0.763281
 0.315000   1.762805   -1.253125
 0.320000   1.755270   -1.780469
 0.325000   1.745000   -2.335547
 0.330000   1.731914   -2.915625
 0.335000   1.715844   -3.504297
 0.340000   1.696871   -4.079297
 0.345000   1.675051   -4.642969
 0.350000   1.650441   -5.170313
 0.355000   1.623348   -5.670313
 0.360000   1.593738   -6.185938
 0.365000   1.561488   -6.735938
 0.370000   1.526379   -7.331250
 0.375000   1.488176   -7.998437
 0.380000   1.446395   -8.785547
 0.385000   1.400320   -9.680469
 0.390000   1.349590   -10.669922
 0.395000   1.293621   -11.732031
 0.400000   1.232270   -12.839844
 0.405000   1.165223   -13.961328
 0.410000   1.092656   -15.112891
 0.415000   1.014094   -16.444141
 0.420000   0.928215   -18.152344
 0.425000   0.832570   -20.391797
 0.430000   0.724297   -23.254687
 0.435000   0.600023   -26.867578
 0.440000   0.455621   -31.498828
 0.445000   0.285035   -36.739844
 0.450000   0.088223   -42.160547
 0.455000   -0.136570   -47.822656
 0.460000   -0.390004   -53.463281
 0.465000   -0.671203   -58.808203
 0.470000   -0.978086   -63.271484
 0.475000   -1.303918   -66.141406
 0.480000   -1.639500   -67.191406
 0.485000   -1.975832   -66.421875
 0.490000   -2.303719   -63.873828
 0.495000   -2.614570   -59.385547
 0.500000   -2.897574   -53.291016
 0.505000   -3.147480   -46.933984
 0.510000   -3.366914   -41.002734
 0.515000   -3.557508   -35.555859
 0.520000   -3.722473   -30.880859
 0.525000   -3.866316   -27.151172
 0.530000   -3.993984   -24.806250
 0.535000   -4.114379   -23.776172
 0.540000   -4.231746   -23.374219
 0.545000   -4.348121   -23.287500
 0.550000   -4.464621   -23.361719
 0.555000   -4.581738   -23.611328
 0.560000   -4.700734   -23.836523
 0.565000   -4.820104   -23.722852
 0.570000   -4.937963   -23.246094
 0.575000   -5.052564   -22.386523
 0.580000   -5.161828   -21.096484
 0.585000   -5.263529   -19.377344
 0.590000   -5.355602   -17.195508
 0.595000   -5.435484   -14.631836
 0.600000   -5.501920   -11.889844
 0.605000   -5.554383   -9.089063
 0.610000   -5.592811   -6.347266
 0.615000   -5.617855   -3.774805
 0.620000   -5.630559   -1.486719
 0.625000   -5.632723   0.464844
 0.630000   -5.625910   2.116211
 0.635000   -5.611561   3.494531
 0.640000   -5.590965   4.654688
 0.645000   -5.565014   5.673633
 0.650000   -5.534229   6.655664
 0.655000   -5.498457   7.644141
 0.660000   -5.457787   8.618359
 0.665000   -5.412273   9.568262
 0.670000   -5.362104   10.478223
 0.675000   -5.307491   11.361914
 0.680000   -5.248485   12.295801
 0.685000   -5.184533   13.437012
 0.690000   -5.114115   14.950098
 0.695000   -5.035032   16.959863
 0.700000   -4.944517   19.712891
 0.705000   -4.837903   23.264844
 0.710000   -4.711868   27.164160
 0.715000   -4.566262   31.081787
 0.720000   -4.401050   34.842920
 0.725000   -4.217833   38.094214
 0.730000   -4.020108   40.528857
 0.735000   -3.812544   41.515686
 0.740000   -3.604951   40.586938
 0.745000   -3.406675   37.926660
 0.750000   -3.225685   33.810132
 0.755000   -3.068573   28.607727
 0.760000   -2.939607   22.661133
 0.765000   -2.841962   16.672461
 0.770000   -2.772883   11.368799
 0.775000   -2.728274   6.874805
 0.780000   -2.704135   3.069678
 0.785000   -2.697577   -0.369238
 0.790000   -2.707827   -4.011133
 0.795000   -2.737688   -8.559668
 0.800000   -2.793424   -14.582520
 0.805000   -2.883514   -22.385937
 0.810000   -3.017283   -31.965234
 0.815000   -3.203166   -42.929883
 0.820000   -3.446582   -54.566797
 0.825000   -3.748834   -64.962109
 0.830000   -4.096203   -72.384570
 0.835000   -4.472680   -76.214844
 0.840000   -4.858352   -75.981250
 0.845000   -5.232492   -71.758984
 0.850000   -5.575941   -64.065625
 0.855000   -5.873148   -54.687891
 0.860000   -6.122820   -45.213281
 0.865000   -6.325281   -36.144141
 0.870000   -6.484262   -28.001172
 0.875000   -6.605293   -20.983203
 0.880000   -6.694094   -15.191016
 0.885000   -6.757203   -10.504687
 0.890000   -6.799141   -6.419531
 0.895000   -6.821398   -2.531641
 0.900000   -6.824457   1.294922
 0.905000   -6.808449   5.038281
 0.910000   -6.774074   8.614062
 0.915000   -6.722309   11.962500
 0.920000   -6.654449   15.034766
 0.925000   -6.571961   17.831641
 0.930000   -6.476133   20.466797
 0.935000   -6.367293   23.613281
 0.940000   -6.240000   28.252344
 0.945000   -6.084770   34.378125
 0.950000   -5.896219   41.109766
 0.955000   -5.673672   46.967188
 0.960000   -5.426547   49.669531
 0.965000   -5.176977   48.077344
 0.970000   -4.945773   43.707812
 0.975000   -4.739898   48.627344
 0.980000   -4.459500   88.632812
 0.985000   -3.853570   187.788281
 0.990000   -2.581617   340.161719
 0.995000   -0.451953   483.428906
 1.000000   2.252672   598.421094
3 N Z A of ION SPECIES
 6.000000   6.000000   12.010700
 1.000000   1.000000   2.000000
 1.000000   1.000000   2.000000
