201 psinorm ne(10^20/m^3) dne/dpsiN
 0.000000   0.462410   -0.461942
 0.005000   0.460111   -0.457734
 0.010000   0.457833   -0.453546
 0.015000   0.455575   -0.449397
 0.020000   0.453339   -0.445288
 0.025000   0.451123   -0.441218
 0.030000   0.448927   -0.437185
 0.035000   0.446751   -0.433191
 0.040000   0.444595   -0.429234
 0.045000   0.442458   -0.425314
 0.050000   0.440342   -0.421431
 0.055000   0.438244   -0.417584
 0.060000   0.436166   -0.413773
 0.065000   0.434106   -0.409997
 0.070000   0.432066   -0.406256
 0.075000   0.430044   -0.402550
 0.080000   0.428040   -0.398877
 0.085000   0.426055   -0.395239
 0.090000   0.424088   -0.391634
 0.095000   0.422139   -0.388062
 0.100000   0.420207   -0.384522
 0.105000   0.418293   -0.381015
 0.110000   0.416397   -0.377540
 0.115000   0.414518   -0.374096
 0.120000   0.412656   -0.370684
 0.125000   0.410811   -0.367302
 0.130000   0.408983   -0.363951
 0.135000   0.407172   -0.360630
 0.140000   0.405377   -0.357338
 0.145000   0.403598   -0.354076
 0.150000   0.401836   -0.350844
 0.155000   0.400090   -0.347640
 0.160000   0.398360   -0.344464
 0.165000   0.396645   -0.341316
 0.170000   0.394946   -0.338197
 0.175000   0.393263   -0.335105
 0.180000   0.391595   -0.332040
 0.185000   0.389943   -0.329002
 0.190000   0.388305   -0.325990
 0.195000   0.386683   -0.323005
 0.200000   0.385075   -0.320046
 0.205000   0.383483   -0.317112
 0.210000   0.381904   -0.314204
 0.215000   0.380340   -0.311321
 0.220000   0.378791   -0.308462
 0.225000   0.377256   -0.305629
 0.230000   0.375735   -0.302819
 0.235000   0.374228   -0.300034
 0.240000   0.372734   -0.297272
 0.245000   0.371255   -0.294533
 0.250000   0.369789   -0.291818
 0.255000   0.368337   -0.289126
 0.260000   0.366898   -0.286456
 0.265000   0.365472   -0.283809
 0.270000   0.364060   -0.281184
 0.275000   0.362660   -0.278581
 0.280000   0.361274   -0.275999
 0.285000   0.359900   -0.273439
 0.290000   0.358540   -0.270900
 0.295000   0.357191   -0.268382
 0.300000   0.355856   -0.265885
 0.305000   0.354533   -0.263408
 0.310000   0.353222   -0.260952
 0.315000   0.351923   -0.258515
 0.320000   0.350637   -0.256098
 0.325000   0.349362   -0.253701
 0.330000   0.348099   -0.251323
 0.335000   0.346849   -0.248964
 0.340000   0.345610   -0.246624
 0.345000   0.344383   -0.244302
 0.350000   0.343167   -0.241999
 0.355000   0.341963   -0.239715
 0.360000   0.340770   -0.237448
 0.365000   0.339588   -0.235199
 0.370000   0.338418   -0.232968
 0.375000   0.337258   -0.230754
 0.380000   0.336110   -0.228558
 0.385000   0.334973   -0.226378
 0.390000   0.333846   -0.224215
 0.395000   0.332731   -0.222069
 0.400000   0.331626   -0.219940
 0.405000   0.330531   -0.217827
 0.410000   0.329447   -0.215729
 0.415000   0.328374   -0.213648
 0.420000   0.327311   -0.211583
 0.425000   0.326258   -0.209532
 0.430000   0.325216   -0.207498
 0.435000   0.324183   -0.205478
 0.440000   0.323161   -0.203474
 0.445000   0.322148   -0.201484
 0.450000   0.321146   -0.199509
 0.455000   0.320153   -0.197548
 0.460000   0.319171   -0.195602
 0.465000   0.318197   -0.193670
 0.470000   0.317234   -0.191752
 0.475000   0.316280   -0.189848
 0.480000   0.315335   -0.187957
 0.485000   0.314400   -0.186080
 0.490000   0.313475   -0.184216
 0.495000   0.312558   -0.182366
 0.500000   0.311651   -0.180528
 0.505000   0.310753   -0.178704
 0.510000   0.309864   -0.176892
 0.515000   0.308984   -0.175092
 0.520000   0.308113   -0.173305
 0.525000   0.307251   -0.171531
 0.530000   0.306398   -0.169768
 0.535000   0.305553   -0.168018
 0.540000   0.304717   -0.166279
 0.545000   0.303890   -0.164552
 0.550000   0.303072   -0.162837
 0.555000   0.302262   -0.161133
 0.560000   0.301461   -0.159440
 0.565000   0.300668   -0.157759
 0.570000   0.299883   -0.156088
 0.575000   0.299107   -0.154429
 0.580000   0.298339   -0.152780
 0.585000   0.297579   -0.151141
 0.590000   0.296827   -0.149514
 0.595000   0.296084   -0.147896
 0.600000   0.295348   -0.146289
 0.605000   0.294621   -0.144692
 0.610000   0.293901   -0.143105
 0.615000   0.293190   -0.141528
 0.620000   0.292486   -0.139961
 0.625000   0.291790   -0.138403
 0.630000   0.291102   -0.136854
 0.635000   0.290422   -0.135315
 0.640000   0.289749   -0.133786
 0.645000   0.289084   -0.132265
 0.650000   0.288426   -0.130754
 0.655000   0.287776   -0.129251
 0.660000   0.287134   -0.127757
 0.665000   0.286499   -0.126272
 0.670000   0.285871   -0.124795
 0.675000   0.285251   -0.123327
 0.680000   0.284638   -0.121867
 0.685000   0.284032   -0.120416
 0.690000   0.283434   -0.118972
 0.695000   0.282842   -0.117537
 0.700000   0.282258   -0.116109
 0.705000   0.281681   -0.114689
 0.710000   0.281111   -0.113277
 0.715000   0.280549   -0.111873
 0.720000   0.279993   -0.110476
 0.725000   0.279444   -0.109086
 0.730000   0.278902   -0.107704
 0.735000   0.278367   -0.106329
 0.740000   0.277839   -0.104961
 0.745000   0.277317   -0.103600
 0.750000   0.276803   -0.102246
 0.755000   0.276295   -0.100898
 0.760000   0.275794   -0.099557
 0.765000   0.275299   -0.098223
 0.770000   0.274811   -0.096895
 0.775000   0.274330   -0.095574
 0.780000   0.273856   -0.094259
 0.785000   0.273388   -0.092949
 0.790000   0.272926   -0.091646
 0.795000   0.272471   -0.090347
 0.800000   0.272023   -0.089054
 0.805000   0.271581   -0.087765
 0.810000   0.271145   -0.086479
 0.815000   0.270716   -0.085194
 0.820000   0.270293   -0.083908
 0.825000   0.269877   -0.082618
 0.830000   0.269467   -0.081316
 0.835000   0.269064   -0.079994
 0.840000   0.268667   -0.078636
 0.845000   0.268277   -0.077220
 0.850000   0.267895   -0.075712
 0.855000   0.267520   -0.074057
 0.860000   0.267154   -0.072173
 0.865000   0.266798   -0.069939
 0.870000   0.266455   -0.067172
 0.875000   0.266127   -0.063601
 0.880000   0.265819   -0.058839
 0.885000   0.265538   -0.052337
 0.890000   0.265295   -0.043346
 0.895000   0.265105   -0.030901
 0.900000   0.264986   -0.013863
 0.905000   0.264966   0.008867
 0.910000   0.265075   0.037764
 0.915000   0.265344   0.071310
 0.920000   0.265788   0.103119
 0.925000   0.266375   0.116377
 0.930000   0.266952   0.074443
 0.935000   0.267119   -0.091340
 0.940000   0.266038   -0.486591
 0.945000   0.262253   -1.222763
 0.950000   0.253811   -2.314372
 0.955000   0.239110   -3.544743
 0.960000   0.218363   -4.488460
 0.965000   0.194225   -4.800449
 0.970000   0.170359   -4.486498
 0.975000   0.149360   -3.828006
 0.980000   0.132079   -3.113832
 0.985000   0.118222   -2.497434
 0.990000   0.107105   -2.016253
 0.995000   0.098059   -1.654218
 1.000000   0.090562   -1.344562
201 psinorm te(KeV) dte/dpsiN
 0.000000   4.007955   -3.744116
 0.005000   3.989234   -3.744028
 0.010000   3.970514   -3.743858
 0.015000   3.951796   -3.743525
 0.020000   3.933079   -3.743030
 0.025000   3.914365   -3.742374
 0.030000   3.895655   -3.741558
 0.035000   3.876950   -3.740582
 0.040000   3.858250   -3.739447
 0.045000   3.839555   -3.738154
 0.050000   3.820868   -3.736704
 0.055000   3.802188   -3.735097
 0.060000   3.783517   -3.733335
 0.065000   3.764855   -3.731419
 0.070000   3.746203   -3.729349
 0.075000   3.727561   -3.727126
 0.080000   3.708932   -3.724752
 0.085000   3.690314   -3.722227
 0.090000   3.671709   -3.719551
 0.095000   3.653118   -3.716727
 0.100000   3.634542   -3.713754
 0.105000   3.615981   -3.710634
 0.110000   3.597436   -3.707368
 0.115000   3.578907   -3.703957
 0.120000   3.560396   -3.700401
 0.125000   3.541903   -3.696702
 0.130000   3.523429   -3.692861
 0.135000   3.504975   -3.688879
 0.140000   3.486540   -3.684756
 0.145000   3.468127   -3.680494
 0.150000   3.449735   -3.676093
 0.155000   3.431366   -3.671555
 0.160000   3.413020   -3.666881
 0.165000   3.394697   -3.662072
 0.170000   3.376399   -3.657129
 0.175000   3.358126   -3.652052
 0.180000   3.339879   -3.646844
 0.185000   3.321658   -3.641504
 0.190000   3.303464   -3.636035
 0.195000   3.285297   -3.630436
 0.200000   3.267159   -3.624710
 0.205000   3.249050   -3.618857
 0.210000   3.230971   -3.612878
 0.215000   3.212921   -3.606775
 0.220000   3.194903   -3.600549
 0.225000   3.176916   -3.594200
 0.230000   3.158961   -3.587730
 0.235000   3.141039   -3.581139
 0.240000   3.123149   -3.574430
 0.245000   3.105294   -3.567603
 0.250000   3.087473   -3.560659
 0.255000   3.069688   -3.553599
 0.260000   3.051937   -3.546425
 0.265000   3.034223   -3.539137
 0.270000   3.016546   -3.531737
 0.275000   2.998906   -3.524226
 0.280000   2.981304   -3.516606
 0.285000   2.963740   -3.508876
 0.290000   2.946215   -3.501038
 0.295000   2.928730   -3.493094
 0.300000   2.911284   -3.485045
 0.305000   2.893879   -3.476891
 0.310000   2.876515   -3.468635
 0.315000   2.859193   -3.460276
 0.320000   2.841912   -3.451817
 0.325000   2.824675   -3.443258
 0.330000   2.807480   -3.434600
 0.335000   2.790329   -3.425846
 0.340000   2.773221   -3.416995
 0.345000   2.756159   -3.408049
 0.350000   2.739141   -3.399010
 0.355000   2.722169   -3.389878
 0.360000   2.705242   -3.380655
 0.365000   2.688362   -3.371341
 0.370000   2.671529   -3.361939
 0.375000   2.654743   -3.352448
 0.380000   2.638004   -3.342871
 0.385000   2.621314   -3.333208
 0.390000   2.604672   -3.323461
 0.395000   2.588079   -3.313631
 0.400000   2.571536   -3.303718
 0.405000   2.555042   -3.293725
 0.410000   2.538599   -3.283652
 0.415000   2.522206   -3.273501
 0.420000   2.505864   -3.263272
 0.425000   2.489573   -3.252968
 0.430000   2.473334   -3.242588
 0.435000   2.457147   -3.232134
 0.440000   2.441013   -3.221608
 0.445000   2.424931   -3.211010
 0.450000   2.408902   -3.200342
 0.455000   2.392928   -3.189605
 0.460000   2.377006   -3.178800
 0.465000   2.361140   -3.167928
 0.470000   2.345327   -3.156990
 0.475000   2.329570   -3.145988
 0.480000   2.313867   -3.134923
 0.485000   2.298220   -3.123795
 0.490000   2.282629   -3.112606
 0.495000   2.267094   -3.101358
 0.500000   2.251616   -3.090050
 0.505000   2.236194   -3.078685
 0.510000   2.220829   -3.067263
 0.515000   2.205521   -3.055787
 0.520000   2.190271   -3.044255
 0.525000   2.175079   -3.032671
 0.530000   2.159944   -3.021035
 0.535000   2.144868   -3.009348
 0.540000   2.129851   -2.997611
 0.545000   2.114892   -2.985826
 0.550000   2.099993   -2.973993
 0.555000   2.085152   -2.962114
 0.560000   2.070371   -2.950190
 0.565000   2.055650   -2.938221
 0.570000   2.040989   -2.926210
 0.575000   2.026388   -2.914156
 0.580000   2.011848   -2.902062
 0.585000   1.997368   -2.889927
 0.590000   1.982948   -2.877754
 0.595000   1.968590   -2.865544
 0.600000   1.954293   -2.853296
 0.605000   1.940057   -2.841014
 0.610000   1.925883   -2.828697
 0.615000   1.911770   -2.816346
 0.620000   1.897719   -2.803963
 0.625000   1.883731   -2.791549
 0.630000   1.869804   -2.779105
 0.635000   1.855939   -2.766631
 0.640000   1.842138   -2.754129
 0.645000   1.828398   -2.741601
 0.650000   1.814722   -2.729046
 0.655000   1.801108   -2.716465
 0.660000   1.787557   -2.703861
 0.665000   1.774069   -2.691234
 0.670000   1.760645   -2.678585
 0.675000   1.747283   -2.665914
 0.680000   1.733985   -2.653224
 0.685000   1.720751   -2.640514
 0.690000   1.707580   -2.627787
 0.695000   1.694473   -2.615042
 0.700000   1.681430   -2.602281
 0.705000   1.668450   -2.589505
 0.710000   1.655535   -2.576714
 0.715000   1.642683   -2.563910
 0.720000   1.629896   -2.551094
 0.725000   1.617172   -2.538266
 0.730000   1.604513   -2.525428
 0.735000   1.591918   -2.512580
 0.740000   1.579387   -2.499724
 0.745000   1.566921   -2.486860
 0.750000   1.554519   -2.473988
 0.755000   1.542181   -2.461111
 0.760000   1.529908   -2.448229
 0.765000   1.517699   -2.435343
 0.770000   1.505554   -2.422453
 0.775000   1.493474   -2.409560
 0.780000   1.481458   -2.396666
 0.785000   1.469507   -2.383771
 0.790000   1.457621   -2.370875
 0.795000   1.445799   -2.357980
 0.800000   1.434041   -2.345085
 0.805000   1.422348   -2.332192
 0.810000   1.410719   -2.319299
 0.815000   1.399155   -2.306406
 0.820000   1.387655   -2.293512
 0.825000   1.376220   -2.280614
 0.830000   1.364849   -2.267707
 0.835000   1.353543   -2.254785
 0.840000   1.342301   -2.241835
 0.845000   1.331124   -2.228841
 0.850000   1.320013   -2.215776
 0.855000   1.308966   -2.202602
 0.860000   1.297987   -2.189261
 0.865000   1.287074   -2.175672
 0.870000   1.276230   -2.161722
 0.875000   1.265457   -2.147257
 0.880000   1.254757   -2.132085
 0.885000   1.244136   -2.115977
 0.890000   1.233598   -2.098715
 0.895000   1.223149   -2.080199
 0.900000   1.212796   -2.060689
 0.905000   1.202542   -2.041332
 0.910000   1.192382   -2.025206
 0.915000   1.182290   -2.019365
 0.920000   1.172189   -2.038717
 0.925000   1.161903   -2.113208
 0.930000   1.151056   -2.300714
 0.935000   1.138895   -2.709133
 0.940000   1.123965   -3.531072
 0.945000   1.103585   -5.088624
 0.950000   1.073079   -7.860810
 0.955000   1.024977   -12.399006
 0.960000   0.949089   -18.931875
 0.965000   0.835658   -26.526270
 0.970000   0.683826   -32.420222
 0.975000   0.511456   -33.219178
 0.980000   0.351634   -28.075264
 0.985000   0.230703   -19.898302
 0.990000   0.152651   -12.421142
 0.995000   0.106492   -7.294977
 1.000000   0.079702   -3.421003
201 psinorm ni(10^20/m^3) dni/dpsiN
 0.000000   0.265565   -0.472657
 0.005000   0.263508   -0.350008
 0.010000   0.262065   -0.256223
 0.015000   0.260946   -0.199905
 0.020000   0.260065   -0.155636
 0.025000   0.259389   -0.117784
 0.030000   0.258888   -0.085992
 0.035000   0.258529   -0.060455
 0.040000   0.258283   -0.040368
 0.045000   0.258126   -0.024360
 0.050000   0.258039   -0.012030
 0.055000   0.258005   -0.002785
 0.060000   0.258012   0.004220
 0.065000   0.258048   0.009196
 0.070000   0.258104   0.012126
 0.075000   0.258169   0.013756
 0.080000   0.258241   0.014050
 0.085000   0.258309   0.012839
 0.090000   0.258370   0.010990
 0.095000   0.258419   0.008509
 0.100000   0.258455   0.004646
 0.105000   0.258466   0.000072
 0.110000   0.258455   -0.004372
 0.115000   0.258422   -0.009117
 0.120000   0.258364   -0.014143
 0.125000   0.258281   -0.019466
 0.130000   0.258170   -0.025019
 0.135000   0.258030   -0.030931
 0.140000   0.257860   -0.036829
 0.145000   0.257662   -0.042391
 0.150000   0.257436   -0.047941
 0.155000   0.257183   -0.053448
 0.160000   0.256902   -0.058864
 0.165000   0.256594   -0.064143
 0.170000   0.256260   -0.069235
 0.175000   0.255902   -0.074138
 0.180000   0.255519   -0.078851
 0.185000   0.255113   -0.083451
 0.190000   0.254684   -0.087943
 0.195000   0.254234   -0.092082
 0.200000   0.253764   -0.095846
 0.205000   0.253275   -0.099380
 0.210000   0.252770   -0.102681
 0.215000   0.252248   -0.105758
 0.220000   0.251712   -0.108629
 0.225000   0.251162   -0.111307
 0.230000   0.250599   -0.113816
 0.235000   0.250024   -0.116382
 0.240000   0.249435   -0.118965
 0.245000   0.248834   -0.121159
 0.250000   0.248224   -0.122998
 0.255000   0.247604   -0.124664
 0.260000   0.246977   -0.126174
 0.265000   0.246343   -0.127566
 0.270000   0.245701   -0.129161
 0.275000   0.245051   -0.130601
 0.280000   0.244395   -0.131610
 0.285000   0.243735   -0.132575
 0.290000   0.243070   -0.133520
 0.295000   0.242400   -0.134601
 0.300000   0.241724   -0.135779
 0.305000   0.241042   -0.136810
 0.310000   0.240356   -0.137748
 0.315000   0.239664   -0.138729
 0.320000   0.238968   -0.139848
 0.325000   0.238266   -0.141031
 0.330000   0.237558   -0.142087
 0.335000   0.236845   -0.143068
 0.340000   0.236127   -0.144055
 0.345000   0.235405   -0.145189
 0.350000   0.234675   -0.146294
 0.355000   0.233942   -0.147200
 0.360000   0.233203   -0.148067
 0.365000   0.232461   -0.148985
 0.370000   0.231714   -0.149920
 0.375000   0.230962   -0.150743
 0.380000   0.230206   -0.151493
 0.385000   0.229447   -0.152283
 0.390000   0.228683   -0.153166
 0.395000   0.227915   -0.154003
 0.400000   0.227143   -0.154745
 0.405000   0.226368   -0.155519
 0.410000   0.225588   -0.156382
 0.415000   0.224804   -0.157190
 0.420000   0.224016   -0.157871
 0.425000   0.223225   -0.158557
 0.430000   0.222431   -0.159302
 0.435000   0.221632   -0.159946
 0.440000   0.220831   -0.160407
 0.445000   0.220028   -0.160839
 0.450000   0.219223   -0.161279
 0.455000   0.218415   -0.161551
 0.460000   0.217607   -0.161600
 0.465000   0.216799   -0.161606
 0.470000   0.215991   -0.161565
 0.475000   0.215184   -0.161296
 0.480000   0.214378   -0.160790
 0.485000   0.213576   -0.160240
 0.490000   0.212776   -0.159597
 0.495000   0.211980   -0.158683
 0.500000   0.211189   -0.157547
 0.505000   0.210404   -0.156399
 0.510000   0.209625   -0.155142
 0.515000   0.208853   -0.153603
 0.520000   0.208089   -0.151878
 0.525000   0.207334   -0.150136
 0.530000   0.206588   -0.148225
 0.535000   0.205852   -0.145984
 0.540000   0.205128   -0.143561
 0.545000   0.204416   -0.141065
 0.550000   0.203717   -0.138366
 0.555000   0.203033   -0.135369
 0.560000   0.202363   -0.132222
 0.565000   0.201710   -0.128989
 0.570000   0.201074   -0.125567
 0.575000   0.200455   -0.121907
 0.580000   0.199855   -0.118120
 0.585000   0.199274   -0.114229
 0.590000   0.198712   -0.110153
 0.595000   0.198172   -0.105873
 0.600000   0.197654   -0.101469
 0.605000   0.197157   -0.096954
 0.610000   0.196684   -0.092276
 0.615000   0.196235   -0.087440
 0.620000   0.195810   -0.082510
 0.625000   0.195409   -0.077511
 0.630000   0.195034   -0.072428
 0.635000   0.194685   -0.067272
 0.640000   0.194362   -0.062094
 0.645000   0.194064   -0.056911
 0.650000   0.193793   -0.051714
 0.655000   0.193547   -0.046473
 0.660000   0.193328   -0.041166
 0.665000   0.193135   -0.035761
 0.670000   0.192970   -0.030248
 0.675000   0.192833   -0.024644
 0.680000   0.192724   -0.018893
 0.685000   0.192644   -0.013013
 0.690000   0.192594   -0.007120
 0.695000   0.192573   -0.001233
 0.700000   0.192581   0.004741
 0.705000   0.192620   0.010968
 0.710000   0.192691   0.017929
 0.715000   0.192800   0.025805
 0.720000   0.192949   0.034202
 0.725000   0.193142   0.042964
 0.730000   0.193379   0.052060
 0.735000   0.193662   0.061341
 0.740000   0.193992   0.070861
 0.745000   0.194371   0.080199
 0.750000   0.194794   0.088406
 0.755000   0.195255   0.095220
 0.760000   0.195746   0.100649
 0.765000   0.196261   0.104434
 0.770000   0.196791   0.106363
 0.775000   0.197325   0.106187
 0.780000   0.197853   0.104070
 0.785000   0.198366   0.100547
 0.790000   0.198858   0.095903
 0.795000   0.199325   0.090362
 0.800000   0.199762   0.084022
 0.805000   0.200165   0.076961
 0.810000   0.200531   0.069884
 0.815000   0.200864   0.063214
 0.820000   0.201163   0.056856
 0.825000   0.201432   0.050944
 0.830000   0.201673   0.045562
 0.835000   0.201888   0.040855
 0.840000   0.202081   0.037016
 0.845000   0.202258   0.033813
 0.850000   0.202420   0.030866
 0.855000   0.202567   0.028107
 0.860000   0.202701   0.025607
 0.865000   0.202823   0.023566
 0.870000   0.202936   0.022383
 0.875000   0.203047   0.022515
 0.880000   0.203161   0.024385
 0.885000   0.203290   0.028502
 0.890000   0.203446   0.035565
 0.895000   0.203646   0.046737
 0.900000   0.203914   0.063147
 0.905000   0.204278   0.086028
 0.910000   0.204774   0.116514
 0.915000   0.205443   0.153859
 0.920000   0.206313   0.193056
 0.925000   0.207373   0.220993
 0.930000   0.208523   0.205320
 0.935000   0.209426   0.083573
 0.940000   0.209358   -0.239933
 0.945000   0.207027   -0.866778
 0.950000   0.200691   -1.805865
 0.955000   0.188969   -2.840342
 0.960000   0.172287   -3.573435
 0.965000   0.153234   -3.712208
 0.970000   0.135165   -3.307158
 0.975000   0.120163   -2.665472
 0.980000   0.108510   -2.067494
 0.985000   0.099488   -1.628583
 0.990000   0.092225   -1.340738
 0.995000   0.086080   -1.151921
 1.000000   0.080705   -0.998061
201 psinorm ti(KeV) dti/dpsiN
 0.000000   5.971682   0.000694
 0.005000   5.970891   -0.317102
 0.010000   5.968511   -0.635727
 0.015000   5.964534   -0.955988
 0.020000   5.958951   -1.277959
 0.025000   5.951754   -1.601974
 0.030000   5.942931   -1.928596
 0.035000   5.932468   -2.258468
 0.040000   5.920347   -2.592818
 0.045000   5.906540   -2.931387
 0.050000   5.891033   -3.273161
 0.055000   5.873808   -3.618060
 0.060000   5.854852   -3.965379
 0.065000   5.834155   -4.314001
 0.070000   5.811712   -4.662949
 0.075000   5.787525   -5.009963
 0.080000   5.761613   -5.353049
 0.085000   5.733995   -5.691552
 0.090000   5.704697   -6.024059
 0.095000   5.673754   -6.348873
 0.100000   5.641208   -6.663436
 0.105000   5.607120   -6.965585
 0.110000   5.571552   -7.254637
 0.115000   5.534573   -7.529527
 0.120000   5.496257   -7.788843
 0.125000   5.456685   -8.031605
 0.130000   5.415941   -8.255364
 0.135000   5.374131   -8.461652
 0.140000   5.331325   -8.656143
 0.145000   5.287570   -8.840348
 0.150000   5.242921   -9.014326
 0.155000   5.197427   -9.179261
 0.160000   5.151129   -9.336129
 0.165000   5.104065   -9.483782
 0.170000   5.056291   -9.617890
 0.175000   5.007886   -9.735338
 0.180000   4.958937   -9.835445
 0.185000   4.909532   -9.917802
 0.190000   4.859759   -9.981507
 0.195000   4.809717   -10.025420
 0.200000   4.759505   -10.050747
 0.205000   4.709209   -10.057677
 0.210000   4.658928   -10.044624
 0.215000   4.608763   -10.011659
 0.220000   4.558812   -9.958670
 0.225000   4.509176   -9.889289
 0.230000   4.459919   -9.817022
 0.235000   4.411006   -9.748862
 0.240000   4.362430   -9.683064
 0.245000   4.314176   -9.620689
 0.250000   4.266223   -9.562778
 0.255000   4.218548   -9.511442
 0.260000   4.171109   -9.457737
 0.265000   4.123970   -9.393781
 0.270000   4.077171   -9.321572
 0.275000   4.030755   -9.240302
 0.280000   3.984768   -9.149533
 0.285000   3.939259   -9.050974
 0.290000   3.894258   -8.939165
 0.295000   3.849868   -8.811318
 0.300000   3.806145   -8.672763
 0.305000   3.763140   -8.525334
 0.310000   3.720892   -8.370903
 0.315000   3.679431   -8.210372
 0.320000   3.638788   -8.040308
 0.325000   3.599028   -7.859095
 0.330000   3.560197   -7.669101
 0.335000   3.522337   -7.471502
 0.340000   3.485482   -7.267514
 0.345000   3.449662   -7.054621
 0.350000   3.414936   -6.836344
 0.355000   3.381298   -6.619142
 0.360000   3.348745   -6.404048
 0.365000   3.317258   -6.194045
 0.370000   3.286804   -5.992539
 0.375000   3.257332   -5.802316
 0.380000   3.228781   -5.627664
 0.385000   3.201056   -5.469040
 0.390000   3.174091   -5.323009
 0.395000   3.147826   -5.188145
 0.400000   3.122209   -5.062732
 0.405000   3.097198   -4.946044
 0.410000   3.072749   -4.831180
 0.415000   3.048887   -4.711154
 0.420000   3.025637   -4.587817
 0.425000   3.003008   -4.463148
 0.430000   2.981006   -4.337853
 0.435000   2.959630   -4.211542
 0.440000   2.938890   -4.085002
 0.445000   2.918780   -3.963528
 0.450000   2.899255   -3.851446
 0.455000   2.880265   -3.749852
 0.460000   2.861756   -3.659471
 0.465000   2.843671   -3.580727
 0.470000   2.825949   -3.514501
 0.475000   2.808526   -3.460263
 0.480000   2.791347   -3.416040
 0.485000   2.774365   -3.380351
 0.490000   2.757543   -3.351831
 0.495000   2.740847   -3.329496
 0.500000   2.724248   -3.312231
 0.505000   2.707725   -3.298988
 0.510000   2.691258   -3.289922
 0.515000   2.674825   -3.285334
 0.520000   2.658405   -3.284943
 0.525000   2.641976   -3.288048
 0.530000   2.625524   -3.293234
 0.535000   2.609044   -3.301462
 0.540000   2.592510   -3.313487
 0.545000   2.575909   -3.328061
 0.550000   2.559229   -3.344892
 0.555000   2.542460   -3.363451
 0.560000   2.525595   -3.382235
 0.565000   2.508638   -3.403784
 0.570000   2.491557   -3.429729
 0.575000   2.474340   -3.458040
 0.580000   2.456976   -3.488673
 0.585000   2.439454   -3.521566
 0.590000   2.421761   -3.556674
 0.595000   2.403887   -3.595219
 0.600000   2.385809   -3.637194
 0.605000   2.367515   -3.681215
 0.610000   2.348996   -3.726931
 0.615000   2.330246   -3.773881
 0.620000   2.311258   -3.822492
 0.625000   2.292021   -3.866976
 0.630000   2.272588   -3.901393
 0.635000   2.253007   -3.926707
 0.640000   2.233321   -3.943767
 0.645000   2.213569   -3.953484
 0.650000   2.193786   -3.955727
 0.655000   2.174012   -3.950937
 0.660000   2.154277   -3.940047
 0.665000   2.134611   -3.922876
 0.670000   2.115048   -3.899466
 0.675000   2.095617   -3.870049
 0.680000   2.076347   -3.834555
 0.685000   2.057271   -3.795510
 0.690000   2.038392   -3.755853
 0.695000   2.019713   -3.715633
 0.700000   2.001236   -3.674674
 0.705000   1.982966   -3.632869
 0.710000   1.964907   -3.592181
 0.715000   1.947044   -3.553597
 0.720000   1.929371   -3.513913
 0.725000   1.911905   -3.470294
 0.730000   1.894668   -3.420908
 0.735000   1.877696   -3.363829
 0.740000   1.861030   -3.299083
 0.745000   1.844705   -3.225042
 0.750000   1.828780   -3.139496
 0.755000   1.813310   -3.044579
 0.760000   1.798334   -2.943081
 0.765000   1.783879   -2.836937
 0.770000   1.769964   -2.728210
 0.775000   1.756597   -2.618901
 0.780000   1.743775   -2.510682
 0.785000   1.731490   -2.404510
 0.790000   1.719730   -2.301050
 0.795000   1.708480   -2.201109
 0.800000   1.697719   -2.105437
 0.805000   1.687425   -2.014770
 0.810000   1.677572   -1.929893
 0.815000   1.668127   -1.851352
 0.820000   1.659058   -1.779670
 0.825000   1.650330   -1.715606
 0.830000   1.641902   -1.659840
 0.835000   1.633731   -1.612861
 0.840000   1.625773   -1.575882
 0.845000   1.617973   -1.550200
 0.850000   1.610271   -1.537201
 0.855000   1.602601   -1.539294
 0.860000   1.594878   -1.559743
 0.865000   1.587003   -1.604786
 0.870000   1.578831   -1.674770
 0.875000   1.570255   -1.768255
 0.880000   1.561148   -1.890303
 0.885000   1.551352   -2.047196
 0.890000   1.540676   -2.248308
 0.895000   1.528869   -2.526430
 0.900000   1.515412   -2.891049
 0.905000   1.499959   -3.342299
 0.910000   1.481989   -3.907401
 0.915000   1.460885   -4.605757
 0.920000   1.435931   -5.456648
 0.925000   1.406318   -6.531839
 0.930000   1.370613   -7.793872
 0.935000   1.328380   -9.160700
 0.940000   1.279006   -10.624323
 0.945000   1.222136   -12.112623
 0.950000   1.157880   -13.519132
 0.955000   1.086945   -14.759292
 0.960000   1.010287   -15.644589
 0.965000   0.930499   -16.019004
 0.970000   0.850097   -15.896233
 0.975000   0.771537   -15.303106
 0.980000   0.697066   -14.304904
 0.985000   0.628488   -12.991406
 0.990000   0.567151   -11.476105
 0.995000   0.513727   -9.896635
 1.000000   0.468185   -8.320046
201 psinorm nb(10^20/m^3) dnb/dpsiN
 0.000000   0.104692   0.010698
 0.005000   0.104455   -0.105628
 0.010000   0.103636   -0.193092
 0.015000   0.102524   -0.243096
 0.020000   0.101205   -0.281058
 0.025000   0.099713   -0.312614
 0.030000   0.098079   -0.338124
 0.035000   0.096332   -0.357397
 0.040000   0.094505   -0.371245
 0.045000   0.092620   -0.381041
 0.050000   0.090695   -0.387189
 0.055000   0.088748   -0.390292
 0.060000   0.086792   -0.391200
 0.065000   0.084836   -0.390136
 0.070000   0.082890   -0.387106
 0.075000   0.080965   -0.382862
 0.080000   0.079062   -0.377373
 0.085000   0.077191   -0.370477
 0.090000   0.075357   -0.363046
 0.095000   0.073561   -0.355092
 0.100000   0.071806   -0.345876
 0.105000   0.070102   -0.336067
 0.110000   0.068445   -0.326504
 0.115000   0.066837   -0.316771
 0.120000   0.065278   -0.306894
 0.125000   0.063768   -0.296857
 0.130000   0.062309   -0.286733
 0.135000   0.060901   -0.276376
 0.140000   0.059545   -0.266127
 0.145000   0.058239   -0.256315
 0.150000   0.056982   -0.246630
 0.155000   0.055773   -0.237108
 0.160000   0.054611   -0.227799
 0.165000   0.053495   -0.218737
 0.170000   0.052424   -0.209956
 0.175000   0.051395   -0.201456
 0.180000   0.050409   -0.193237
 0.185000   0.049463   -0.185220
 0.190000   0.048557   -0.177393
 0.195000   0.047689   -0.170002
 0.200000   0.046857   -0.163089
 0.205000   0.046058   -0.156522
 0.210000   0.045292   -0.150303
 0.215000   0.044555   -0.144429
 0.220000   0.043847   -0.138885
 0.225000   0.043166   -0.133662
 0.230000   0.042511   -0.128760
 0.235000   0.041879   -0.123957
 0.240000   0.041271   -0.119275
 0.245000   0.040686   -0.115106
 0.250000   0.040120   -0.111401
 0.255000   0.039572   -0.107954
 0.260000   0.039041   -0.104756
 0.265000   0.038524   -0.101786
 0.270000   0.038023   -0.098722
 0.275000   0.037537   -0.095927
 0.280000   0.037063   -0.093680
 0.285000   0.036600   -0.091588
 0.290000   0.036148   -0.089653
 0.295000   0.035704   -0.087736
 0.300000   0.035270   -0.085864
 0.305000   0.034845   -0.084280
 0.310000   0.034427   -0.082924
 0.315000   0.034016   -0.081664
 0.320000   0.033611   -0.080386
 0.325000   0.033212   -0.079133
 0.330000   0.032819   -0.078088
 0.335000   0.032431   -0.077184
 0.340000   0.032048   -0.076328
 0.345000   0.031668   -0.075374
 0.350000   0.031294   -0.074470
 0.355000   0.030923   -0.073761
 0.360000   0.030556   -0.073090
 0.365000   0.030192   -0.072364
 0.370000   0.029833   -0.071612
 0.375000   0.029476   -0.070965
 0.380000   0.029123   -0.070382
 0.385000   0.028772   -0.069757
 0.390000   0.028425   -0.069043
 0.395000   0.028082   -0.068379
 0.400000   0.027742   -0.067811
 0.405000   0.027404   -0.067205
 0.410000   0.027070   -0.066499
 0.415000   0.026739   -0.065825
 0.420000   0.026411   -0.065243
 0.425000   0.026087   -0.064613
 0.430000   0.025765   -0.063868
 0.435000   0.025448   -0.063155
 0.440000   0.025134   -0.062542
 0.445000   0.024822   -0.061863
 0.450000   0.024515   -0.061073
 0.455000   0.024212   -0.060338
 0.460000   0.023912   -0.059704
 0.465000   0.023615   -0.058979
 0.470000   0.023322   -0.058155
 0.475000   0.023033   -0.057414
 0.480000   0.022748   -0.056765
 0.485000   0.022465   -0.056008
 0.490000   0.022188   -0.055193
 0.495000   0.021914   -0.054495
 0.500000   0.021643   -0.053870
 0.505000   0.021375   -0.053123
 0.510000   0.021111   -0.052355
 0.515000   0.020851   -0.051732
 0.520000   0.020594   -0.051156
 0.525000   0.020340   -0.050452
 0.530000   0.020090   -0.049760
 0.535000   0.019842   -0.049229
 0.540000   0.019597   -0.048708
 0.545000   0.019355   -0.048089
 0.550000   0.019116   -0.047506
 0.555000   0.018880   -0.047058
 0.560000   0.018646   -0.046602
 0.565000   0.018414   -0.046087
 0.570000   0.018185   -0.045623
 0.575000   0.017958   -0.045263
 0.580000   0.017732   -0.044894
 0.585000   0.017509   -0.044497
 0.590000   0.017287   -0.044156
 0.595000   0.017067   -0.043888
 0.600000   0.016848   -0.043616
 0.605000   0.016631   -0.043332
 0.610000   0.016415   -0.043095
 0.615000   0.016200   -0.042912
 0.620000   0.015986   -0.042733
 0.625000   0.015773   -0.042551
 0.630000   0.015560   -0.042407
 0.635000   0.015349   -0.042304
 0.640000   0.015137   -0.042214
 0.645000   0.014927   -0.042138
 0.650000   0.014716   -0.042094
 0.655000   0.014506   -0.042083
 0.660000   0.014295   -0.042088
 0.665000   0.014085   -0.042127
 0.670000   0.013874   -0.042199
 0.675000   0.013663   -0.042284
 0.680000   0.013451   -0.042385
 0.685000   0.013239   -0.042520
 0.690000   0.013026   -0.042686
 0.695000   0.012812   -0.042850
 0.700000   0.012597   -0.043010
 0.705000   0.012382   -0.043179
 0.710000   0.012166   -0.043384
 0.715000   0.011948   -0.043590
 0.720000   0.011730   -0.043767
 0.725000   0.011510   -0.043947
 0.730000   0.011290   -0.044144
 0.735000   0.011069   -0.044378
 0.740000   0.010846   -0.044614
 0.745000   0.010623   -0.044835
 0.750000   0.010398   -0.045063
 0.755000   0.010172   -0.045306
 0.760000   0.009945   -0.045578
 0.765000   0.009716   -0.045834
 0.770000   0.009487   -0.046056
 0.775000   0.009256   -0.046271
 0.780000   0.009024   -0.046475
 0.785000   0.008791   -0.046683
 0.790000   0.008557   -0.046872
 0.795000   0.008322   -0.047018
 0.800000   0.008087   -0.047140
 0.805000   0.007851   -0.047240
 0.810000   0.007615   -0.047316
 0.815000   0.007378   -0.047364
 0.820000   0.007141   -0.047375
 0.825000   0.006904   -0.047345
 0.830000   0.006668   -0.047278
 0.835000   0.006431   -0.047172
 0.840000   0.006196   -0.047025
 0.845000   0.005961   -0.046833
 0.850000   0.005727   -0.046568
 0.855000   0.005495   -0.046241
 0.860000   0.005265   -0.045888
 0.865000   0.005037   -0.045542
 0.870000   0.004810   -0.045251
 0.875000   0.004584   -0.045031
 0.880000   0.004359   -0.044881
 0.885000   0.004135   -0.044796
 0.890000   0.003911   -0.044770
 0.895000   0.003688   -0.044798
 0.900000   0.003463   -0.044876
 0.905000   0.003239   -0.044989
 0.910000   0.003014   -0.045109
 0.915000   0.002788   -0.045167
 0.920000   0.002562   -0.045052
 0.925000   0.002337   -0.044664
 0.930000   0.002115   -0.043930
 0.935000   0.001898   -0.042820
 0.940000   0.001687   -0.041393
 0.945000   0.001484   -0.039838
 0.950000   0.001289   -0.038341
 0.955000   0.001101   -0.036700
 0.960000   0.000922   -0.034293
 0.965000   0.000758   -0.030675
 0.970000   0.000615   -0.026054
 0.975000   0.000497   -0.021160
 0.980000   0.000403   -0.016859
 0.985000   0.000328   -0.014101
 0.990000   0.000262   -0.012864
 0.995000   0.000200   -0.012726
 1.000000   0.000135   -0.013193
201 psinorm pb(KPa) dpb/dpsiN
 0.000000   42.297250   -19.872791
 0.005000   42.091601   -62.386567
 0.010000   41.673384   -94.658722
 0.015000   41.145014   -112.743617
 0.020000   40.545948   -126.016373
 0.025000   39.884850   -137.344377
 0.030000   39.172504   -146.607781
 0.035000   38.418772   -153.484665
 0.040000   37.637657   -158.033918
 0.045000   36.838433   -160.984175
 0.050000   36.027816   -162.478430
 0.055000   35.213649   -162.840402
 0.060000   34.399412   -162.475280
 0.065000   33.588896   -161.400541
 0.070000   32.785406   -159.614582
 0.075000   31.992750   -157.457198
 0.080000   31.210834   -154.862902
 0.085000   30.444121   -151.683511
 0.090000   29.693999   -148.321431
 0.095000   28.960907   -144.793011
 0.100000   28.246069   -140.781767
 0.105000   27.553089   -136.509822
 0.110000   26.880971   -132.362111
 0.115000   26.229468   -128.243095
 0.120000   25.598540   -124.117360
 0.125000   24.988295   -119.951984
 0.130000   24.399020   -115.776007
 0.135000   23.830535   -111.525120
 0.140000   23.283769   -107.353515
 0.145000   22.756999   -103.372636
 0.150000   22.250042   -99.431725
 0.155000   21.762682   -95.562405
 0.160000   21.294418   -91.791723
 0.165000   20.844765   -88.125980
 0.170000   20.413159   -84.577994
 0.175000   19.998985   -81.148628
 0.180000   19.601672   -77.847561
 0.185000   19.220509   -74.636879
 0.190000   18.855303   -71.497814
 0.195000   18.505531   -68.535182
 0.200000   18.169952   -65.771300
 0.205000   17.847818   -63.145474
 0.210000   17.538497   -60.654963
 0.215000   17.241269   -58.307610
 0.220000   16.955421   -56.096525
 0.225000   16.680303   -54.012501
 0.230000   16.415296   -52.054748
 0.235000   16.159756   -50.144918
 0.240000   15.913847   -48.292807
 0.245000   15.676828   -46.639687
 0.250000   15.447450   -45.164845
 0.255000   15.225179   -43.794878
 0.260000   15.009501   -42.524587
 0.265000   14.799934   -41.346060
 0.270000   14.596040   -40.138843
 0.275000   14.398545   -39.039172
 0.280000   14.205649   -38.149307
 0.285000   14.017052   -37.320616
 0.290000   13.832442   -36.553652
 0.295000   13.651516   -35.796575
 0.300000   13.474477   -35.059931
 0.305000   13.300916   -34.430110
 0.310000   13.130176   -33.885086
 0.315000   12.962065   -33.376515
 0.320000   12.796410   -32.862357
 0.325000   12.633442   -32.360351
 0.330000   12.472807   -31.939658
 0.335000   12.314045   -31.572548
 0.340000   12.157081   -31.217024
 0.345000   12.001875   -30.823258
 0.350000   11.848849   -30.448223
 0.355000   11.697393   -30.143021
 0.360000   11.547419   -29.852060
 0.365000   11.398872   -29.542165
 0.370000   11.251997   -29.223349
 0.375000   11.106639   -28.941438
 0.380000   10.962583   -28.682335
 0.385000   10.819815   -28.407747
 0.390000   10.678505   -28.093216
 0.395000   10.538883   -27.795161
 0.400000   10.400554   -27.538561
 0.405000   10.263498   -27.269647
 0.410000   10.127857   -26.966791
 0.415000   9.993830   -26.676215
 0.420000   9.861095   -26.416918
 0.425000   9.729660   -26.140326
 0.430000   9.599692   -25.823827
 0.435000   9.471422   -25.518914
 0.440000   9.344503   -25.248061
 0.445000   9.218942   -24.954008
 0.450000   9.094962   -24.621321
 0.455000   8.972728   -24.311920
 0.460000   8.851843   -24.040625
 0.465000   8.732322   -23.732455
 0.470000   8.614519   -23.385886
 0.475000   8.498463   -23.069543
 0.480000   8.383823   -22.786936
 0.485000   8.270594   -22.466333
 0.490000   8.159160   -22.125769
 0.495000   8.049336   -21.829206
 0.500000   7.940868   -21.559551
 0.505000   7.833741   -21.247690
 0.510000   7.728391   -20.929927
 0.515000   7.624441   -20.665226
 0.520000   7.521739   -20.417868
 0.525000   7.420263   -20.122971
 0.530000   7.320509   -19.833097
 0.535000   7.221932   -19.603925
 0.540000   7.124470   -19.379858
 0.545000   7.028133   -19.122470
 0.550000   6.933245   -18.877935
 0.555000   6.839354   -18.680983
 0.560000   6.746435   -18.481259
 0.565000   6.654541   -18.261293
 0.570000   6.563822   -18.059699
 0.575000   6.473944   -17.894167
 0.580000   6.384881   -17.725958
 0.585000   6.296685   -17.547949
 0.590000   6.209401   -17.388847
 0.595000   6.122796   -17.255504
 0.600000   6.036846   -17.120571
 0.605000   5.951590   -16.980069
 0.610000   5.867045   -16.854310
 0.615000   5.783047   -16.746653
 0.620000   5.699579   -16.638257
 0.625000   5.616665   -16.525817
 0.630000   5.534321   -16.425866
 0.635000   5.452406   -16.342105
 0.640000   5.370900   -16.261085
 0.645000   5.289795   -16.181920
 0.650000   5.209081   -16.115421
 0.655000   5.128641   -16.063670
 0.660000   5.048444   -16.018648
 0.665000   4.968455   -15.985448
 0.670000   4.888589   -15.964398
 0.675000   4.808811   -15.950627
 0.680000   4.729083   -15.944247
 0.685000   4.649368   -15.952958
 0.690000   4.569553   -15.972134
 0.695000   4.489647   -15.988096
 0.700000   4.409673   -16.003170
 0.705000   4.329615   -16.022333
 0.710000   4.249449   -16.052041
 0.715000   4.169095   -16.080765
 0.720000   4.088642   -16.099192
 0.725000   4.008103   -16.116307
 0.730000   3.927478   -16.138792
 0.735000   3.846715   -16.173749
 0.740000   3.765741   -16.211463
 0.745000   3.684600   -16.246738
 0.750000   3.603274   -16.285618
 0.755000   3.521744   -16.330898
 0.760000   3.439965   -16.386079
 0.765000   3.357883   -16.436596
 0.770000   3.275599   -16.476339
 0.775000   3.193120   -16.513704
 0.780000   3.110462   -16.547355
 0.785000   3.027646   -16.580598
 0.790000   2.944656   -16.606159
 0.795000   2.861585   -16.617332
 0.800000   2.778482   -16.619749
 0.805000   2.695387   -16.614145
 0.810000   2.612341   -16.599776
 0.815000   2.529390   -16.572870
 0.820000   2.446612   -16.531721
 0.825000   2.364072   -16.477953
 0.830000   2.281833   -16.411112
 0.835000   2.199961   -16.330356
 0.840000   2.118529   -16.234941
 0.845000   2.037612   -16.123736
 0.850000   1.957292   -15.984340
 0.855000   1.877768   -15.822893
 0.860000   1.799063   -15.654634
 0.865000   1.721222   -15.483726
 0.870000   1.644226   -15.320605
 0.875000   1.568016   -15.169803
 0.880000   1.492528   -15.031637
 0.885000   1.417700   -14.904963
 0.890000   1.343478   -14.789252
 0.895000   1.269807   -14.683589
 0.900000   1.196642   -14.581712
 0.905000   1.123990   -14.488309
 0.910000   1.051759   -14.408393
 0.915000   0.979906   -14.318431
 0.920000   0.908575   -14.185569
 0.925000   0.838050   -13.982277
 0.930000   0.768752   -13.682539
 0.935000   0.701225   -13.264726
 0.940000   0.636105   -12.744766
 0.945000   0.573777   -12.216499
 0.950000   0.513940   -11.839672
 0.955000   0.455381   -11.716487
 0.960000   0.396775   -11.762350
 0.965000   0.337757   -11.727315
 0.970000   0.279502   -11.368855
 0.975000   0.224069   -10.581991
 0.980000   0.173682   -9.396764
 0.985000   0.130101   -7.948717
 0.990000   0.094194   -6.316116
 0.995000   0.066940   -4.922490
 1.000000   0.044970   -3.865580
201 psinorm ptot(KPa) dptot/dpsiN
 0.000000   98.868576   -122.500056
 0.005000   98.176891   -154.173882
 0.010000   97.326837   -178.366858
 0.015000   96.393222   -191.958605
 0.020000   95.407251   -201.898370
 0.025000   94.374238   -210.520503
 0.030000   93.302046   -217.676362
 0.035000   92.197475   -223.066568
 0.040000   91.071380   -226.678879
 0.045000   89.930686   -229.109868
 0.050000   88.780281   -230.459167
 0.055000   87.626094   -230.992442
 0.060000   86.470357   -231.030731
 0.065000   85.315787   -230.564954
 0.070000   84.164707   -229.588406
 0.075000   83.019903   -228.359719
 0.080000   81.881110   -226.805514
 0.085000   80.751848   -224.788231
 0.090000   79.633228   -222.622041
 0.095000   78.525627   -220.313452
 0.100000   77.430093   -217.600369
 0.105000   76.349624   -214.632435
 0.110000   75.283769   -211.713982
 0.115000   74.232484   -208.782566
 0.120000   73.195943   -205.793349
 0.125000   72.174550   -202.709326
 0.130000   71.168850   -199.541730
 0.135000   70.179133   -196.243085
 0.140000   69.206419   -192.960003
 0.145000   68.249533   -189.782581
 0.150000   67.308593   -186.587875
 0.155000   66.383654   -183.409771
 0.160000   65.474496   -180.275462
 0.165000   64.580900   -177.182789
 0.170000   63.702668   -174.122099
 0.175000   62.839679   -171.081230
 0.180000   61.991855   -168.067692
 0.185000   61.159002   -165.048500
 0.190000   60.341370   -162.002402
 0.195000   59.538978   -159.011229
 0.200000   58.751258   -156.102091
 0.205000   57.977957   -153.227669
 0.210000   57.218982   -150.379670
 0.215000   56.474160   -147.568209
 0.220000   55.743299   -144.788808
 0.225000   55.026272   -142.049988
 0.230000   54.322800   -139.410842
 0.235000   53.632164   -136.839112
 0.240000   52.954408   -134.334610
 0.245000   52.288818   -132.015237
 0.250000   51.634256   -129.868136
 0.255000   50.990136   -127.842211
 0.260000   50.355834   -125.896478
 0.265000   49.731171   -123.993011
 0.270000   49.115904   -122.041315
 0.275000   48.510758   -120.151337
 0.280000   47.914390   -118.406621
 0.285000   47.326692   -116.691804
 0.290000   46.747472   -114.986659
 0.295000   46.176825   -113.238167
 0.300000   45.615091   -111.476765
 0.305000   45.062058   -109.782049
 0.310000   44.517270   -108.143583
 0.315000   43.980622   -106.525311
 0.320000   43.452017   -104.877324
 0.325000   42.931849   -103.207094
 0.330000   42.419946   -101.582919
 0.335000   41.916020   -99.985595
 0.340000   41.420090   -98.383110
 0.345000   40.932188   -96.723839
 0.350000   40.452852   -95.069568
 0.355000   39.981493   -93.488209
 0.360000   39.517970   -91.937213
 0.365000   39.062121   -90.399822
 0.370000   38.613972   -88.897426
 0.375000   38.173146   -87.479483
 0.380000   37.739177   -86.150239
 0.385000   37.311644   -84.878272
 0.390000   36.890394   -83.627685
 0.395000   36.475367   -82.441664
 0.400000   36.065977   -81.335634
 0.405000   35.662011   -80.259123
 0.410000   35.263386   -79.166534
 0.415000   34.870346   -78.070359
 0.420000   34.482683   -76.993603
 0.425000   34.100409   -75.901813
 0.430000   33.723664   -74.777807
 0.435000   33.352631   -73.664075
 0.440000   32.987024   -72.582474
 0.445000   32.626807   -71.502900
 0.450000   32.271995   -70.427564
 0.455000   31.922531   -69.413897
 0.460000   31.577856   -68.476547
 0.465000   31.237766   -67.550025
 0.470000   30.902355   -66.635301
 0.475000   30.571413   -65.790393
 0.480000   30.244452   -65.010768
 0.485000   29.921305   -64.227608
 0.490000   29.602175   -63.451496
 0.495000   29.286790   -62.734694
 0.500000   28.974828   -62.058129
 0.505000   28.666209   -61.357837
 0.510000   28.361250   -60.666310
 0.515000   28.059546   -60.036032
 0.520000   27.760890   -59.434425
 0.525000   27.465201   -58.801234
 0.530000   27.172877   -58.177639
 0.535000   26.883425   -57.616064
 0.540000   26.596717   -57.069820
 0.545000   26.312727   -56.500659
 0.550000   26.031710   -55.948325
 0.555000   25.753243   -55.441865
 0.560000   25.477292   -54.931968
 0.565000   25.203924   -54.412420
 0.570000   24.933167   -53.923342
 0.575000   24.664690   -53.473457
 0.580000   24.398433   -53.028487
 0.585000   24.134405   -52.581988
 0.590000   23.872613   -52.159448
 0.595000   23.612811   -51.771243
 0.600000   23.354901   -51.393162
 0.605000   23.098879   -51.017107
 0.610000   22.844729   -50.660366
 0.615000   22.592276   -50.324995
 0.620000   22.341479   -49.996068
 0.625000   22.092315   -49.651910
 0.630000   21.844960   -49.288762
 0.635000   21.599427   -48.914253
 0.640000   21.355818   -48.519765
 0.645000   21.114230   -48.108161
 0.650000   20.874736   -47.689616
 0.655000   20.637334   -47.266994
 0.660000   20.402066   -46.834926
 0.665000   20.168984   -46.397031
 0.670000   19.938096   -45.953697
 0.675000   19.709447   -45.501472
 0.680000   19.483081   -45.038813
 0.685000   19.259059   -44.582220
 0.690000   19.037259   -44.139940
 0.695000   18.817660   -43.699079
 0.700000   18.600268   -43.258799
 0.705000   18.385072   -42.819273
 0.710000   18.172076   -42.380875
 0.715000   17.961263   -41.931294
 0.720000   17.752763   -41.461677
 0.725000   17.546646   -40.975856
 0.730000   17.343004   -40.475271
 0.735000   17.141894   -39.964349
 0.740000   16.943361   -39.432182
 0.745000   16.747572   -38.878337
 0.750000   16.554577   -38.323921
 0.755000   16.364333   -37.783636
 0.760000   16.176741   -37.268380
 0.765000   15.991649   -36.774885
 0.770000   15.808992   -36.307432
 0.775000   15.628574   -35.885233
 0.780000   15.450140   -35.507297
 0.785000   15.273501   -35.166491
 0.790000   15.098475   -34.850569
 0.795000   14.924996   -34.550109
 0.800000   14.752974   -34.270658
 0.805000   14.582289   -34.013529
 0.810000   14.412838   -33.764824
 0.815000   14.244641   -33.513432
 0.820000   14.077704   -33.262041
 0.825000   13.912021   -33.012167
 0.830000   13.747582   -32.764107
 0.835000   13.584379   -32.515684
 0.840000   13.422426   -32.266184
 0.845000   13.261718   -32.023710
 0.850000   13.102188   -31.788334
 0.855000   12.943834   -31.574511
 0.860000   12.786443   -31.404973
 0.865000   12.629785   -31.297760
 0.870000   12.473466   -31.251479
 0.875000   12.317270   -31.249856
 0.880000   12.160967   -31.292785
 0.885000   12.004342   -31.378130
 0.890000   11.847186   -31.507463
 0.895000   11.689267   -31.750004
 0.900000   11.529686   -32.091470
 0.905000   11.368353   -32.503798
 0.910000   11.204648   -33.082538
 0.915000   11.037527   -33.974324
 0.920000   10.864905   -35.544800
 0.925000   10.682079   -38.785058
 0.930000   10.477054   -45.156080
 0.935000   10.230518   -57.217746
 0.940000   9.904877   -79.059914
 0.945000   9.439919   -114.394070
 0.950000   8.760936   -162.471047
 0.955000   7.815209   -213.315436
 0.960000   6.627782   -249.260718
 0.965000   5.322602   -256.236086
 0.970000   4.065421   -233.010753
 0.975000   2.992494   -189.264608
 0.980000   2.172775   -139.273480
 0.985000   1.599759   -95.646904
 0.990000   1.216306   -64.084336
 0.995000   0.958916   -43.815429
 1.000000   0.778151   -28.490426
201 psinorm omeg(kRad/s) domeg/dpsiN
 0.000000   49.364978   0.021090
 0.005000   49.364423   -0.243283
 0.010000   49.362546   -0.541419
 0.015000   49.359009   -0.912279
 0.020000   49.353423   -1.365943
 0.025000   49.345349   -1.912626
 0.030000   49.334296   -2.563064
 0.035000   49.319719   -3.327632
 0.040000   49.301020   -4.215692
 0.045000   49.277562   -5.229397
 0.050000   49.248726   -6.368142
 0.055000   49.213880   -7.632553
 0.060000   49.172401   -9.019056
 0.065000   49.123690   -10.521143
 0.070000   49.067189   -12.117893
 0.075000   49.002511   -13.790940
 0.080000   48.929280   -15.528417
 0.085000   48.847227   -17.307140
 0.090000   48.756208   -19.104242
 0.095000   48.656184   -20.901079
 0.100000   48.547198   -22.649424
 0.105000   48.429690   -24.360704
 0.110000   48.303591   -26.094845
 0.115000   48.168741   -27.850793
 0.120000   48.025083   -29.618003
 0.125000   47.872561   -31.389363
 0.130000   47.711189   -33.113438
 0.135000   47.541427   -34.784130
 0.140000   47.363348   -36.471915
 0.145000   47.176708   -38.200628
 0.150000   46.981341   -39.976560
 0.155000   46.776942   -41.827112
 0.160000   46.563070   -43.779093
 0.165000   46.339151   -45.831873
 0.170000   46.104752   -47.927583
 0.175000   45.859876   -50.013238
 0.180000   45.604619   -52.073166
 0.185000   45.339144   -54.095797
 0.190000   45.063661   -56.067549
 0.195000   44.778468   -57.970888
 0.200000   44.483952   -59.794435
 0.205000   44.180524   -61.514510
 0.210000   43.868807   -63.095811
 0.215000   43.549566   -64.513493
 0.220000   43.223672   -65.733177
 0.225000   42.892234   -66.718311
 0.230000   42.556489   -67.551047
 0.235000   42.216724   -68.293386
 0.240000   41.873555   -68.919736
 0.245000   41.527526   -69.441382
 0.250000   41.179142   -69.847340
 0.255000   40.829053   -70.033722
 0.260000   40.478804   -69.970301
 0.265000   40.129350   -69.668245
 0.270000   39.782122   -69.087914
 0.275000   39.438471   -68.249681
 0.280000   39.099625   -67.168657
 0.285000   38.766784   -65.744040
 0.290000   38.442185   -64.191930
 0.295000   38.124865   -62.711634
 0.300000   37.815068   -61.205383
 0.305000   37.512811   -59.714664
 0.310000   37.217922   -58.272344
 0.315000   36.930088   -56.815174
 0.320000   36.649770   -55.425442
 0.325000   36.375833   -54.169377
 0.330000   36.108076   -52.960048
 0.335000   35.846233   -51.807629
 0.340000   35.590000   -50.714317
 0.345000   35.339090   -49.646509
 0.350000   35.093535   -48.574250
 0.355000   34.853347   -47.481739
 0.360000   34.618717   -46.352492
 0.365000   34.389822   -45.191574
 0.370000   34.166802   -44.006200
 0.375000   33.949760   -42.790609
 0.380000   33.738896   -41.565870
 0.385000   33.534101   -40.357181
 0.390000   33.335324   -39.157067
 0.395000   33.142531   -37.963919
 0.400000   32.955685   -36.777652
 0.405000   32.774754   -35.588908
 0.410000   32.599795   -34.387608
 0.415000   32.430878   -33.174234
 0.420000   32.268053   -31.951582
 0.425000   32.111362   -30.723100
 0.430000   31.960822   -29.493970
 0.435000   31.816423   -28.263735
 0.440000   31.678185   -27.053481
 0.445000   31.545888   -25.911118
 0.450000   31.419074   -24.863118
 0.455000   31.297257   -23.910818
 0.460000   31.179965   -23.046725
 0.465000   31.066789   -22.280832
 0.470000   30.957157   -21.606666
 0.475000   30.850723   -20.942981
 0.480000   30.747727   -20.245295
 0.485000   30.648270   -19.518644
 0.490000   30.552541   -18.746933
 0.495000   30.460800   -17.935479
 0.500000   30.373186   -17.080352
 0.505000   30.289997   -16.127821
 0.510000   30.211908   -15.080664
 0.515000   30.139190   -13.987394
 0.520000   30.072034   -12.866082
 0.525000   30.010530   -11.738285
 0.530000   29.954651   -10.620278
 0.535000   29.904327   -9.532907
 0.540000   29.859322   -8.518456
 0.545000   29.819142   -7.616747
 0.550000   29.783154   -6.849008
 0.555000   29.750652   -6.228267
 0.560000   29.720872   -5.773549
 0.565000   29.692917   -5.473338
 0.570000   29.666138   -5.320291
 0.575000   29.639714   -5.348211
 0.580000   29.612656   -5.596704
 0.585000   29.583747   -6.121628
 0.590000   29.551440   -7.028437
 0.595000   29.513462   -8.368415
 0.600000   29.467756   -10.193509
 0.605000   29.411527   -12.619994
 0.610000   29.341556   -15.726702
 0.615000   29.254260   -19.574251
 0.620000   29.145813   -24.238386
 0.625000   29.011876   -29.594525
 0.630000   28.849868   -35.460105
 0.635000   28.657275   -41.761160
 0.640000   28.432257   -48.349963
 0.645000   28.173776   -55.061713
 0.650000   27.881639   -61.604725
 0.655000   27.557728   -67.794928
 0.660000   27.203690   -73.583112
 0.665000   26.821897   -78.825347
 0.670000   26.415437   -83.410968
 0.675000   25.987788   -87.283211
 0.680000   25.542605   -90.218720
 0.685000   25.085600   -92.496966
 0.690000   24.617635   -94.641049
 0.695000   24.139190   -96.679865
 0.700000   23.650836   -98.665421
 0.705000   23.152536   -100.711344
 0.710000   22.643723   -103.017197
 0.715000   22.122364   -105.862214
 0.720000   21.585101   -109.103172
 0.725000   21.031332   -112.268768
 0.730000   20.462413   -114.986773
 0.735000   19.881464   -116.931169
 0.740000   19.293101   -117.929354
 0.745000   18.702171   -117.738227
 0.750000   18.115719   -116.147874
 0.755000   17.540692   -113.287260
 0.760000   16.982846   -109.355224
 0.765000   16.447140   -104.534908
 0.770000   15.937497   -99.038624
 0.775000   15.456753   -93.104126
 0.780000   15.006456   -86.901640
 0.785000   14.587737   -80.478826
 0.790000   14.201668   -73.874121
 0.795000   13.848996   -67.154233
 0.800000   13.530126   -60.406810
 0.805000   13.244928   -53.726977
 0.810000   12.992856   -47.136776
 0.815000   12.773560   -40.701574
 0.820000   12.585840   -34.586364
 0.825000   12.427696   -28.960931
 0.830000   12.296231   -24.007895
 0.835000   12.187617   -19.900824
 0.840000   12.097222   -16.796062
 0.845000   12.019657   -14.834315
 0.850000   11.948879   -14.131396
 0.855000   11.878343   -14.788207
 0.860000   11.800997   -16.942822
 0.865000   11.708915   -20.902186
 0.870000   11.591975   -26.963415
 0.875000   11.439280   -35.440050
 0.880000   11.237575   -46.800859
 0.885000   10.971272   -61.503820
 0.890000   10.622537   -79.963144
 0.895000   10.171640   -103.169865
 0.900000   9.590838   -130.572469
 0.905000   8.865916   -160.794985
 0.910000   7.982888   -192.968028
 0.915000   6.936235   -224.999436
 0.920000   5.732894   -254.023513
 0.925000   4.396000   -277.470326
 0.930000   2.958191   -290.171566
 0.935000   1.494285   -287.207275
 0.940000   0.086118   -267.005066
 0.945000   -1.175766   -228.853645
 0.950000   -2.202419   -174.451516
 0.955000   -2.920281   -108.198144
 0.960000   -3.284400   -37.132771
 0.965000   -3.291609   30.502360
 0.970000   -2.979376   87.544209
 0.975000   -2.416167   128.990660
 0.980000   -1.689470   152.410003
 0.985000   -0.892067   157.408638
 0.990000   -0.115383   146.867039
 0.995000   0.576604   125.677928
 1.000000   1.141396   100.238921
201 psinorm omegp(kRad/s) domegp/dpsiN
 0.000000   -0.015979   141.101027
 0.005000   0.550128   85.341585
 0.010000   0.837437   55.143451
 0.015000   1.101562   51.971956
 0.020000   1.357157   50.186568
 0.025000   1.603428   47.711542
 0.030000   1.834272   43.863402
 0.035000   2.042062   39.627818
 0.040000   2.230550   35.634720
 0.045000   2.398409   31.714523
 0.050000   2.547696   28.398342
 0.055000   2.682393   25.955644
 0.060000   2.807252   24.421123
 0.065000   2.926604   23.616331
 0.070000   3.043415   23.241604
 0.075000   3.159020   23.036826
 0.080000   3.273784   22.945744
 0.085000   3.388477   22.860203
 0.090000   3.502386   22.656387
 0.095000   3.615041   22.289234
 0.100000   3.725278   21.636506
 0.105000   3.831406   20.849483
 0.110000   3.933773   19.937875
 0.115000   4.030785   18.872339
 0.120000   4.122496   17.854782
 0.125000   4.209333   17.071863
 0.130000   4.293215   16.479081
 0.135000   4.374124   16.001433
 0.140000   4.453229   15.670327
 0.145000   4.530827   15.553940
 0.150000   4.608769   15.472595
 0.155000   4.685553   15.236286
 0.160000   4.761131   14.729916
 0.165000   4.832852   13.975524
 0.170000   4.900887   12.909639
 0.175000   4.961949   11.465904
 0.180000   5.015546   9.783753
 0.185000   5.059786   7.856168
 0.190000   5.094107   5.848841
 0.195000   5.118274   3.759841
 0.200000   5.131706   1.772024
 0.205000   5.135995   -0.194516
 0.210000   5.129761   -1.998727
 0.215000   5.116007   -3.465502
 0.220000   5.095106   -4.797348
 0.225000   5.068034   -5.874135
 0.230000   5.036364   -6.850429
 0.235000   4.999530   -7.769246
 0.240000   4.958672   -8.694983
 0.245000   4.912580   -9.828379
 0.250000   4.860388   -11.002786
 0.255000   4.802552   -12.341446
 0.260000   4.736974   -13.923974
 0.265000   4.663312   -15.579542
 0.270000   4.581178   -17.378055
 0.275000   4.489532   -19.202574
 0.280000   4.389152   -20.996154
 0.285000   4.279570   -22.838638
 0.290000   4.160766   -24.541296
 0.295000   4.034157   -26.134667
 0.300000   3.899419   -27.717920
 0.305000   3.756978   -29.086671
 0.310000   3.608553   -30.330601
 0.315000   3.453672   -31.553127
 0.320000   3.293021   -32.553139
 0.325000   3.128141   -33.478997
 0.330000   2.958231   -34.485839
 0.335000   2.783282   -35.456323
 0.340000   2.603668   -36.450137
 0.345000   2.418781   -37.440501
 0.350000   2.229263   -38.170486
 0.355000   2.037076   -38.574424
 0.360000   1.843519   -38.707348
 0.365000   1.650003   -38.537756
 0.370000   1.458141   -38.129308
 0.375000   1.268709   -37.556626
 0.380000   1.082575   -36.726228
 0.385000   0.901447   -35.895379
 0.390000   0.723621   -35.334209
 0.395000   0.548105   -34.940878
 0.400000   0.374213   -34.731331
 0.405000   0.200792   -34.689909
 0.410000   0.027313   -34.741443
 0.415000   -0.146623   -34.853197
 0.420000   -0.321219   -35.148051
 0.425000   -0.498103   -35.902720
 0.430000   -0.680246   -37.367797
 0.435000   -0.871781   -39.830534
 0.440000   -1.078551   -43.770580
 0.445000   -1.309487   -48.583953
 0.450000   -1.564391   -53.515302
 0.455000   -1.844640   -58.583968
 0.460000   -2.150230   -63.563951
 0.465000   -2.480279   -68.254612
 0.470000   -2.832776   -72.152125
 0.475000   -3.201801   -74.452995
 0.480000   -3.577306   -74.955398
 0.485000   -3.951355   -73.870027
 0.490000   -4.316007   -71.301082
 0.495000   -4.664366   -67.162521
 0.500000   -4.987632   -61.461471
 0.505000   -5.278980   -55.079127
 0.510000   -5.538423   -48.782514
 0.515000   -5.766805   -42.619432
 0.520000   -5.964617   -36.752960
 0.525000   -6.134335   -31.364517
 0.530000   -6.278263   -26.935612
 0.535000   -6.403691   -23.858191
 0.540000   -6.516845   -21.882071
 0.545000   -6.622512   -20.831555
 0.550000   -6.725160   -20.448255
 0.555000   -6.826994   -20.724656
 0.560000   -6.932407   -21.510316
 0.565000   -7.042098   -22.177002
 0.570000   -7.154177   -22.451208
 0.575000   -7.266610   -22.268596
 0.580000   -7.376863   -21.533085
 0.585000   -7.481940   -20.147938
 0.590000   -7.578342   -17.818486
 0.595000   -7.660125   -14.669893
 0.600000   -7.725041   -11.030510
 0.605000   -7.770430   -7.047584
 0.610000   -7.795517   -3.092216
 0.615000   -7.801353   0.561335
 0.620000   -7.789903   3.732677
 0.625000   -7.764026   6.306220
 0.630000   -7.726841   8.171913
 0.635000   -7.682307   9.406864
 0.640000   -7.632773   10.173259
 0.645000   -7.580574   10.505800
 0.650000   -7.527715   10.618669
 0.655000   -7.474387   10.770230
 0.660000   -7.420012   11.016404
 0.665000   -7.364223   11.274642
 0.670000   -7.307266   11.543114
 0.675000   -7.248792   11.856085
 0.680000   -7.188705   12.141781
 0.685000   -7.127374   12.349604
 0.690000   -7.065209   12.598956
 0.695000   -7.001385   13.011682
 0.700000   -6.935092   13.704003
 0.705000   -6.864345   14.869259
 0.710000   -6.786400   16.396811
 0.715000   -6.700377   18.049995
 0.720000   -6.605900   19.664960
 0.725000   -6.503727   21.114290
 0.730000   -6.394757   22.328026
 0.735000   -6.280447   22.850462
 0.740000   -6.166252   22.260490
 0.745000   -6.057842   20.632107
 0.750000   -5.959931   18.086271
 0.755000   -5.876979   14.729486
 0.760000   -5.812636   10.841248
 0.765000   -5.768567   6.848267
 0.770000   -5.744153   3.157371
 0.775000   -5.736993   -0.006072
 0.780000   -5.744214   -2.500535
 0.785000   -5.761998   -4.342981
 0.790000   -5.787644   -5.804345
 0.795000   -5.820042   -7.339190
 0.800000   -5.861036   -9.301568
 0.805000   -5.913058   -11.839894
 0.810000   -5.979435   -15.142908
 0.815000   -6.064487   -19.236209
 0.820000   -6.171797   -24.123798
 0.825000   -6.305725   -29.126187
 0.830000   -6.463059   -33.531725
 0.835000   -6.641042   -37.084001
 0.840000   -6.833899   -39.306574
 0.845000   -7.034108   -39.902589
 0.850000   -7.232925   -38.526760
 0.855000   -7.419375   -35.198429
 0.860000   -7.584909   -30.507672
 0.865000   -7.724452   -25.170922
 0.870000   -7.836618   -19.645562
 0.875000   -7.920908   -14.255560
 0.880000   -7.979174   -9.503181
 0.885000   -8.015939   -5.730651
 0.890000   -8.036480   -2.786398
 0.895000   -8.043803   -0.421085
 0.900000   -8.040691   1.387228
 0.905000   -8.029931   2.840763
 0.910000   -8.012284   4.215576
 0.915000   -7.987775   5.617109
 0.920000   -7.956112   7.476124
 0.925000   -7.913014   9.526251
 0.930000   -7.860850   11.553146
 0.935000   -7.797483   15.176423
 0.940000   -7.709086   21.600329
 0.945000   -7.581479   28.700753
 0.950000   -7.422078   35.706834
 0.955000   -7.224411   44.632899
 0.960000   -6.975749   55.422414
 0.965000   -6.670187   71.108207
 0.970000   -6.264667   100.934805
 0.975000   -5.660839   162.055587
 0.980000   -4.644111   280.919164
 0.985000   -2.851647   462.754839
 0.990000   -0.016563   650.561406
 0.995000   3.653967   721.837614
 1.000000   7.201813   697.300923
201 psinorm omgvb(kRad/s) domgvb/dpsiN
 0.000000   49.349000   141.122117
 0.005000   49.914551   85.098301
 0.010000   50.199983   54.602032
 0.015000   50.460571   51.059677
 0.020000   50.710580   48.820625
 0.025000   50.948777   45.798915
 0.030000   51.168569   41.300338
 0.035000   51.361781   36.300186
 0.040000   51.531571   31.419028
 0.045000   51.675971   26.485126
 0.050000   51.796422   22.030201
 0.055000   51.896273   18.323091
 0.060000   51.979653   15.402067
 0.065000   52.050294   13.095189
 0.070000   52.110605   11.123711
 0.075000   52.161531   9.245886
 0.080000   52.203063   7.417328
 0.085000   52.235704   5.553064
 0.090000   52.258594   3.552145
 0.095000   52.271226   1.388155
 0.100000   52.272476   -1.012918
 0.105000   52.261096   -3.511220
 0.110000   52.237363   -6.156970
 0.115000   52.199527   -8.978454
 0.120000   52.147579   -11.763221
 0.125000   52.081894   -14.317500
 0.130000   52.004404   -16.634358
 0.135000   51.915551   -18.782697
 0.140000   51.816577   -20.801588
 0.145000   51.707535   -22.646687
 0.150000   51.590110   -24.503965
 0.155000   51.462495   -26.590826
 0.160000   51.324202   -29.049178
 0.165000   51.172004   -31.856349
 0.170000   51.005638   -35.017944
 0.175000   50.821824   -38.547334
 0.180000   50.620165   -42.289413
 0.185000   50.398930   -46.239629
 0.190000   50.157769   -50.218709
 0.195000   49.896743   -54.211047
 0.200000   49.615658   -58.022411
 0.205000   49.316519   -61.709026
 0.210000   48.998568   -65.094538
 0.215000   48.665573   -67.978996
 0.220000   48.318778   -70.530525
 0.225000   47.960268   -72.592447
 0.230000   47.592853   -74.401476
 0.235000   47.216253   -76.062632
 0.240000   46.832227   -77.614719
 0.245000   46.440106   -79.269760
 0.250000   46.039530   -80.850126
 0.255000   45.631605   -82.375168
 0.260000   45.215778   -83.894275
 0.265000   44.792662   -85.247787
 0.270000   44.363300   -86.465970
 0.275000   43.928002   -87.452255
 0.280000   43.488777   -88.164811
 0.285000   43.046354   -88.582679
 0.290000   42.602951   -88.733225
 0.295000   42.159022   -88.846302
 0.300000   41.714488   -88.923303
 0.305000   41.269789   -88.801336
 0.310000   40.826474   -88.602945
 0.315000   40.383760   -88.368301
 0.320000   39.942791   -87.978581
 0.325000   39.503974   -87.648374
 0.330000   39.066308   -87.445887
 0.335000   38.629515   -87.263952
 0.340000   38.193668   -87.164454
 0.345000   37.757870   -87.087010
 0.350000   37.322798   -86.744736
 0.355000   36.890423   -86.056163
 0.360000   36.462236   -85.059840
 0.365000   36.039825   -83.729331
 0.370000   35.624943   -82.135508
 0.375000   35.218470   -80.347235
 0.380000   34.821471   -78.292098
 0.385000   34.435549   -76.252560
 0.390000   34.058945   -74.491276
 0.395000   33.690636   -72.904797
 0.400000   33.329897   -71.508983
 0.405000   32.975546   -70.278817
 0.410000   32.627109   -69.129051
 0.415000   32.284255   -68.027431
 0.420000   31.946835   -67.099633
 0.425000   31.613259   -66.625820
 0.430000   31.280576   -66.861767
 0.435000   30.944642   -68.094268
 0.440000   30.599634   -70.824060
 0.445000   30.236401   -74.495071
 0.450000   29.854683   -78.378420
 0.455000   29.452617   -82.494786
 0.460000   29.029735   -86.610676
 0.465000   28.586510   -90.535444
 0.470000   28.124381   -93.758791
 0.475000   27.648922   -95.395976
 0.480000   27.170421   -95.200693
 0.485000   26.696915   -93.388671
 0.490000   26.236534   -90.048015
 0.495000   25.796435   -85.098000
 0.500000   25.385554   -78.541824
 0.505000   25.011017   -71.206948
 0.510000   24.673485   -63.863179
 0.515000   24.372385   -56.606826
 0.520000   24.107416   -49.619041
 0.525000   23.876195   -43.102802
 0.530000   23.676388   -37.555890
 0.535000   23.500636   -33.391098
 0.540000   23.342477   -30.400526
 0.545000   23.196630   -28.448302
 0.550000   23.057994   -27.297263
 0.555000   22.923658   -26.952923
 0.560000   22.788465   -27.283865
 0.565000   22.650819   -27.650340
 0.570000   22.511962   -27.771499
 0.575000   22.373104   -27.616807
 0.580000   22.235794   -27.129789
 0.585000   22.101806   -26.269566
 0.590000   21.973098   -24.846923
 0.595000   21.853337   -23.038308
 0.600000   21.742715   -21.224019
 0.605000   21.641097   -19.667578
 0.610000   21.546039   -18.818918
 0.615000   21.452908   -19.012917
 0.620000   21.355910   -20.505709
 0.625000   21.247850   -23.288306
 0.630000   21.123027   -27.288192
 0.635000   20.974969   -32.354296
 0.640000   20.799484   -38.176705
 0.645000   20.593202   -44.555913
 0.650000   20.353925   -50.986056
 0.655000   20.083341   -57.024698
 0.660000   19.783678   -62.566708
 0.665000   19.457674   -67.550705
 0.670000   19.108171   -71.867854
 0.675000   18.738995   -75.427126
 0.680000   18.353900   -78.076939
 0.685000   17.958226   -80.147362
 0.690000   17.552426   -82.042093
 0.695000   17.137805   -83.668183
 0.700000   16.715744   -84.961418
 0.705000   16.288191   -85.842085
 0.710000   15.857323   -86.620386
 0.715000   15.421987   -87.812219
 0.720000   14.979201   -89.438211
 0.725000   14.527605   -91.154478
 0.730000   14.067656   -92.658747
 0.735000   13.601017   -94.080707
 0.740000   13.126849   -95.668864
 0.745000   12.644329   -97.106120
 0.750000   12.155788   -98.061603
 0.755000   11.663713   -98.557774
 0.760000   11.170210   -98.513977
 0.765000   10.678573   -97.686641
 0.770000   10.193344   -95.881254
 0.775000   9.719760   -93.110198
 0.780000   9.262242   -89.402175
 0.785000   8.825739   -84.821807
 0.790000   8.414024   -79.678465
 0.795000   8.028954   -74.493423
 0.800000   7.669090   -69.708378
 0.805000   7.331870   -65.566871
 0.810000   7.013421   -62.279684
 0.815000   6.709073   -59.937783
 0.820000   6.414043   -58.710162
 0.825000   6.121972   -58.087118
 0.830000   5.833172   -57.539621
 0.835000   5.546576   -56.984825
 0.840000   5.263324   -56.102636
 0.845000   4.985549   -54.736904
 0.850000   4.715955   -52.658156
 0.855000   4.458968   -49.986636
 0.860000   4.216088   -47.450494
 0.865000   3.984463   -46.073109
 0.870000   3.755357   -46.608976
 0.875000   3.518373   -49.695610
 0.880000   3.258401   -56.304040
 0.885000   2.955333   -67.234470
 0.890000   2.586056   -82.749542
 0.895000   2.127837   -103.590950
 0.900000   1.550147   -129.185241
 0.905000   0.835985   -157.954222
 0.910000   -0.029395   -188.752452
 0.915000   -1.051540   -219.382327
 0.920000   -2.223219   -246.547389
 0.925000   -3.517014   -267.944075
 0.930000   -4.902659   -278.618420
 0.935000   -6.303198   -272.030852
 0.940000   -7.622968   -245.404737
 0.945000   -8.757245   -200.152892
 0.950000   -9.624497   -138.744682
 0.955000   -10.144692   -63.565245
 0.960000   -10.260149   18.289644
 0.965000   -9.961796   101.610567
 0.970000   -9.244044   188.479014
 0.975000   -8.077005   291.046247
 0.980000   -6.333581   433.329167
 0.985000   -3.743714   620.163477
 0.990000   -0.131946   797.428445
 0.995000   4.230571   847.515542
 1.000000   8.343209   797.539844
201 psinorm omgpp(kRad/s) domgpp/dpsiN
 0.000000   -0.055493   -27.792156
 0.005000   -0.223270   -39.318710
 0.010000   -0.448680   -45.258897
 0.015000   -0.675859   -45.604758
 0.020000   -0.904728   -45.954166
 0.025000   -1.135401   -46.346861
 0.030000   -1.368196   -46.757785
 0.035000   -1.602978   -47.162915
 0.040000   -1.839825   -47.565081
 0.045000   -2.078629   -47.933163
 0.050000   -2.319157   -48.273976
 0.055000   -2.561369   -48.516938
 0.060000   -2.804326   -48.458275
 0.065000   -3.045952   -48.146569
 0.070000   -3.285792   -47.684358
 0.075000   -3.522795   -47.015262
 0.080000   -3.755945   -46.134909
 0.085000   -3.984144   -44.979971
 0.090000   -4.205744   -43.667905
 0.095000   -4.420824   -42.246199
 0.100000   -4.628206   -40.600701
 0.105000   -4.826831   -38.742076
 0.110000   -5.015627   -36.618178
 0.115000   -5.193012   -33.990055
 0.120000   -5.355528   -31.559402
 0.125000   -5.508606   -29.439323
 0.130000   -5.649921   -27.151698
 0.135000   -5.780123   -25.021740
 0.140000   -5.900138   -23.090876
 0.145000   -6.011032   -21.216377
 0.150000   -6.112302   -19.847369
 0.155000   -6.209506   -18.702147
 0.160000   -6.299323   -17.147401
 0.165000   -6.380980   -15.417414
 0.170000   -6.453498   -13.474094
 0.175000   -6.515721   -11.309609
 0.180000   -6.566594   -9.096205
 0.185000   -6.606683   -6.924498
 0.190000   -6.635839   -4.722441
 0.195000   -6.653907   -2.484272
 0.200000   -6.660681   -0.194149
 0.205000   -6.655849   2.474542
 0.210000   -6.635936   5.202677
 0.215000   -6.603822   7.524831
 0.220000   -6.560688   9.513971
 0.225000   -6.508682   11.028108
 0.230000   -6.450407   12.025678
 0.235000   -6.388425   12.466165
 0.240000   -6.325745   12.294765
 0.245000   -6.265478   12.079432
 0.250000   -6.204951   12.273278
 0.255000   -6.142745   12.753028
 0.260000   -6.077420   13.516191
 0.265000   -6.007583   14.150813
 0.270000   -5.935912   15.147825
 0.275000   -5.856105   16.898861
 0.280000   -5.766924   18.585906
 0.285000   -5.670246   20.108754
 0.290000   -5.565836   21.665961
 0.295000   -5.453586   23.147257
 0.300000   -5.334363   24.624107
 0.305000   -5.207345   26.009224
 0.310000   -5.074271   27.119651
 0.315000   -4.936149   28.147562
 0.320000   -4.792796   29.197429
 0.325000   -4.644174   30.325706
 0.330000   -4.489539   31.501694
 0.335000   -4.329157   32.247162
 0.340000   -4.167067   32.591380
 0.345000   -4.003244   32.841502
 0.350000   -3.838652   32.896486
 0.355000   -3.674279   32.898520
 0.360000   -3.509667   32.654111
 0.365000   -3.347738   31.365761
 0.370000   -3.196009   29.593322
 0.375000   -3.051804   28.073193
 0.380000   -2.915277   26.549995
 0.385000   -2.786304   25.004295
 0.390000   -2.665234   23.218761
 0.395000   -2.554117   21.811389
 0.400000   -2.447120   21.079930
 0.405000   -2.343317   20.586043
 0.410000   -2.241260   20.317481
 0.415000   -2.140143   20.139571
 0.420000   -2.039864   19.992883
 0.425000   -1.940214   19.925902
 0.430000   -1.840605   19.684269
 0.435000   -1.743371   19.102370
 0.440000   -1.649581   18.286073
 0.445000   -1.560510   17.188487
 0.450000   -1.477697   15.835216
 0.455000   -1.402158   14.064833
 0.460000   -1.337048   12.161944
 0.465000   -1.280539   10.438092
 0.470000   -1.232667   8.717937
 0.475000   -1.193359   7.022950
 0.480000   -1.162438   5.249166
 0.485000   -1.140868   3.833831
 0.490000   -1.124100   2.817363
 0.495000   -1.112694   1.751872
 0.500000   -1.106581   0.715874
 0.505000   -1.105535   -0.275163
 0.510000   -1.109332   -1.164512
 0.515000   -1.117181   -1.964972
 0.520000   -1.128982   -2.806532
 0.525000   -1.145246   -3.693435
 0.530000   -1.165917   -4.560128
 0.535000   -1.190847   -5.391332
 0.540000   -1.219830   -6.019078
 0.545000   -1.251038   -6.653329
 0.550000   -1.286363   -7.469906
 0.555000   -1.325737   -8.199253
 0.560000   -1.368356   -8.827194
 0.565000   -1.414009   -9.412968
 0.570000   -1.462485   -9.869787
 0.575000   -1.512707   -10.401192
 0.580000   -1.566497   -11.112339
 0.585000   -1.623830   -11.735633
 0.590000   -1.683854   -12.263754
 0.595000   -1.746468   -12.766432
 0.600000   -1.811518   -13.289342
 0.605000   -1.879361   -13.854442
 0.610000   -1.950062   -14.264429
 0.615000   -2.022005   -14.411745
 0.620000   -2.094180   -14.282461
 0.625000   -2.164830   -13.795765
 0.630000   -2.232137   -12.952769
 0.635000   -2.294358   -11.890848
 0.640000   -2.351046   -10.936499
 0.645000   -2.403723   -10.150581
 0.650000   -2.452552   -9.400844
 0.655000   -2.497731   -8.704395
 0.660000   -2.539596   -8.082320
 0.665000   -2.578554   -7.581338
 0.670000   -2.615409   -7.190577
 0.675000   -2.650460   -6.821802
 0.680000   -2.683627   -6.494090
 0.685000   -2.715401   -6.252925
 0.690000   -2.746156   -6.134394
 0.695000   -2.776745   -6.487841
 0.700000   -2.811035   -7.089445
 0.705000   -2.847639   -7.993542
 0.710000   -2.890970   -9.451868
 0.715000   -2.942158   -11.017553
 0.720000   -3.001146   -12.588723
 0.725000   -3.068045   -15.155544
 0.730000   -3.152701   -15.245330
 0.735000   -3.220499   -13.024355
 0.740000   -3.282945   -11.642647
 0.745000   -3.336925   -9.607349
 0.750000   -3.379018   -6.865849
 0.755000   -3.405584   -3.947878
 0.760000   -3.418497   0.929004
 0.765000   -3.396294   6.740779
 0.770000   -3.351089   11.302315
 0.775000   -3.283270   15.683226
 0.780000   -3.194257   19.655319
 0.785000   -3.086717   23.807083
 0.790000   -2.956186   26.623639
 0.795000   -2.820481   27.698233
 0.800000   -2.679204   28.588368
 0.805000   -2.534597   28.927141
 0.810000   -2.389932   28.610318
 0.815000   -2.248494   28.328963
 0.820000   -2.106643   26.687818
 0.825000   -1.981616   23.589380
 0.830000   -1.870749   20.845104
 0.835000   -1.773165   18.188720
 0.840000   -1.688862   15.624929
 0.845000   -1.616915   13.374973
 0.850000   -1.555112   11.474211
 0.855000   -1.502173   9.606424
 0.860000   -1.459048   7.446950
 0.865000   -1.427704   4.847761
 0.870000   -1.410570   1.755386
 0.875000   -1.410150   -2.456345
 0.880000   -1.435134   -7.614384
 0.885000   -1.486294   -12.678812
 0.890000   -1.561922   -18.565425
 0.895000   -1.671948   -26.389999
 0.900000   -1.825822   -36.368313
 0.905000   -2.035631   -51.237805
 0.910000   -2.338200   -71.556935
 0.915000   -2.751201   -92.822083
 0.920000   -3.266421   -118.684700
 0.925000   -3.938048   -154.924483
 0.930000   -4.815665   -202.522414
 0.935000   -5.963272   -269.443333
 0.940000   -7.510099   -357.497235
 0.945000   -9.538244   -439.617455
 0.950000   -11.906273   -506.386366
 0.955000   -14.602108   -551.385243
 0.960000   -17.420126   -542.259717
 0.965000   -20.024705   -461.513590
 0.970000   -22.035262   -296.510295
 0.975000   -22.989808   -46.767396
 0.980000   -22.502936   216.527407
 0.985000   -20.824534   421.507000
 0.990000   -18.287866   547.949852
 0.995000   -15.345035   585.505160
 1.000000   -12.432814   579.383323
201 psinorm omgeb(kRad/s) domgeb/dpsiN
 0.000000   49.293507   113.329961
 0.005000   49.691281   45.779591
 0.010000   49.751303   9.343134
 0.015000   49.784712   5.454918
 0.020000   49.805852   2.866459
 0.025000   49.813377   -0.547945
 0.030000   49.800373   -5.457447
 0.035000   49.758802   -10.862729
 0.040000   49.691745   -16.146053
 0.045000   49.597342   -21.448037
 0.050000   49.477265   -26.243775
 0.055000   49.334904   -30.193848
 0.060000   49.175326   -33.056208
 0.065000   49.004342   -35.051380
 0.070000   48.824813   -36.560647
 0.075000   48.638735   -37.769376
 0.080000   48.447119   -38.717581
 0.085000   48.251560   -39.426907
 0.090000   48.052850   -40.115760
 0.095000   47.850402   -40.858044
 0.100000   47.644269   -41.613620
 0.105000   47.434266   -42.253296
 0.110000   47.221736   -42.775148
 0.115000   47.006514   -42.968509
 0.120000   46.792051   -43.322623
 0.125000   46.573288   -43.756823
 0.130000   46.354483   -43.786056
 0.135000   46.135428   -43.804437
 0.140000   45.916439   -43.892463
 0.145000   45.696503   -43.863064
 0.150000   45.477808   -44.351334
 0.155000   45.252990   -45.292974
 0.160000   45.024878   -46.196578
 0.165000   44.791024   -47.273763
 0.170000   44.552141   -48.492038
 0.175000   44.306103   -49.856943
 0.180000   44.053571   -51.385618
 0.185000   43.792247   -53.164127
 0.190000   43.521930   -54.941150
 0.195000   43.242836   -56.695319
 0.200000   42.954977   -58.216559
 0.205000   42.660670   -59.234484
 0.210000   42.362632   -59.891861
 0.215000   42.061751   -60.454164
 0.220000   41.758090   -61.016554
 0.225000   41.451586   -61.564339
 0.230000   41.142447   -62.375798
 0.235000   40.827828   -63.596467
 0.240000   40.506482   -65.319954
 0.245000   40.174628   -67.190328
 0.250000   39.834579   -68.576849
 0.255000   39.488860   -69.622141
 0.260000   39.138358   -70.378083
 0.265000   38.785079   -71.096973
 0.270000   38.427388   -71.318145
 0.275000   38.071898   -70.553395
 0.280000   37.721854   -69.578905
 0.285000   37.376109   -68.473925
 0.290000   37.037115   -67.067265
 0.295000   36.705436   -65.699045
 0.300000   36.380124   -64.299196
 0.305000   36.062444   -62.792112
 0.310000   35.752203   -61.483294
 0.315000   35.447611   -60.220739
 0.320000   35.149996   -58.781152
 0.325000   34.859800   -57.322668
 0.330000   34.576769   -55.944193
 0.335000   34.300358   -55.016790
 0.340000   34.026601   -54.573074
 0.345000   33.754627   -54.245508
 0.350000   33.484146   -53.848249
 0.355000   33.216144   -53.157643
 0.360000   32.952570   -52.405729
 0.365000   32.692087   -52.363570
 0.370000   32.428934   -52.542186
 0.375000   32.166665   -52.274043
 0.380000   31.906193   -51.742103
 0.385000   31.649244   -51.248265
 0.390000   31.393711   -51.272515
 0.395000   31.136519   -51.093409
 0.400000   30.882777   -50.429053
 0.405000   30.632229   -49.692774
 0.410000   30.385849   -48.811570
 0.415000   30.144113   -47.887860
 0.420000   29.906970   -47.106749
 0.425000   29.673045   -46.699918
 0.430000   29.439971   -47.177498
 0.435000   29.201270   -48.991899
 0.440000   28.950052   -52.537987
 0.445000   28.675890   -57.306584
 0.450000   28.376986   -62.543205
 0.455000   28.050458   -68.429953
 0.460000   27.692687   -74.448733
 0.465000   27.305971   -80.097353
 0.470000   26.891713   -85.040854
 0.475000   26.455563   -88.373026
 0.480000   26.007983   -89.951527
 0.485000   25.556047   -89.554840
 0.490000   25.112435   -87.230651
 0.495000   24.683741   -83.346128
 0.500000   24.278973   -77.825949
 0.505000   23.905481   -71.482111
 0.510000   23.564152   -65.027690
 0.515000   23.255204   -58.571799
 0.520000   22.978434   -52.425573
 0.525000   22.730949   -46.796237
 0.530000   22.510472   -42.116018
 0.535000   22.309788   -38.782430
 0.540000   22.122648   -36.419604
 0.545000   21.945592   -35.101631
 0.550000   21.771631   -34.767169
 0.555000   21.597921   -35.152176
 0.560000   21.420110   -36.111059
 0.565000   21.236810   -37.063308
 0.570000   21.049476   -37.641286
 0.575000   20.860397   -38.017999
 0.580000   20.669296   -38.242128
 0.585000   20.477976   -38.005200
 0.590000   20.289244   -37.110677
 0.595000   20.106869   -35.804740
 0.600000   19.931197   -34.513361
 0.605000   19.761736   -33.522021
 0.610000   19.595977   -33.083346
 0.615000   19.430902   -33.424662
 0.620000   19.261730   -34.788170
 0.625000   19.083020   -37.084071
 0.630000   18.890889   -40.240961
 0.635000   18.680611   -44.245144
 0.640000   18.448438   -49.113204
 0.645000   18.189479   -54.706494
 0.650000   17.901373   -60.386900
 0.655000   17.585610   -65.729094
 0.660000   17.244082   -70.649028
 0.665000   16.879120   -75.132043
 0.670000   16.492762   -79.058431
 0.675000   16.088535   -82.248928
 0.680000   15.670272   -84.571029
 0.685000   15.242825   -86.400287
 0.690000   14.806270   -88.176486
 0.695000   14.361060   -90.156023
 0.700000   13.904709   -92.050862
 0.705000   13.440551   -93.835627
 0.710000   12.966353   -96.072254
 0.715000   12.479829   -98.829772
 0.720000   11.978055   -102.026935
 0.725000   11.459560   -106.310022
 0.730000   10.914955   -107.904077
 0.735000   10.380519   -107.105062
 0.740000   9.843905   -107.311511
 0.745000   9.307404   -106.713469
 0.750000   8.776770   -104.927453
 0.755000   8.258129   -102.505652
 0.760000   7.751713   -97.584973
 0.765000   7.282279   -90.945862
 0.770000   6.842255   -84.578939
 0.775000   6.436490   -77.426972
 0.780000   6.067985   -69.746856
 0.785000   5.739021   -61.014724
 0.790000   5.457838   -53.054826
 0.795000   5.208473   -46.795190
 0.800000   4.989886   -41.120010
 0.805000   4.797273   -36.639730
 0.810000   4.623489   -33.669366
 0.815000   4.460579   -31.608820
 0.820000   4.307400   -32.022345
 0.825000   4.140356   -34.497738
 0.830000   3.962423   -36.694517
 0.835000   3.773411   -38.796105
 0.840000   3.574462   -40.477707
 0.845000   3.368634   -41.361932
 0.850000   3.160843   -41.183945
 0.855000   2.956794   -40.380212
 0.860000   2.757040   -40.003544
 0.865000   2.556759   -41.225348
 0.870000   2.344787   -44.853590
 0.875000   2.108223   -52.151955
 0.880000   1.823267   -63.918424
 0.885000   1.469039   -79.913282
 0.890000   1.024135   -101.314967
 0.895000   0.455889   -129.980949
 0.900000   -0.275675   -165.553554
 0.905000   -1.199646   -209.192027
 0.910000   -2.367595   -260.309387
 0.915000   -3.802740   -312.204410
 0.920000   -5.489639   -365.232089
 0.925000   -7.455061   -422.868558
 0.930000   -9.718325   -481.140834
 0.935000   -12.266470   -541.474185
 0.940000   -15.133067   -602.901972
 0.945000   -18.295489   -639.770347
 0.950000   -21.530770   -645.131048
 0.955000   -24.746800   -614.950488
 0.960000   -27.680275   -523.970074
 0.965000   -29.986501   -359.903023
 0.970000   -31.279305   -108.031281
 0.975000   -31.066813   244.278852
 0.980000   -28.836517   649.856574
 0.985000   -24.568248   1041.670477
 0.990000   -18.419812   1345.378296
 0.995000   -11.114465   1433.020702
 1.000000   -4.089605   1376.923167
201 psinorm er(kV/m) der/dpsiN
 0.000000   0.862162   966.660754
 0.005000   4.762455   593.456720
 0.010000   6.796729   361.083791
 0.015000   8.373293   290.024696
 0.020000   9.696976   250.076511
 0.025000   10.874058   223.782202
 0.030000   11.934798   202.582576
 0.035000   12.899884   185.163756
 0.040000   13.786436   170.713674
 0.045000   14.607021   158.527391
 0.050000   15.371709   147.213885
 0.055000   16.079160   137.782062
 0.060000   16.749530   130.891099
 0.065000   17.388071   123.530669
 0.070000   17.984837   113.922663
 0.075000   18.527297   109.368887
 0.080000   19.078526   105.943741
 0.085000   19.586735   97.067350
 0.090000   20.049199   94.352303
 0.095000   20.530258   89.811977
 0.100000   20.947319   84.592542
 0.105000   21.376183   82.203647
 0.110000   21.769355   76.129794
 0.115000   22.137481   74.568624
 0.120000   22.515042   69.514437
 0.125000   22.832626   67.445385
 0.130000   23.189495   63.594773
 0.135000   23.468573   61.200154
 0.140000   23.801497   58.439740
 0.145000   24.052971   55.421398
 0.150000   24.355711   53.565782
 0.155000   24.588629   49.343320
 0.160000   24.849144   48.299585
 0.165000   25.071624   43.268699
 0.170000   25.281831   42.697038
 0.175000   25.498595   37.152510
 0.180000   25.653356   37.021338
 0.185000   25.868808   30.836690
 0.190000   25.961723   27.644909
 0.195000   26.145257   28.330074
 0.200000   26.245024   21.233929
 0.205000   26.357597   23.203268
 0.210000   26.477057   16.379464
 0.215000   26.521391   16.085690
 0.220000   26.637913   14.829888
 0.225000   26.669690   9.470517
 0.230000   26.732619   12.772575
 0.235000   26.797416   4.912405
 0.240000   26.781743   3.317619
 0.245000   26.830592   3.521738
 0.250000   26.816960   -3.614279
 0.255000   26.794449   -1.186191
 0.260000   26.805098   -6.731195
 0.265000   26.727137   -10.244998
 0.270000   26.702648   -5.486262
 0.275000   26.672275   -12.458628
 0.280000   26.578062   -12.428340
 0.285000   26.547991   -8.728440
 0.290000   26.490777   -14.189891
 0.295000   26.406092   -12.230374
 0.300000   26.368474   -10.994520
 0.305000   26.296147   -14.828129
 0.310000   26.220192   -11.907415
 0.315000   26.177073   -12.466044
 0.320000   26.095532   -15.175780
 0.325000   26.025315   -11.636237
 0.330000   25.979170   -12.916862
 0.335000   25.896147   -15.275928
 0.340000   25.826410   -12.518246
 0.345000   25.770964   -14.636307
 0.350000   25.680047   -17.000261
 0.355000   25.600961   -14.447135
 0.360000   25.535576   -15.778022
 0.365000   25.443181   -18.234751
 0.370000   25.353228   -16.945554
 0.375000   25.273726   -17.925410
 0.380000   25.173974   -19.946327
 0.385000   25.074262   -18.778094
 0.390000   24.986193   -19.188410
 0.395000   24.882378   -21.481036
 0.400000   24.771383   -20.778377
 0.405000   24.674595   -19.886518
 0.410000   24.572518   -21.541805
 0.415000   24.459177   -21.092816
 0.420000   24.361590   -19.624304
 0.425000   24.262933   -21.550963
 0.430000   24.146080   -22.645492
 0.435000   24.036479   -23.126809
 0.440000   23.914812   -27.804722
 0.445000   23.758431   -32.801749
 0.450000   23.586794   -36.632328
 0.455000   23.392108   -42.450028
 0.460000   23.162294   -48.813123
 0.465000   22.903977   -53.734055
 0.470000   22.624954   -58.131472
 0.475000   22.322662   -62.388338
 0.480000   22.001070   -64.333724
 0.485000   21.679325   -63.844213
 0.490000   21.362628   -63.244036
 0.495000   21.046884   -60.766156
 0.500000   20.754967   -55.831046
 0.505000   20.488574   -51.152553
 0.510000   20.243441   -46.589833
 0.515000   20.022676   -41.173740
 0.520000   19.831704   -35.903354
 0.525000   19.663642   -32.063228
 0.530000   19.511071   -28.377946
 0.535000   19.379863   -25.117792
 0.540000   19.259893   -23.853936
 0.545000   19.141323   -23.313622
 0.550000   19.026757   -22.769657
 0.555000   18.913627   -23.288846
 0.560000   18.793869   -24.998734
 0.565000   18.663639   -25.982081
 0.570000   18.534048   -26.109201
 0.575000   18.402547   -27.349484
 0.580000   18.260553   -28.026443
 0.585000   18.122283   -27.364350
 0.590000   17.986910   -26.881052
 0.595000   17.853472   -26.554725
 0.600000   17.721362   -25.412528
 0.605000   17.599347   -24.095008
 0.610000   17.480412   -24.662384
 0.615000   17.352723   -25.367392
 0.620000   17.226738   -25.984074
 0.625000   17.092883   -28.352405
 0.630000   16.943214   -32.026424
 0.635000   16.772618   -35.571761
 0.640000   16.587497   -39.472417
 0.645000   16.377894   -45.458728
 0.650000   16.132909   -51.026527
 0.655000   15.867629   -55.296149
 0.660000   15.579948   -59.989147
 0.665000   15.267737   -64.957516
 0.670000   14.930373   -68.549729
 0.675000   14.582240   -70.968622
 0.680000   14.220687   -73.905255
 0.685000   13.843188   -76.095591
 0.690000   13.459731   -77.314268
 0.695000   13.070045   -79.157870
 0.700000   12.668152   -81.828225
 0.705000   12.251763   -83.581824
 0.710000   11.832334   -85.083647
 0.715000   11.400926   -88.239133
 0.720000   10.949942   -91.778760
 0.725000   10.483139   -95.449777
 0.730000   9.995445   -96.670911
 0.735000   9.516429   -96.946148
 0.740000   9.025983   -97.395624
 0.745000   8.542473   -96.212028
 0.750000   8.063863   -94.988183
 0.755000   7.592591   -93.481233
 0.760000   7.129050   -88.840624
 0.765000   6.704185   -82.331817
 0.770000   6.305732   -77.166321
 0.775000   5.932522   -70.921037
 0.780000   5.596522   -63.409965
 0.785000   5.298422   -55.332210
 0.790000   5.043200   -48.633669
 0.795000   4.812086   -42.888358
 0.800000   4.614316   -37.187235
 0.805000   4.440213   -33.324309
 0.810000   4.281073   -30.891076
 0.815000   4.131302   -28.847871
 0.820000   3.992594   -29.057145
 0.825000   3.840731   -31.681770
 0.830000   3.675777   -33.845649
 0.835000   3.502275   -35.594063
 0.840000   3.319836   -37.191102
 0.845000   3.130364   -38.261126
 0.850000   2.937225   -38.127273
 0.855000   2.749091   -37.244026
 0.860000   2.564785   -37.007119
 0.865000   2.379020   -38.280533
 0.870000   2.181979   -41.637815
 0.875000   1.962641   -48.383844
 0.880000   1.698141   -59.460294
 0.885000   1.368039   -74.424831
 0.890000   0.953893   -94.312251
 0.895000   0.424916   -121.033965
 0.900000   -0.256447   -154.248203
 0.905000   -1.117566   -194.926619
 0.910000   -2.205713   -242.506029
 0.915000   -3.542626   -290.747631
 0.920000   -5.113190   -340.157411
 0.925000   -6.944200   -394.121652
 0.930000   -9.054406   -448.679139
 0.935000   -11.430992   -507.898266
 0.940000   -14.133389   -568.241660
 0.945000   -17.113408   -602.557305
 0.950000   -20.158962   -612.604301
 0.955000   -23.239451   -613.381112
 0.960000   -26.292773   -531.169305
 0.965000   -28.551144   -355.395215
 0.970000   -29.846725   -128.815868
 0.975000   -29.839303   194.889066
 0.980000   -27.897834   603.230425
 0.985000   -23.806999   1001.514848
 0.990000   -17.882686   1302.109441
 0.995000   -10.785904   1389.677136
 1.000000   -3.985915   1330.318818
201 psinorm ommvb() dommvb/dpsiN
 0.000000   77.867277   25255.738350
 0.005000   176.590818   14233.677984
 0.010000   220.204057   7727.514429
 0.015000   253.865962   5998.111670
 0.020000   280.185174   5137.348961
 0.025000   305.239452   4606.427135
 0.030000   326.249445   3961.881674
 0.035000   344.858269   3284.509270
 0.040000   359.094538   2619.274329
 0.045000   371.051012   2173.000273
 0.050000   380.824540   1750.734578
 0.055000   388.558358   1462.612619
 0.060000   395.450667   1190.929411
 0.065000   400.467652   944.041202
 0.070000   404.891079   757.437880
 0.075000   408.042031   549.241392
 0.080000   410.383493   382.954213
 0.085000   411.871573   142.665001
 0.090000   411.810143   -93.767352
 0.095000   410.933899   -179.291842
 0.100000   410.017224   -296.497776
 0.105000   407.968921   -478.650190
 0.110000   405.230722   -685.430623
 0.115000   401.114615   -765.483903
 0.120000   397.575883   -746.029379
 0.125000   393.654321   -836.759014
 0.130000   389.208293   -924.705064
 0.135000   384.407271   -991.003857
 0.140000   379.298255   -1052.797778
 0.145000   373.879293   -1126.980085
 0.150000   368.028454   -1198.018917
 0.155000   361.899104   -1246.049878
 0.160000   355.567955   -1282.682018
 0.165000   349.072284   -1308.771727
 0.170000   342.480238   -1327.766601
 0.175000   335.794618   -1338.690272
 0.180000   329.093335   -1336.859962
 0.185000   322.426018   -1330.741555
 0.190000   315.785919   -1321.549639
 0.195000   309.210522   -1301.588189
 0.200000   302.770037   -1273.751619
 0.205000   296.473005   -1247.692136
 0.210000   290.293116   -1223.923744
 0.215000   284.233768   -1288.391385
 0.220000   277.409202   -1232.104119
 0.225000   271.912727   -1071.410375
 0.230000   266.695099   -1017.334648
 0.235000   261.739380   -963.780277
 0.240000   257.057296   -911.005093
 0.245000   252.629329   -863.820889
 0.250000   248.419087   -886.867211
 0.255000   243.760657   -874.018649
 0.260000   239.678900   -731.216694
 0.265000   236.448490   -618.910537
 0.270000   233.489795   -564.221675
 0.275000   230.806274   -507.553168
 0.280000   228.414263   -530.194443
 0.285000   225.504329   -508.032842
 0.290000   223.333935   -378.369589
 0.295000   221.720633   -303.678696
 0.300000   220.297148   -266.481977
 0.305000   219.055814   -273.537912
 0.310000   217.561769   -274.196838
 0.315000   216.313845   -191.696807
 0.320000   215.644801   -120.566043
 0.325000   215.108185   -93.546145
 0.330000   214.709339   -108.950295
 0.335000   214.018682   -103.340927
 0.340000   213.675930   -42.477221
 0.345000   213.593910   -10.640163
 0.350000   213.569528   -13.619378
 0.355000   213.457716   -40.235636
 0.360000   213.167172   -8.780258
 0.365000   213.369913   43.852069
 0.370000   213.605693   51.114861
 0.375000   213.881062   0.803574
 0.380000   213.613728   1.817243
 0.385000   213.899234   52.787087
 0.390000   214.141599   43.835785
 0.395000   214.337592   -3.859565
 0.400000   214.103004   -6.713131
 0.405000   214.270461   46.036851
 0.410000   214.563372   58.260094
 0.415000   214.853062   -3.850103
 0.420000   214.524871   -28.652585
 0.425000   214.566536   23.104952
 0.430000   214.755921   34.981686
 0.435000   214.916353   -44.986995
 0.440000   214.306051   -75.918873
 0.445000   214.157164   -18.541238
 0.450000   214.120638   -11.939313
 0.455000   214.037771   -100.923485
 0.460000   213.111404   -128.708572
 0.465000   212.750685   -69.246806
 0.470000   212.418935   -76.039087
 0.475000   211.990294   -183.000685
 0.480000   210.588929   -184.434732
 0.485000   210.145947   -88.911109
 0.490000   209.699818   -109.197969
 0.495000   209.053967   -187.301150
 0.500000   207.826806   -158.052329
 0.505000   207.473444   -67.877965
 0.510000   207.148026   -96.733919
 0.515000   206.506105   -146.333683
 0.520000   205.684690   -99.432168
 0.525000   205.511783   -31.498756
 0.530000   205.369702   -68.188152
 0.535000   204.829902   -92.228387
 0.540000   204.447418   -28.721404
 0.545000   204.542688   20.656094
 0.550000   204.653979   -25.843024
 0.555000   204.284257   -39.072396
 0.560000   204.263255   27.719518
 0.565000   204.561452   62.740776
 0.570000   204.890663   22.848492
 0.575000   204.789937   27.197303
 0.580000   205.162636   96.590034
 0.585000   205.755838   124.442004
 0.590000   206.407056   98.577969
 0.595000   206.741617   112.976837
 0.600000   207.536824   174.864145
 0.605000   208.490259   197.145588
 0.610000   209.508280   181.732031
 0.615000   210.307579   194.575464
 0.620000   211.454035   242.436492
 0.625000   212.731944   262.092171
 0.630000   214.074957   260.537727
 0.635000   215.337321   277.267439
 0.640000   216.847631   318.690845
 0.645000   218.524230   345.411198
 0.650000   220.301743   364.638401
 0.655000   222.170614   397.439370
 0.660000   224.276137   442.453110
 0.665000   226.595145   479.511734
 0.670000   229.071254   514.880699
 0.675000   231.743952   569.111390
 0.680000   234.762368   621.046054
 0.685000   237.954412   654.339048
 0.690000   241.305758   685.310203
 0.695000   244.807515   741.548965
 0.700000   248.721248   788.202563
 0.705000   252.689540   804.528416
 0.710000   256.766532   833.289996
 0.715000   261.022440   876.545973
 0.720000   265.531992   928.007107
 0.725000   270.302511   961.776468
 0.730000   275.149757   1001.907567
 0.735000   280.321587   1068.192622
 0.740000   285.831683   1151.105112
 0.745000   291.832638   1254.143153
 0.750000   298.373114   1322.496757
 0.755000   305.057606   1377.197009
 0.760000   312.145084   1460.811200
 0.765000   319.665718   1549.599238
 0.770000   327.641077   1665.359707
 0.775000   336.319315   1742.871874
 0.780000   345.069796   1794.176248
 0.785000   354.261077   1886.904109
 0.790000   363.938837   1984.202173
 0.795000   374.103099   2085.583407
 0.800000   384.794671   2181.124820
 0.805000   395.914347   2265.989614
 0.810000   407.454567   2360.365772
 0.815000   419.518005   2468.658690
 0.820000   432.141154   2580.360720
 0.825000   445.321612   2690.679685
 0.830000   459.047951   2756.607875
 0.835000   472.887691   2852.271397
 0.840000   487.570665   2996.417216
 0.845000   502.851863   3119.647266
 0.850000   518.767137   3249.337338
 0.855000   535.345236   3391.130092
 0.860000   552.678438   3569.825697
 0.865000   571.043493   3850.497486
 0.870000   591.183413   4202.965398
 0.875000   613.073147   4729.695731
 0.880000   638.480370   5388.912242
 0.885000   666.962270   6060.080302
 0.890000   699.081173   6859.241494
 0.895000   735.554685   7823.015195
 0.900000   777.311325   8985.082326
 0.905000   825.405508   10384.045626
 0.910000   881.151782   12029.267830
 0.915000   945.698186   13749.638707
 0.920000   1018.648169   15393.874358
 0.925000   1099.636930   16921.978683
 0.930000   1187.867955   18226.410973
 0.935000   1281.901039   19396.966570
 0.940000   1381.837621   21773.748318
 0.945000   1499.638523   28573.364818
 0.950000   1667.571269   43575.554615
 0.955000   1935.394069   66521.051277
 0.960000   2332.781782   91295.860011
 0.965000   2848.352669   108286.241209
 0.970000   3415.644194   108894.499276
 0.975000   3937.297662   88710.474697
 0.980000   4302.748941   53542.160883
 0.985000   4472.719270   17361.008995
 0.990000   4476.359031   -17566.057561
 0.995000   4297.058695   147562.622738
 1.000000   5951.985258   514408.002720
201 psinorm ommpp() dommpp/dpsiN
 0.000000   -28.573770   -25142.408389
 0.005000   -126.899537   -14187.898392
 0.010000   -170.452754   -7718.171295
 0.015000   -204.081250   -5992.656752
 0.020000   -230.379322   -5134.482502
 0.025000   -255.426075   -4606.975080
 0.030000   -276.449072   -3967.339122
 0.035000   -295.099466   -3295.372000
 0.040000   -309.402792   -2635.420382
 0.045000   -321.453670   -2194.448310
 0.050000   -331.347276   -1776.978353
 0.055000   -339.223454   -1492.806467
 0.060000   -346.275340   -1223.985618
 0.065000   -351.463310   -979.092582
 0.070000   -356.066266   -793.998528
 0.075000   -359.403295   -587.010768
 0.080000   -361.936374   -421.671795
 0.085000   -363.620013   -182.091909
 0.090000   -363.757293   53.651592
 0.095000   -363.083497   138.433799
 0.100000   -362.372955   254.884156
 0.105000   -360.534656   436.396894
 0.110000   -358.008986   642.655475
 0.115000   -354.108101   722.515394
 0.120000   -350.783832   702.706756
 0.125000   -347.081033   793.002192
 0.130000   -342.853810   880.919008
 0.135000   -338.271843   947.199420
 0.140000   -333.381816   1008.905314
 0.145000   -328.182790   1083.117021
 0.150000   -322.550646   1153.667583
 0.155000   -316.646114   1200.756904
 0.160000   -310.543077   1236.485440
 0.165000   -304.281260   1261.497964
 0.170000   -297.928097   1279.274563
 0.175000   -291.488514   1288.833330
 0.180000   -285.039764   1285.474344
 0.185000   -278.633771   1277.577428
 0.190000   -272.263989   1266.608490
 0.195000   -265.967686   1244.892870
 0.200000   -259.815061   1215.535060
 0.205000   -253.812335   1188.457651
 0.210000   -247.930484   1164.031883
 0.215000   -242.172017   1227.937220
 0.220000   -235.651112   1171.087565
 0.225000   -230.461141   1009.846036
 0.230000   -225.552652   954.958850
 0.235000   -220.911552   900.183810
 0.240000   -216.550814   845.685139
 0.245000   -212.454701   796.630560
 0.250000   -208.584508   818.290363
 0.255000   -204.271797   804.396508
 0.260000   -200.540543   660.838611
 0.265000   -197.663411   547.813564
 0.270000   -195.062407   492.903530
 0.275000   -192.734376   436.999774
 0.280000   -190.692409   460.615538
 0.285000   -188.128221   439.558917
 0.290000   -186.296820   311.302324
 0.295000   -185.015197   237.979651
 0.300000   -183.917024   202.182781
 0.305000   -182.993370   210.745800
 0.310000   -181.809566   212.713544
 0.315000   -180.866234   131.476068
 0.320000   -180.494805   61.784890
 0.325000   -180.248385   36.223476
 0.330000   -180.132570   53.006101
 0.335000   -179.718324   48.324137
 0.340000   -179.649329   -12.095853
 0.345000   -179.839283   -43.605345
 0.350000   -180.085382   -40.228871
 0.355000   -180.241571   -12.922007
 0.360000   -180.214602   -43.625470
 0.365000   -180.677826   -96.215639
 0.370000   -181.176759   -103.657047
 0.375000   -181.714397   -53.077617
 0.380000   -181.707535   -53.559347
 0.385000   -182.249990   -104.035353
 0.390000   -182.747889   -95.108300
 0.395000   -183.201073   -47.233844
 0.400000   -183.220227   -43.715922
 0.405000   -183.638232   -95.729625
 0.410000   -184.177523   -107.071664
 0.415000   -184.708949   -44.037757
 0.420000   -184.617901   -18.454164
 0.425000   -184.893491   -69.804870
 0.430000   -185.315950   -82.159184
 0.435000   -185.715082   -4.004904
 0.440000   -185.355999   23.380886
 0.445000   -185.481274   -38.765346
 0.450000   -185.743652   -50.603891
 0.455000   -185.987312   32.493532
 0.460000   -185.418717   54.259839
 0.465000   -185.444714   -10.850547
 0.470000   -185.527222   -9.001767
 0.475000   -185.534732   94.627659
 0.480000   -184.580946   94.483205
 0.485000   -184.589900   -0.643732
 0.490000   -184.587383   21.967318
 0.495000   -184.370226   103.955022
 0.500000   -183.547833   80.226379
 0.505000   -183.567963   -3.604146
 0.510000   -183.583874   31.706228
 0.515000   -183.250900   87.761884
 0.520000   -182.706255   47.006595
 0.525000   -182.780834   -15.297481
 0.530000   -182.859230   26.072134
 0.535000   -182.520113   53.445957
 0.540000   -182.324771   -7.698200
 0.545000   -182.597095   -55.757725
 0.550000   -182.882348   -8.924145
 0.555000   -182.686337   3.920220
 0.560000   -182.843146   -63.830577
 0.565000   -183.324642   -99.804084
 0.570000   -183.841186   -60.489778
 0.575000   -183.929540   -65.215302
 0.580000   -184.493339   -134.832162
 0.585000   -185.277862   -162.447204
 0.590000   -186.117811   -135.688646
 0.595000   -186.634748   -148.781576
 0.600000   -187.605627   -209.377506
 0.605000   -188.728523   -230.667609
 0.610000   -189.912303   -214.815377
 0.615000   -190.876677   -228.000126
 0.620000   -192.192305   -277.224663
 0.625000   -193.648924   -299.176243
 0.630000   -195.184067   -300.778688
 0.635000   -196.656711   -321.512583
 0.640000   -198.399193   -367.804049
 0.645000   -200.334751   -400.117692
 0.650000   -202.400370   -425.025301
 0.655000   -204.585004   -463.168464
 0.660000   -207.032054   -513.102138
 0.665000   -209.716025   -554.643777
 0.670000   -212.578492   -593.939130
 0.675000   -215.655417   -651.360319
 0.680000   -219.092095   -705.617083
 0.685000   -222.711588   -740.739336
 0.690000   -226.499489   -773.486690
 0.695000   -230.446454   -831.704988
 0.700000   -234.816539   -880.253425
 0.705000   -239.248989   -898.364043
 0.710000   -243.800179   -929.362250
 0.715000   -248.542611   -975.375744
 0.720000   -253.553937   -1030.034041
 0.725000   -258.842952   -1068.086490
 0.730000   -264.234801   -1109.811644
 0.735000   -269.941068   -1175.297684
 0.740000   -275.987778   -1258.416623
 0.745000   -282.525234   -1360.856622
 0.750000   -289.596344   -1427.424210
 0.755000   -296.799476   -1479.702660
 0.760000   -304.393371   -1558.396172
 0.765000   -312.383438   -1640.545100
 0.770000   -320.798822   -1749.938645
 0.775000   -329.882825   -1820.298846
 0.780000   -339.001811   -1863.923104
 0.785000   -348.522056   -1947.918833
 0.790000   -358.480999   -2037.256999
 0.795000   -368.894626   -2132.378598
 0.800000   -379.804785   -2222.244830
 0.805000   -391.117074   -2302.629344
 0.810000   -402.831078   -2394.035138
 0.815000   -415.057425   -2500.267510
 0.820000   -427.833753   -2612.383065
 0.825000   -441.181256   -2725.177423
 0.830000   -455.085528   -2793.302392
 0.835000   -469.114280   -2891.067502
 0.840000   -483.996203   -3036.894923
 0.845000   -499.483229   -3161.009198
 0.850000   -515.606295   -3290.521283
 0.855000   -532.388442   -3431.510304
 0.860000   -549.921398   -3609.829241
 0.865000   -568.486734   -3891.722834
 0.870000   -588.838626   -4247.818988
 0.875000   -610.964924   -4781.847686
 0.880000   -636.657103   -5452.830666
 0.885000   -665.493231   -6139.993584
 0.890000   -698.057039   -6960.556462
 0.895000   -735.098795   -7952.996145
 0.900000   -777.587000   -9150.635880
 0.905000   -826.605154   -10593.237654
 0.910000   -883.519377   -12289.577217
 0.915000   -949.500926   -14061.843118
 0.920000   -1024.137808   -15759.106447
 0.925000   -1107.091991   -17344.847241
 0.930000   -1197.586280   -18707.551808
 0.935000   -1294.167509   -19938.440755
 0.940000   -1396.970688   -22376.650290
 0.945000   -1517.934012   -29213.135164
 0.950000   -1689.102039   -44220.685663
 0.955000   -1960.140869   -67136.001765
 0.960000   -2360.462057   -91819.830084
 0.965000   -2878.339169   -108646.144232
 0.970000   -3446.923499   -109002.530556
 0.975000   -3968.364475   -88466.195846
 0.980000   -4331.585458   -52892.304309
 0.985000   -4497.287518   -16319.338518
 0.990000   -4494.778843   18911.435858
 0.995000   -4308.173159   -146129.602036
 1.000000   -5956.074863   -513031.079552
201 psinorm omevb() domevb/dpsiN
 0.000000   26.382382   126.160764
 0.005000   26.857918   64.053699
 0.010000   27.022919   30.340220
 0.015000   27.161320   26.454190
 0.020000   27.287461   23.866988
 0.025000   27.399990   20.452916
 0.030000   27.491990   15.542827
 0.035000   27.555418   10.136042
 0.040000   27.593350   4.850304
 0.045000   27.603921   -0.455001
 0.050000   27.588800   -5.254963
 0.055000   27.551372   -9.210157
 0.060000   27.496699   -12.078531
 0.065000   27.430586   -14.080606
 0.070000   27.355893   -15.597660
 0.075000   27.274610   -16.815053
 0.080000   27.187742   -17.772798
 0.085000   27.096882   -18.492532
 0.090000   27.002817   -19.192657
 0.095000   26.904955   -19.947072
 0.100000   26.803346   -20.715634
 0.105000   26.697799   -21.369145
 0.110000   26.589655   -21.905675
 0.115000   26.478742   -22.114552
 0.120000   26.368509   -22.485016
 0.125000   26.253892   -22.936394
 0.130000   26.139145   -22.983628
 0.135000   26.024056   -23.020827
 0.140000   25.908937   -23.128483
 0.145000   25.792771   -23.119520
 0.150000   25.677742   -23.629026
 0.155000   25.556481   -24.592698
 0.160000   25.431815   -25.519124
 0.165000   25.301289   -26.619915
 0.170000   25.165615   -27.862574
 0.175000   25.022664   -29.252635
 0.180000   24.873089   -30.807234
 0.185000   24.714591   -32.612427
 0.190000   24.546965   -34.416889
 0.195000   24.370422   -36.199248
 0.200000   24.184972   -37.749420
 0.205000   23.992928   -38.797015
 0.210000   23.797002   -39.484794
 0.215000   23.598080   -40.078224
 0.220000   23.396220   -40.672460
 0.225000   23.191356   -41.252805
 0.230000   22.983692   -42.097531
 0.235000   22.770380   -43.352169
 0.240000   22.550170   -45.110320
 0.245000   22.319277   -47.016047
 0.250000   22.080010   -48.438603
 0.255000   21.834891   -49.520607
 0.260000   21.584804   -50.313932
 0.265000   21.331752   -51.070868
 0.270000   21.074095   -51.330744
 0.275000   20.818444   -50.605350
 0.280000   20.568042   -49.670861
 0.285000   20.321736   -48.606520
 0.290000   20.081976   -47.241132
 0.295000   19.849324   -45.914810
 0.300000   19.622828   -44.557479
 0.305000   19.403750   -43.093526
 0.310000   19.191893   -41.828445
 0.315000   18.985465   -40.610228
 0.320000   18.785791   -39.215573
 0.325000   18.593309   -37.802608
 0.330000   18.407765   -36.470233
 0.335000   18.228607   -35.589504
 0.340000   18.051870   -35.193031
 0.345000   17.876677   -34.913269
 0.350000   17.702737   -34.564368
 0.355000   17.531033   -33.922669
 0.360000   17.363510   -33.220203
 0.365000   17.198831   -33.228027
 0.370000   17.031230   -33.457155
 0.375000   16.864260   -33.240046
 0.380000   16.698829   -32.759657
 0.385000   16.536663   -32.317877
 0.390000   16.375651   -32.394687
 0.395000   16.212716   -32.268637
 0.400000   16.052964   -31.657827
 0.405000   15.896138   -30.975576
 0.410000   15.743209   -30.148876
 0.415000   15.594649   -29.280139
 0.420000   15.450407   -28.554464
 0.425000   15.309104   -28.203525
 0.430000   15.168372   -28.737446
 0.435000   15.021730   -30.608632
 0.440000   14.862286   -34.211941
 0.445000   14.679611   -39.038189
 0.450000   14.471904   -44.332883
 0.455000   14.236282   -50.278123
 0.460000   13.969122   -56.355803
 0.465000   13.672724   -62.063727
 0.470000   13.348485   -67.066930
 0.475000   13.002054   -70.459194
 0.480000   12.643893   -72.098171
 0.485000   12.281073   -71.762338
 0.490000   11.926270   -69.499373
 0.495000   11.586079   -65.676439
 0.500000   11.269505   -60.218207
 0.505000   10.983897   -53.936667
 0.510000   10.730139   -47.544890
 0.515000   10.508448   -41.151980
 0.520000   10.318619   -35.069068
 0.525000   10.157757   -29.503372
 0.530000   10.023585   -24.887112
 0.535000   9.908886   -21.617797
 0.540000   9.807407   -19.319549
 0.545000   9.715691   -18.066456
 0.550000   9.626743   -17.797167
 0.555000   9.537719   -18.247634
 0.560000   9.444266   -19.272259
 0.565000   9.344996   -20.290525
 0.570000   9.241361   -20.934788
 0.575000   9.135649   -21.378050
 0.580000   9.027581   -21.668983
 0.585000   8.918959   -21.499110
 0.590000   8.812590   -20.671886
 0.595000   8.712240   -19.433485
 0.600000   8.618255   -18.209875
 0.605000   8.530141   -17.286528
 0.610000   8.445389   -16.916068
 0.615000   8.360980   -17.325810
 0.620000   8.272131   -18.757953
 0.625000   8.173401   -21.122689
 0.630000   8.060904   -24.348610
 0.635000   7.929915   -28.422014
 0.640000   7.776684   -33.359479
 0.645000   7.596320   -39.022351
 0.650000   7.386461   -44.772511
 0.655000   7.148595   -50.184624
 0.660000   6.884615   -55.174639
 0.665000   6.596848   -59.727888
 0.670000   6.287336   -63.724659
 0.675000   5.959602   -66.985682
 0.680000   5.617479   -69.378446
 0.685000   5.265817   -71.278499
 0.690000   4.904694   -73.125618
 0.695000   4.534561   -75.176196
 0.700000   4.152932   -77.142191
 0.705000   3.763139   -78.998219
 0.710000   3.362950   -81.306214
 0.715000   2.950077   -84.135197
 0.720000   2.521598   -87.403917
 0.725000   2.076038   -91.758648
 0.730000   1.604011   -93.424424
 0.735000   1.141794   -92.697203
 0.740000   0.677039   -92.975511
 0.745000   0.212039   -92.449382
 0.750000   -0.247455   -90.735322
 0.755000   -0.695315   -88.385504
 0.760000   -1.131310   -83.536813
 0.765000   -1.530683   -76.969664
 0.770000   -1.901006   -70.674628
 0.775000   -2.237429   -63.594402
 0.780000   -2.536950   -55.985770
 0.785000   -2.797287   -47.324693
 0.790000   -3.010197   -39.435155
 0.795000   -3.191638   -33.244768
 0.800000   -3.342645   -27.637072
 0.805000   -3.468009   -23.221499
 0.810000   -3.574860   -20.311483
 0.815000   -3.671124   -18.304465
 0.820000   -3.757905   -18.760886
 0.825000   -3.858733   -21.262654
 0.830000   -3.970531   -23.460221
 0.835000   -4.093335   -25.523126
 0.840000   -4.225762   -27.105429
 0.845000   -4.364389   -27.797756
 0.850000   -4.503740   -27.287280
 0.855000   -4.637262   -25.939174
 0.860000   -4.763132   -24.701660
 0.865000   -4.884279   -24.595147
 0.870000   -5.009083   -26.214221
 0.875000   -5.146421   -30.529865
 0.880000   -5.314382   -37.955918
 0.885000   -5.525980   -47.783704
 0.890000   -5.792219   -60.693857
 0.895000   -6.132918   -78.186022
 0.900000   -6.574079   -100.093055
 0.905000   -7.133849   -129.205104
 0.910000   -7.866130   -169.832304
 0.915000   -8.832172   -226.969329
 0.920000   -10.135823   -325.846190
 0.925000   -12.090634   -518.277614
 0.930000   -15.318599   -885.001740
 0.935000   -20.940651   -1553.780338
 0.940000   -30.856403   -2658.285380
 0.945000   -47.523505   -4194.356763
 0.950000   -72.799970   -5857.781411
 0.955000   -106.101319   -6929.165574
 0.960000   -142.091626   -6518.881287
 0.965000   -171.290132   -4107.680863
 0.970000   -183.168435   47.903852
 0.975000   -170.811094   4562.473071
 0.980000   -137.543704   7348.403229
 0.985000   -97.327061   7491.688571
 0.990000   -62.626818   6013.256883
 0.995000   -37.194493   4276.765705
 1.000000   -19.859161   2657.366741
201 psinorm omepp() domepp/dpsiN
 0.000000   22.911125   -12.830803
 0.005000   22.833363   -18.274108
 0.010000   22.728384   -20.997086
 0.015000   22.623392   -20.999272
 0.020000   22.518391   -21.000529
 0.025000   22.413387   -21.000861
 0.030000   22.308383   -21.000274
 0.035000   22.203384   -20.998771
 0.040000   22.098395   -20.996357
 0.045000   21.993420   -20.993036
 0.050000   21.888465   -20.988812
 0.055000   21.783532   -20.983691
 0.060000   21.678628   -20.977677
 0.065000   21.573756   -20.970774
 0.070000   21.468920   -20.962988
 0.075000   21.364126   -20.954322
 0.080000   21.259377   -20.944783
 0.085000   21.154678   -20.934375
 0.090000   21.050033   -20.923103
 0.095000   20.945447   -20.910971
 0.100000   20.840923   -20.897986
 0.105000   20.736467   -20.884151
 0.110000   20.632082   -20.869473
 0.115000   20.527772   -20.853956
 0.120000   20.423542   -20.837606
 0.125000   20.319396   -20.820428
 0.130000   20.215338   -20.802428
 0.135000   20.111372   -20.783610
 0.140000   20.007502   -20.763980
 0.145000   19.903732   -20.743544
 0.150000   19.800066   -20.722308
 0.155000   19.696509   -20.700276
 0.160000   19.593064   -20.677454
 0.165000   19.489734   -20.653848
 0.170000   19.386525   -20.629464
 0.175000   19.283440   -20.604308
 0.180000   19.180482   -20.578384
 0.185000   19.077656   -20.551700
 0.190000   18.974965   -20.524260
 0.195000   18.872413   -20.496071
 0.200000   18.770004   -20.467139
 0.205000   18.667742   -20.437469
 0.210000   18.565630   -20.407068
 0.215000   18.463671   -20.375941
 0.220000   18.361870   -20.344094
 0.225000   18.260230   -20.311534
 0.230000   18.158755   -20.278267
 0.235000   18.057448   -20.244298
 0.240000   17.956312   -20.209634
 0.245000   17.855351   -20.174281
 0.250000   17.754569   -20.138246
 0.255000   17.653969   -20.101534
 0.260000   17.553554   -20.064151
 0.265000   17.453327   -20.026105
 0.270000   17.353293   -19.987401
 0.275000   17.253453   -19.948045
 0.280000   17.153812   -19.908044
 0.285000   17.054373   -19.867405
 0.290000   16.955138   -19.826133
 0.295000   16.856112   -19.784235
 0.300000   16.757296   -19.741717
 0.305000   16.658694   -19.698586
 0.310000   16.560310   -19.654849
 0.315000   16.462146   -19.610511
 0.320000   16.364205   -19.565579
 0.325000   16.266490   -19.520060
 0.330000   16.169004   -19.473960
 0.335000   16.071751   -19.427285
 0.340000   15.974732   -19.380043
 0.345000   15.877950   -19.332240
 0.350000   15.781409   -19.283881
 0.355000   15.685111   -19.234974
 0.360000   15.589059   -19.185526
 0.365000   15.493256   -19.135543
 0.370000   15.397704   -19.085030
 0.375000   15.302406   -19.033996
 0.380000   15.207364   -18.982447
 0.385000   15.112581   -18.930388
 0.390000   15.018060   -18.877828
 0.395000   14.923803   -18.824771
 0.400000   14.829812   -18.771226
 0.405000   14.736091   -18.717198
 0.410000   14.642640   -18.662694
 0.415000   14.549464   -18.607721
 0.420000   14.456563   -18.552285
 0.425000   14.363941   -18.496393
 0.430000   14.271599   -18.440051
 0.435000   14.179540   -18.383267
 0.440000   14.087767   -18.326046
 0.445000   13.996280   -18.268395
 0.450000   13.905083   -18.210321
 0.455000   13.814177   -18.151830
 0.460000   13.723564   -18.092930
 0.465000   13.633247   -18.033625
 0.470000   13.543228   -17.973924
 0.475000   13.453508   -17.913832
 0.480000   13.364090   -17.853356
 0.485000   13.274975   -17.792502
 0.490000   13.186165   -17.731278
 0.495000   13.097662   -17.669689
 0.500000   13.009468   -17.607742
 0.505000   12.921584   -17.545444
 0.510000   12.834013   -17.482801
 0.515000   12.746756   -17.419819
 0.520000   12.659815   -17.356505
 0.525000   12.573191   -17.292865
 0.530000   12.486887   -17.228906
 0.535000   12.400902   -17.164634
 0.540000   12.315240   -17.100055
 0.545000   12.229902   -17.035176
 0.550000   12.144888   -16.970003
 0.555000   12.060202   -16.904542
 0.560000   11.975843   -16.838800
 0.565000   11.891814   -16.772783
 0.570000   11.808115   -16.706497
 0.575000   11.724749   -16.639949
 0.580000   11.641716   -16.573144
 0.585000   11.559017   -16.506090
 0.590000   11.476655   -16.438791
 0.595000   11.394629   -16.371254
 0.600000   11.312942   -16.303486
 0.605000   11.231595   -16.235492
 0.610000   11.150587   -16.167279
 0.615000   11.069922   -16.098852
 0.620000   10.989599   -16.030217
 0.625000   10.909620   -15.961382
 0.630000   10.829985   -15.892350
 0.635000   10.750696   -15.823130
 0.640000   10.671754   -15.753725
 0.645000   10.593159   -15.684143
 0.650000   10.514912   -15.614390
 0.655000   10.437015   -15.544470
 0.660000   10.359468   -15.474390
 0.665000   10.282271   -15.404155
 0.670000   10.205426   -15.333772
 0.675000   10.128933   -15.263246
 0.680000   10.052794   -15.192583
 0.685000   9.977008   -15.121788
 0.690000   9.901576   -15.050868
 0.695000   9.826499   -14.979827
 0.700000   9.751777   -14.908672
 0.705000   9.677412   -14.837407
 0.710000   9.603403   -14.766040
 0.715000   9.529752   -14.694574
 0.720000   9.456458   -14.623017
 0.725000   9.383522   -14.551375
 0.730000   9.310944   -14.479653
 0.735000   9.238725   -14.407859
 0.740000   9.166865   -14.336000
 0.745000   9.095365   -14.264087
 0.750000   9.024224   -14.192131
 0.755000   8.953444   -14.120147
 0.760000   8.883023   -14.048159
 0.765000   8.812962   -13.976198
 0.770000   8.743261   -13.904311
 0.775000   8.673919   -13.832570
 0.780000   8.604935   -13.761086
 0.785000   8.536308   -13.690031
 0.790000   8.468035   -13.619671
 0.795000   8.400111   -13.550423
 0.800000   8.332531   -13.482938
 0.805000   8.265282   -13.418231
 0.810000   8.198348   -13.357884
 0.815000   8.131703   -13.304355
 0.820000   8.065305   -13.261458
 0.825000   7.999089   -13.235084
 0.830000   7.932954   -13.234296
 0.835000   7.866746   -13.272979
 0.840000   7.800224   -13.372278
 0.845000   7.733023   -13.564176
 0.850000   7.664582   -13.896665
 0.855000   7.594056   -14.441038
 0.860000   7.520172   -15.301884
 0.865000   7.441037   -16.630201
 0.870000   7.353870   -18.639369
 0.875000   7.254644   -21.622090
 0.880000   7.137649   -25.962506
 0.885000   6.995019   -32.129578
 0.890000   6.816353   -40.621110
 0.895000   6.588808   -51.794927
 0.900000   6.298404   -65.460499
 0.905000   5.934203   -79.986924
 0.910000   5.498535   -90.477083
 0.915000   5.029432   -85.235081
 0.920000   4.646184   -39.385900
 0.925000   4.635573   95.409056
 0.930000   5.600275   403.860906
 0.935000   8.674182   1012.306153
 0.940000   15.723336   2055.383409
 0.945000   29.228016   3554.586417
 0.950000   51.269200   5212.650363
 0.955000   81.354520   6314.215085
 0.960000   114.411351   5994.911214
 0.965000   141.303632   3747.777841
 0.970000   151.889130   -155.935133
 0.975000   139.744280   -4318.194219
 0.980000   108.707187   -6698.546655
 0.985000   72.758814   -6450.018094
 0.990000   44.207006   -4667.878586
 0.995000   26.080028   -2843.745003
 1.000000   15.769556   -1280.443574
201 psinorm kpol(km/s/T) dkpol/dpsiN
 0.000000   -0.015637   142.053660
 0.005000   0.560122   88.249984
 0.010000   0.866863   59.451543
 0.015000   1.154638   57.050474
 0.020000   1.437368   55.890059
 0.025000   1.713538   53.884527
 0.030000   1.976213   50.300758
 0.035000   2.216546   46.155361
 0.040000   2.437767   42.154403
 0.045000   2.638090   38.156324
 0.050000   2.819330   34.739035
 0.055000   2.985480   32.219247
 0.060000   3.141522   30.676143
 0.065000   3.292242   29.934815
 0.070000   3.440870   29.656804
 0.075000   3.588810   29.565581
 0.080000   3.736526   29.605537
 0.085000   3.884865   29.650356
 0.090000   4.033030   29.550795
 0.095000   4.180373   29.256892
 0.100000   4.325599   28.633580
 0.105000   4.466709   27.838662
 0.110000   4.603985   26.881438
 0.115000   4.735523   25.736065
 0.120000   4.861346   24.635679
 0.125000   4.981880   23.793608
 0.130000   5.099282   23.170056
 0.135000   5.213581   22.680934
 0.140000   5.326091   22.357994
 0.145000   5.437160   22.288614
 0.150000   5.548978   22.263021
 0.155000   5.659791   22.050033
 0.160000   5.769478   21.501951
 0.165000   5.874810   20.646173
 0.170000   5.975940   19.406070
 0.175000   6.068871   17.692110
 0.180000   6.152861   15.665224
 0.185000   6.225523   13.321299
 0.190000   6.286074   10.859572
 0.195000   6.334119   8.275551
 0.200000   6.368829   5.793355
 0.205000   6.392052   3.320843
 0.210000   6.402038   1.034183
 0.215000   6.402394   -0.851651
 0.220000   6.393521   -2.577909
 0.225000   6.376615   -3.994972
 0.230000   6.353571   -5.295119
 0.235000   6.323664   -6.530688
 0.240000   6.288265   -7.783357
 0.245000   6.245830   -9.303505
 0.250000   6.195230   -10.890779
 0.255000   6.136923   -12.698185
 0.260000   6.068248   -14.824115
 0.265000   5.988681   -17.061588
 0.270000   5.897632   -19.497004
 0.275000   5.793711   -21.980816
 0.280000   5.677824   -24.440819
 0.285000   5.549303   -26.977079
 0.290000   5.408053   -29.348586
 0.295000   5.255817   -31.591155
 0.300000   5.092141   -33.830121
 0.305000   4.917516   -35.805332
 0.310000   4.734088   -37.627427
 0.315000   4.541242   -39.425958
 0.320000   4.339828   -40.943573
 0.325000   4.131806   -42.370749
 0.330000   3.916121   -43.909435
 0.335000   3.692712   -45.409585
 0.340000   3.462025   -46.947510
 0.345000   3.223237   -48.485846
 0.350000   2.977167   -49.684688
 0.355000   2.726390   -50.451996
 0.360000   2.472647   -50.856122
 0.365000   2.217829   -50.853823
 0.370000   1.964108   -50.526632
 0.375000   1.712562   -49.972296
 0.380000   1.464385   -49.063745
 0.385000   1.221925   -48.146354
 0.390000   0.982922   -47.586990
 0.395000   0.746055   -47.251338
 0.400000   0.510409   -47.162295
 0.405000   0.274432   -47.300165
 0.410000   0.037407   -47.564505
 0.415000   -0.201213   -47.911131
 0.420000   -0.441704   -48.510266
 0.425000   -0.686316   -49.745415
 0.430000   -0.939159   -51.967671
 0.435000   -1.205992   -55.583492
 0.440000   -1.494994   -61.269306
 0.445000   -1.818685   -68.198627
 0.450000   -2.176980   -75.331571
 0.455000   -2.572001   -82.696722
 0.460000   -3.003947   -89.976411
 0.465000   -3.471765   -96.890131
 0.470000   -3.972848   -102.729419
 0.475000   -4.499059   -106.351212
 0.480000   -5.036360   -107.455673
 0.485000   -5.573616   -106.323960
 0.490000   -6.099600   -103.083344
 0.495000   -6.604450   -97.594461
 0.500000   -7.075545   -89.854823
 0.505000   -7.502998   -81.101968
 0.510000   -7.886564   -72.416112
 0.515000   -8.227159   -63.870748
 0.520000   -8.525272   -55.703584
 0.525000   -8.784195   -48.171685
 0.530000   -9.006989   -41.974256
 0.535000   -9.203937   -37.687742
 0.540000   -9.383866   -34.964673
 0.545000   -9.553584   -33.558648
 0.550000   -9.719453   -33.109885
 0.555000   -9.884683   -33.618934
 0.560000   -10.055642   -34.864256
 0.565000   -10.233326   -35.941466
 0.570000   -10.415057   -36.457111
 0.575000   -10.597897   -36.306101
 0.580000   -10.778118   -35.341698
 0.585000   -10.951314   -33.422475
 0.590000   -11.112342   -30.108958
 0.595000   -11.252403   -25.568452
 0.600000   -11.368027   -20.279681
 0.605000   -11.455200   -14.460645
 0.610000   -11.512633   -8.650200
 0.615000   -11.541702   -3.251567
 0.620000   -11.545149   1.457497
 0.625000   -11.527127   5.299272
 0.630000   -11.492156   8.113121
 0.635000   -11.445996   10.001026
 0.640000   -11.392146   11.193798
 0.645000   -11.334058   11.744597
 0.650000   -11.274700   11.972342
 0.655000   -11.214334   12.257390
 0.660000   -11.152126   12.681656
 0.665000   -11.087518   13.130587
 0.670000   -11.020820   13.598183
 0.675000   -10.951536   14.130196
 0.680000   -10.879518   14.623695
 0.685000   -10.805299   15.005397
 0.690000   -10.729464   15.450540
 0.695000   -10.650794   16.142186
 0.700000   -10.568042   17.266824
 0.705000   -10.478125   19.121614
 0.710000   -10.376826   21.535949
 0.715000   -10.262766   24.153229
 0.720000   -10.135294   26.729730
 0.725000   -9.995469   29.063291
 0.730000   -9.844661   31.040471
 0.735000   -9.685064   31.961880
 0.740000   -9.525042   31.170151
 0.745000   -9.373362   28.763634
 0.750000   -9.237406   24.918571
 0.755000   -9.124177   19.797736
 0.760000   -9.039429   13.824115
 0.765000   -8.985936   7.653373
 0.770000   -8.962895   1.923696
 0.775000   -8.966699   -3.006458
 0.780000   -8.992959   -6.913911
 0.785000   -9.035838   -9.821385
 0.790000   -9.091173   -12.141660
 0.795000   -9.157254   -14.587753
 0.800000   -9.237051   -17.723074
 0.805000   -9.334485   -21.785642
 0.810000   -9.454907   -27.074220
 0.815000   -9.605227   -33.641116
 0.820000   -9.791318   -41.505925
 0.825000   -10.020287   -49.589600
 0.830000   -10.287214   -56.758461
 0.835000   -10.587871   -62.601796
 0.840000   -10.913232   -66.351228
 0.845000   -11.251383   -67.510924
 0.850000   -11.588342   -65.511535
 0.855000   -11.906499   -60.369515
 0.860000   -12.192037   -53.012401
 0.865000   -12.436623   -44.572186
 0.870000   -12.637759   -35.785954
 0.875000   -12.794482   -27.181446
 0.880000   -12.909573   -19.565475
 0.885000   -12.990137   -13.497473
 0.890000   -13.044548   -8.747116
 0.895000   -13.077608   -4.919855
 0.900000   -13.093746   -1.977598
 0.905000   -13.097384   0.401968
 0.910000   -13.089727   2.660031
 0.915000   -13.070784   4.970725
 0.920000   -13.040019   8.049488
 0.925000   -12.990289   11.455900
 0.930000   -12.925460   14.834750
 0.935000   -12.841941   20.864941
 0.940000   -12.716811   31.552750
 0.945000   -12.526414   43.411773
 0.950000   -12.282693   55.175679
 0.955000   -11.974657   70.189317
 0.960000   -11.580800   88.372999
 0.965000   -11.090927   114.787193
 0.970000   -10.432928   164.893921
 0.975000   -9.441988   267.482155
 0.980000   -7.758107   467.090748
 0.985000   -4.771081   773.035279
 0.990000   -0.027754   1090.333242
 0.995000   6.132252   1213.270699
 1.000000   12.104953   1175.809805
201 psinorm omghb() domghb/dpsiN
 0.000000   -0.000021   0.026019
 0.005000   -0.000025   -0.027577
 0.010000   -0.000296   -0.026270
 0.015000   -0.000287   0.012728
 0.020000   -0.000169   0.037083
 0.025000   0.000084   0.067586
 0.030000   0.000507   0.113512
 0.035000   0.001219   0.166843
 0.040000   0.002175   0.212393
 0.045000   0.003343   0.236653
 0.050000   0.004542   0.236985
 0.055000   0.005712   0.231066
 0.060000   0.006852   0.218674
 0.065000   0.007899   0.208822
 0.070000   0.008940   0.193365
 0.075000   0.009833   0.184866
 0.080000   0.010789   0.190893
 0.085000   0.011742   0.187942
 0.090000   0.012669   0.192056
 0.095000   0.013662   0.184166
 0.100000   0.014510   0.188974
 0.105000   0.015552   0.209519
 0.110000   0.016605   0.200647
 0.115000   0.017559   0.186239
 0.120000   0.018468   0.175521
 0.125000   0.019314   0.143523
 0.130000   0.019903   0.138886
 0.135000   0.020703   0.187833
 0.140000   0.021781   0.191494
 0.145000   0.022618   0.182355
 0.150000   0.023605   0.206000
 0.155000   0.024678   0.243162
 0.160000   0.026037   0.284887
 0.165000   0.027526   0.300560
 0.170000   0.029042   0.324071
 0.175000   0.030767   0.353263
 0.180000   0.032575   0.388821
 0.185000   0.034655   0.403309
 0.190000   0.036608   0.414422
 0.195000   0.038800   0.422127
 0.200000   0.040829   0.386569
 0.205000   0.042665   0.341389
 0.210000   0.044243   0.281926
 0.215000   0.045484   0.233545
 0.220000   0.046578   0.225299
 0.225000   0.047737   0.355065
 0.230000   0.050129   0.445790
 0.235000   0.052195   0.399936
 0.240000   0.054128   0.429415
 0.245000   0.056490   0.493452
 0.250000   0.059063   0.553533
 0.255000   0.062025   0.408319
 0.260000   0.063146   0.234092
 0.265000   0.064366   0.217678
 0.270000   0.065323   0.166068
 0.275000   0.066026   0.108631
 0.280000   0.066409   0.109600
 0.285000   0.067122   -0.050204
 0.290000   0.065907   -0.176734
 0.295000   0.065355   -0.111316
 0.300000   0.064794   -0.106835
 0.305000   0.064287   -0.087443
 0.310000   0.063920   -0.071661
 0.315000   0.063570   -0.136941
 0.320000   0.062550   -0.167028
 0.325000   0.061900   -0.111170
 0.330000   0.061439   -0.077410
 0.335000   0.061126   -0.018889
 0.340000   0.061250   -0.050896
 0.345000   0.060617   0.020745
 0.350000   0.061457   0.124779
 0.355000   0.061865   0.069862
 0.360000   0.062156   0.042455
 0.365000   0.062289   0.013362
 0.370000   0.062289   0.029969
 0.375000   0.062589   0.119938
 0.380000   0.063489   0.103733
 0.385000   0.063626   0.016000
 0.390000   0.063649   0.002486
 0.395000   0.063651   0.016144
 0.400000   0.063810   0.068605
 0.405000   0.064337   -0.069580
 0.410000   0.063114   -0.233301
 0.415000   0.062004   -0.174539
 0.420000   0.061369   -0.050988
 0.425000   0.061494   0.184937
 0.430000   0.063218   0.453767
 0.435000   0.066032   0.736120
 0.440000   0.070580   1.127314
 0.445000   0.077305   1.461030
 0.450000   0.085190   1.800040
 0.455000   0.095305   1.941963
 0.460000   0.104609   1.759596
 0.465000   0.112901   1.560385
 0.470000   0.120213   1.273883
 0.475000   0.125640   0.875437
 0.480000   0.128968   0.378399
 0.485000   0.129424   -0.245465
 0.490000   0.126513   -0.774652
 0.495000   0.121678   -1.185498
 0.500000   0.114658   -1.547883
 0.505000   0.106199   -1.741427
 0.510000   0.097244   -1.960865
 0.515000   0.086590   -1.925327
 0.520000   0.077990   -1.631584
 0.525000   0.070274   -1.414471
 0.530000   0.063846   -1.114616
 0.535000   0.059128   -0.827754
 0.540000   0.055568   -0.492529
 0.545000   0.054203   -0.145842
 0.550000   0.054110   0.047986
 0.555000   0.054683   0.142185
 0.560000   0.055532   0.310754
 0.565000   0.057790   0.394777
 0.570000   0.059479   0.320759
 0.575000   0.060998   0.187686
 0.580000   0.061356   -0.035485
 0.585000   0.060643   -0.219083
 0.590000   0.059165   -0.291428
 0.595000   0.057729   -0.328823
 0.600000   0.055877   -0.355150
 0.605000   0.054177   -0.237244
 0.610000   0.053505   0.037794
 0.615000   0.054555   0.410872
 0.620000   0.057614   0.601949
 0.625000   0.060575   0.840901
 0.630000   0.066023   1.290122
 0.635000   0.073476   1.588881
 0.640000   0.081911   1.773738
 0.645000   0.091213   1.891933
 0.650000   0.100831   1.946491
 0.655000   0.110678   1.895463
 0.660000   0.119785   1.691767
 0.665000   0.127596   1.413281
 0.670000   0.133918   1.188851
 0.675000   0.139484   1.053392
 0.680000   0.144452   0.927947
 0.685000   0.148764   0.770965
 0.690000   0.152162   0.610403
 0.695000   0.154868   0.532682
 0.700000   0.157489   0.647727
 0.705000   0.161345   1.133369
 0.710000   0.168822   1.344455
 0.715000   0.174790   0.902518
 0.720000   0.177847   0.766280
 0.725000   0.182453   0.914152
 0.730000   0.186989   0.677575
 0.735000   0.189228   0.625228
 0.740000   0.193241   0.158884
 0.745000   0.190817   -0.843324
 0.750000   0.184808   -1.081072
 0.755000   0.180006   -1.183113
 0.760000   0.172977   -1.628139
 0.765000   0.163725   -2.066880
 0.770000   0.152308   -2.602567
 0.775000   0.137699   -2.820020
 0.780000   0.124108   -2.714129
 0.785000   0.110558   -2.680671
 0.790000   0.097301   -2.546856
 0.795000   0.085089   -2.450309
 0.800000   0.072798   -2.202298
 0.805000   0.063067   -1.155885
 0.810000   0.061239   -0.369027
 0.815000   0.059376   -0.142038
 0.820000   0.059819   0.268475
 0.825000   0.062061   0.561933
 0.830000   0.065438   0.872223
 0.835000   0.070783   1.032174
 0.840000   0.075760   0.574073
 0.845000   0.076524   0.006582
 0.850000   0.075826   -0.217847
 0.855000   0.074345   -0.203206
 0.860000   0.073794   0.210008
 0.865000   0.076446   0.884377
 0.870000   0.082637   1.889355
 0.875000   0.095339   3.340380
 0.880000   0.116041   5.102874
 0.885000   0.146368   7.059430
 0.890000   0.186635   10.151863
 0.895000   0.247886   12.230306
 0.900000   0.308939   13.949182
 0.905000   0.387378   16.902959
 0.910000   0.477968   19.041747
 0.915000   0.577796   20.293801
 0.920000   0.680906   24.144042
 0.925000   0.819236   23.042809
 0.930000   0.911334   19.926244
 0.935000   1.018499   20.456650
 0.940000   1.115901   18.277482
 0.945000   1.201273   12.562135
 0.950000   1.241522   6.769243
 0.955000   1.268966   -18.951588
 0.960000   1.052006   -56.554593
 0.965000   0.703420   -85.683729
 0.970000   0.195169   -117.295801
 0.975000   -0.469538   -146.615642
 0.980000   -1.270987   -165.887575
 0.985000   -2.128414   -154.810976
 0.990000   -2.819097   -88.431986
 0.995000   -3.012734   32.154738
 1.000000   -2.497550   173.918788
201 psinorm nz1(10^20/m^3) dnz1/dpsiN
 0.000000   0.015359   0.000003
 0.005000   0.015358   -0.000350
 0.010000   0.015355   -0.000705
 0.015000   0.015351   -0.001066
 0.020000   0.015345   -0.001432
 0.025000   0.015337   -0.001803
 0.030000   0.015327   -0.002178
 0.035000   0.015315   -0.002556
 0.040000   0.015301   -0.002937
 0.045000   0.015285   -0.003319
 0.050000   0.015268   -0.003702
 0.055000   0.015248   -0.004085
 0.060000   0.015227   -0.004466
 0.065000   0.015204   -0.004843
 0.070000   0.015179   -0.005213
 0.075000   0.015152   -0.005574
 0.080000   0.015123   -0.005926
 0.085000   0.015092   -0.006267
 0.090000   0.015060   -0.006596
 0.095000   0.015026   -0.006913
 0.100000   0.014991   -0.007216
 0.105000   0.014954   -0.007503
 0.110000   0.014916   -0.007777
 0.115000   0.014877   -0.008035
 0.120000   0.014836   -0.008274
 0.125000   0.014794   -0.008496
 0.130000   0.014751   -0.008700
 0.135000   0.014707   -0.008887
 0.140000   0.014662   -0.009064
 0.145000   0.014616   -0.009228
 0.150000   0.014570   -0.009379
 0.155000   0.014522   -0.009514
 0.160000   0.014474   -0.009634
 0.165000   0.014426   -0.009739
 0.170000   0.014377   -0.009834
 0.175000   0.014328   -0.009918
 0.180000   0.014278   -0.009992
 0.185000   0.014228   -0.010055
 0.190000   0.014177   -0.010109
 0.195000   0.014127   -0.010153
 0.200000   0.014076   -0.010185
 0.205000   0.014025   -0.010202
 0.210000   0.013974   -0.010203
 0.215000   0.013923   -0.010189
 0.220000   0.013872   -0.010158
 0.225000   0.013821   -0.010110
 0.230000   0.013771   -0.010040
 0.235000   0.013721   -0.009949
 0.240000   0.013671   -0.009839
 0.245000   0.013622   -0.009711
 0.250000   0.013574   -0.009570
 0.255000   0.013527   -0.009418
 0.260000   0.013480   -0.009254
 0.265000   0.013434   -0.009076
 0.270000   0.013389   -0.008883
 0.275000   0.013345   -0.008676
 0.280000   0.013303   -0.008452
 0.285000   0.013261   -0.008213
 0.290000   0.013220   -0.007955
 0.295000   0.013181   -0.007674
 0.300000   0.013144   -0.007374
 0.305000   0.013108   -0.007053
 0.310000   0.013073   -0.006713
 0.315000   0.013040   -0.006354
 0.320000   0.013010   -0.005977
 0.325000   0.012981   -0.005589
 0.330000   0.012954   -0.005191
 0.335000   0.012929   -0.004785
 0.340000   0.012906   -0.004373
 0.345000   0.012885   -0.003957
 0.350000   0.012866   -0.003539
 0.355000   0.012850   -0.003126
 0.360000   0.012835   -0.002715
 0.365000   0.012822   -0.002308
 0.370000   0.012812   -0.001906
 0.375000   0.012803   -0.001508
 0.380000   0.012797   -0.001114
 0.385000   0.012792   -0.000723
 0.390000   0.012790   -0.000335
 0.395000   0.012789   0.000052
 0.400000   0.012790   0.000436
 0.405000   0.012793   0.000816
 0.410000   0.012798   0.001192
 0.415000   0.012805   0.001561
 0.420000   0.012814   0.001922
 0.425000   0.012824   0.002273
 0.430000   0.012837   0.002612
 0.435000   0.012851   0.002937
 0.440000   0.012866   0.003246
 0.445000   0.012883   0.003536
 0.450000   0.012901   0.003807
 0.455000   0.012921   0.004057
 0.460000   0.012942   0.004284
 0.465000   0.012964   0.004486
 0.470000   0.012987   0.004661
 0.475000   0.013011   0.004810
 0.480000   0.013035   0.004933
 0.485000   0.013060   0.005028
 0.490000   0.013085   0.005096
 0.495000   0.013111   0.005135
 0.500000   0.013137   0.005148
 0.505000   0.013162   0.005136
 0.510000   0.013188   0.005101
 0.515000   0.013213   0.005041
 0.520000   0.013238   0.004955
 0.525000   0.013263   0.004843
 0.530000   0.013287   0.004703
 0.535000   0.013310   0.004533
 0.540000   0.013332   0.004332
 0.545000   0.013353   0.004100
 0.550000   0.013373   0.003839
 0.555000   0.013392   0.003549
 0.560000   0.013409   0.003231
 0.565000   0.013424   0.002886
 0.570000   0.013437   0.002517
 0.575000   0.013449   0.002123
 0.580000   0.013459   0.001706
 0.585000   0.013466   0.001264
 0.590000   0.013471   0.000799
 0.595000   0.013474   0.000311
 0.600000   0.013474   -0.000201
 0.605000   0.013472   -0.000734
 0.610000   0.013467   -0.001289
 0.615000   0.013459   -0.001863
 0.620000   0.013448   -0.002453
 0.625000   0.013435   -0.003057
 0.630000   0.013418   -0.003670
 0.635000   0.013398   -0.004290
 0.640000   0.013375   -0.004913
 0.645000   0.013349   -0.005536
 0.650000   0.013320   -0.006158
 0.655000   0.013287   -0.006783
 0.660000   0.013252   -0.007417
 0.665000   0.013213   -0.008064
 0.670000   0.013171   -0.008725
 0.675000   0.013126   -0.009400
 0.680000   0.013077   -0.010098
 0.685000   0.013025   -0.010814
 0.690000   0.012969   -0.011528
 0.695000   0.012910   -0.012242
 0.700000   0.012847   -0.012973
 0.705000   0.012780   -0.013746
 0.710000   0.012709   -0.014637
 0.715000   0.012633   -0.015681
 0.720000   0.012552   -0.016819
 0.725000   0.012465   -0.018017
 0.730000   0.012372   -0.019270
 0.735000   0.012273   -0.020549
 0.740000   0.012167   -0.021868
 0.745000   0.012054   -0.023161
 0.750000   0.011935   -0.024265
 0.755000   0.011811   -0.025135
 0.760000   0.011684   -0.025771
 0.765000   0.011554   -0.026137
 0.770000   0.011422   -0.026200
 0.775000   0.011292   -0.025915
 0.780000   0.011163   -0.025309
 0.785000   0.011038   -0.024469
 0.790000   0.010918   -0.023446
 0.795000   0.010804   -0.022282
 0.800000   0.010696   -0.020989
 0.805000   0.010594   -0.019581
 0.810000   0.010500   -0.018174
 0.815000   0.010412   -0.016841
 0.820000   0.010331   -0.015565
 0.825000   0.010257   -0.014369
 0.830000   0.010188   -0.013267
 0.835000   0.010124   -0.012279
 0.840000   0.010065   -0.011438
 0.845000   0.010010   -0.010700
 0.850000   0.009958   -0.010002
 0.855000   0.009910   -0.009320
 0.860000   0.009865   -0.008649
 0.865000   0.009823   -0.007994
 0.870000   0.009785   -0.007384
 0.875000   0.009749   -0.006848
 0.880000   0.009716   -0.006391
 0.885000   0.009685   -0.006007
 0.890000   0.009656   -0.005690
 0.895000   0.009629   -0.005474
 0.900000   0.009602   -0.005356
 0.905000   0.009575   -0.005362
 0.910000   0.009548   -0.005607
 0.915000   0.009519   -0.006230
 0.920000   0.009486   -0.007481
 0.925000   0.009444   -0.009992
 0.930000   0.009386   -0.014491
 0.935000   0.009299   -0.022016
 0.940000   0.009166   -0.034211
 0.945000   0.008957   -0.052691
 0.950000   0.008639   -0.078361
 0.955000   0.008173   -0.111283
 0.960000   0.007526   -0.146789
 0.965000   0.006706   -0.176261
 0.970000   0.005763   -0.192214
 0.975000   0.004783   -0.190229
 0.980000   0.003861   -0.171580
 0.985000   0.003068   -0.142458
 0.990000   0.002436   -0.110442
 0.995000   0.001963   -0.081595
 1.000000   0.001620   -0.055551
201 psinorm vtor1(km/s) dvtor1/dpsiN
 0.000000   85.743328   442.177869
 0.005000   87.458095   243.728878
 0.010000   88.180617   126.995895
 0.015000   88.728054   99.839320
 0.020000   89.179010   83.822350
 0.025000   89.566278   73.136383
 0.030000   89.910374   65.319658
 0.035000   90.219474   58.406773
 0.040000   90.494442   52.256577
 0.045000   90.742040   46.976990
 0.050000   90.964212   41.914449
 0.055000   91.161185   36.863254
 0.060000   91.332844   31.978405
 0.065000   91.480969   27.256117
 0.070000   91.605405   22.417603
 0.075000   91.705145   17.577934
 0.080000   91.781185   12.853097
 0.085000   91.833676   8.165867
 0.090000   91.862843   3.449128
 0.095000   91.868167   -1.174982
 0.100000   91.851094   -5.559105
 0.105000   91.812576   -9.854313
 0.110000   91.752551   -14.190161
 0.115000   91.670674   -18.478514
 0.120000   91.567765   -22.719615
 0.125000   91.443478   -27.007810
 0.130000   91.297687   -31.149268
 0.135000   91.131985   -35.128936
 0.140000   90.946398   -39.151223
 0.145000   90.740473   -43.239021
 0.150000   90.514008   -47.377353
 0.155000   90.266700   -51.636038
 0.160000   89.997647   -56.120586
 0.165000   89.705494   -60.787380
 0.170000   89.389774   -65.493857
 0.175000   89.050555   -70.182575
 0.180000   88.687948   -74.839495
 0.185000   88.302160   -79.412883
 0.190000   87.893819   -83.865549
 0.195000   87.463505   -88.201342
 0.200000   87.011806   -92.385961
 0.205000   86.539645   -96.348659
 0.210000   86.048319   -100.034197
 0.215000   85.539303   -103.413393
 0.220000   85.014185   -106.396228
 0.225000   84.475341   -108.895429
 0.230000   83.925231   -111.099080
 0.235000   83.364350   -113.124956
 0.240000   82.793981   -114.904829
 0.245000   82.215302   -116.463784
 0.250000   81.629343   -117.801034
 0.255000   81.037291   -118.694229
 0.260000   80.442401   -119.067596
 0.265000   79.846615   -118.961677
 0.270000   79.252784   -118.298282
 0.275000   78.663633   -117.106275
 0.280000   78.081722   -115.407544
 0.285000   77.509557   -113.010558
 0.290000   76.951616   -110.341300
 0.295000   76.406144   -107.788757
 0.300000   75.873728   -105.168916
 0.305000   75.354455   -102.575595
 0.310000   74.847972   -100.062255
 0.315000   74.353832   -97.491236
 0.320000   73.873060   -95.044765
 0.325000   73.403385   -92.856153
 0.330000   72.944499   -90.747925
 0.335000   72.495906   -88.743245
 0.340000   72.057066   -86.846943
 0.345000   71.627436   -84.986927
 0.350000   71.207197   -83.103979
 0.355000   70.796396   -81.177504
 0.360000   70.395422   -79.165270
 0.365000   70.004744   -77.069183
 0.370000   69.624730   -74.911915
 0.375000   69.255625   -72.693244
 0.380000   68.897798   -70.442610
 0.385000   68.551198   -68.203008
 0.390000   68.215767   -65.976733
 0.395000   67.891431   -63.760773
 0.400000   67.578160   -61.542723
 0.405000   67.276004   -59.303500
 0.410000   66.985125   -57.039465
 0.415000   66.705609   -54.741588
 0.420000   66.437709   -52.404322
 0.425000   66.181566   -50.049844
 0.430000   65.937210   -47.690160
 0.435000   65.704664   -45.313630
 0.440000   65.484074   -42.965868
 0.445000   65.275006   -40.756358
 0.450000   65.076511   -38.732617
 0.455000   64.887680   -36.894454
 0.460000   64.707566   -35.235896
 0.465000   64.535321   -33.776337
 0.470000   64.369803   -32.498317
 0.475000   64.210337   -31.237573
 0.480000   64.057427   -29.901897
 0.485000   63.911318   -28.498926
 0.490000   63.772438   -26.997650
 0.495000   63.641342   -25.406331
 0.500000   63.518374   -23.717420
 0.505000   63.404168   -21.821586
 0.510000   63.300158   -19.718019
 0.515000   63.206988   -17.508659
 0.520000   63.125072   -15.237997
 0.525000   63.054608   -12.944200
 0.530000   62.995630   -10.660489
 0.535000   62.948003   -8.438558
 0.540000   62.911244   -6.361513
 0.545000   62.884388   -4.514299
 0.550000   62.866101   -2.946172
 0.555000   62.854926   -1.682483
 0.560000   62.849276   -0.766315
 0.565000   62.847263   -0.173637
 0.570000   62.847540   0.110417
 0.575000   62.848367   0.009191
 0.580000   62.847632   -0.558396
 0.585000   62.842783   -1.712503
 0.590000   62.830507   -3.684804
 0.595000   62.805935   -6.582159
 0.600000   62.764685   -10.519787
 0.605000   62.700737   -15.751495
 0.610000   62.607170   -22.447463
 0.615000   62.476262   -30.744118
 0.620000   62.299729   -40.807298
 0.625000   62.068189   -52.377987
 0.630000   61.775949   -65.070916
 0.635000   61.417480   -78.727356
 0.640000   60.988676   -93.037732
 0.645000   60.487103   -107.649217
 0.650000   59.912184   -121.933192
 0.655000   59.267771   -135.494917
 0.660000   58.557234   -148.224709
 0.665000   57.785524   -159.809823
 0.670000   56.959136   -170.006723
 0.675000   56.085457   -178.687507
 0.680000   55.172261   -185.366329
 0.685000   54.231793   -190.638883
 0.690000   53.265872   -195.632530
 0.695000   52.275468   -200.410287
 0.700000   51.261769   -205.082565
 0.705000   50.224642   -209.896593
 0.710000   49.162804   -215.285470
 0.715000   48.071788   -221.859303
 0.720000   46.944211   -229.309717
 0.725000   45.778691   -236.612018
 0.730000   44.578090   -242.956407
 0.735000   43.349126   -247.627458
 0.740000   42.101816   -250.242605
 0.745000   40.846700   -250.263871
 0.750000   39.599177   -247.223642
 0.755000   38.374464   -241.394443
 0.760000   37.185233   -233.201315
 0.765000   36.042451   -223.039050
 0.770000   34.954842   -211.366956
 0.775000   33.928781   -198.701422
 0.780000   32.967828   -185.414141
 0.785000   32.074640   -171.607648
 0.790000   31.251751   -157.365367
 0.795000   30.500986   -142.832543
 0.800000   29.823426   -128.201805
 0.805000   29.218968   -113.683390
 0.810000   28.686592   -99.325803
 0.815000   28.225710   -85.274656
 0.820000   27.833846   -71.896187
 0.825000   27.506748   -59.568722
 0.830000   27.238158   -48.700484
 0.835000   27.019743   -39.681202
 0.840000   26.841346   -32.864548
 0.845000   26.691098   -28.569990
 0.850000   26.555646   -27.063335
 0.855000   26.420465   -28.578484
 0.860000   26.269862   -33.432703
 0.865000   26.086138   -42.321164
 0.870000   25.846650   -55.919397
 0.875000   25.526944   -74.943057
 0.880000   25.097219   -100.456801
 0.885000   24.522376   -133.505474
 0.890000   23.762165   -175.040431
 0.895000   22.771971   -227.308931
 0.900000   21.489075   -289.107276
 0.905000   19.880898   -357.380366
 0.910000   17.915272   -430.196058
 0.915000   15.578938   -502.867269
 0.920000   12.886599   -568.948469
 0.925000   9.889453   -622.634761
 0.930000   6.660251   -652.241919
 0.935000   3.367034   -646.604806
 0.940000   0.194203   -602.062190
 0.945000   -2.653588   -516.882536
 0.950000   -4.974622   -394.773360
 0.955000   -6.601321   -245.567078
 0.960000   -7.430293   -85.113343
 0.965000   -7.452455   67.948697
 0.970000   -6.750806   197.354681
 0.975000   -5.478908   291.679706
 0.980000   -3.834009   345.293332
 0.985000   -2.025975   357.175980
 0.990000   -0.262249   333.751279
 0.995000   1.311538   286.045166
 1.000000   2.598203   228.620685
201 psinorm vpol1(km/s) dvpol1/dpsiN
 0.000000   -0.000063   5.423437
 0.005000   0.030043   6.618750
 0.010000   0.066125   7.792969
 0.015000   0.107973   8.882812
 0.020000   0.154953   9.801562
 0.025000   0.205988   10.473438
 0.030000   0.259688   10.803906
 0.035000   0.314027   10.861328
 0.040000   0.368301   10.774219
 0.045000   0.421770   10.580078
 0.050000   0.474102   10.362500
 0.055000   0.525395   10.200000
 0.060000   0.576102   10.160938
 0.065000   0.627004   10.242578
 0.070000   0.678527   10.383594
 0.075000   0.730840   10.557812
 0.080000   0.784105   10.751172
 0.085000   0.838352   10.942578
 0.090000   0.893531   11.095312
 0.095000   0.949305   11.187109
 0.100000   1.005402   11.210938
 0.105000   1.061414   11.164062
 0.110000   1.117043   11.057031
 0.115000   1.171984   10.894922
 0.120000   1.225992   10.724609
 0.125000   1.279230   10.596875
 0.130000   1.331961   10.513672
 0.135000   1.384367   10.461328
 0.140000   1.436574   10.441797
 0.145000   1.488785   10.482813
 0.150000   1.541402   10.540234
 0.155000   1.594188   10.537500
 0.160000   1.646777   10.435937
 0.165000   1.698547   10.227344
 0.170000   1.749051   9.902344
 0.175000   1.797570   9.426953
 0.180000   1.843320   8.824609
 0.185000   1.885816   8.122266
 0.190000   1.924543   7.345703
 0.195000   1.959273   6.526172
 0.200000   1.989805   5.691797
 0.205000   2.016191   4.850000
 0.210000   2.038305   4.056250
 0.215000   2.056754   3.353125
 0.220000   2.071836   2.718750
 0.225000   2.083941   2.146094
 0.230000   2.093297   1.614453
 0.235000   2.100086   1.103125
 0.240000   2.104328   0.559766
 0.245000   2.105684   -0.042578
 0.250000   2.103902   -0.714844
 0.255000   2.098535   -1.468750
 0.260000   2.089215   -2.305078
 0.265000   2.075484   -3.228906
 0.270000   2.056926   -4.213672
 0.275000   2.033348   -5.226953
 0.280000   2.004656   -6.262891
 0.285000   1.970719   -7.303516
 0.290000   1.931621   -8.320703
 0.295000   1.887512   -9.307812
 0.300000   1.838543   -10.260547
 0.305000   1.784906   -11.165625
 0.310000   1.726887   -12.020312
 0.315000   1.664703   -12.830469
 0.320000   1.598582   -13.578516
 0.325000   1.528918   -14.291406
 0.330000   1.455668   -15.019922
 0.335000   1.378719   -15.765625
 0.340000   1.298012   -16.521484
 0.345000   1.213504   -17.258203
 0.350000   1.125430   -17.891016
 0.355000   1.034594   -18.355078
 0.360000   0.941879   -18.661719
 0.365000   0.847977   -18.826953
 0.370000   0.753609   -18.858984
 0.375000   0.659387   -18.783594
 0.380000   0.565773   -18.577344
 0.385000   0.473613   -18.358203
 0.390000   0.382191   -18.260547
 0.395000   0.291008   -18.251562
 0.400000   0.199676   -18.333594
 0.405000   0.107672   -18.495703
 0.410000   0.014719   -18.705859
 0.415000   -0.079387   -18.944922
 0.420000   -0.174730   -19.282031
 0.425000   -0.272207   -19.868750
 0.430000   -0.373418   -20.845312
 0.435000   -0.480660   -22.384375
 0.440000   -0.597262   -24.758984
 0.445000   -0.728250   -27.633984
 0.450000   -0.873602   -30.608594
 0.455000   -1.034336   -33.700781
 0.460000   -1.210609   -36.751953
 0.465000   -1.401855   -39.667187
 0.470000   -1.607281   -42.180859
 0.475000   -1.823664   -43.779688
 0.480000   -2.045078   -44.347656
 0.485000   -2.267141   -44.027344
 0.490000   -2.485352   -42.832031
 0.495000   -2.695461   -40.680078
 0.500000   -2.892152   -37.609375
 0.505000   -3.071555   -34.129687
 0.510000   -3.233449   -30.609375
 0.515000   -3.377648   -27.130078
 0.520000   -3.504750   -23.838672
 0.525000   -3.616035   -20.756641
 0.530000   -3.712316   -18.192187
 0.535000   -3.797957   -16.442969
 0.540000   -3.876746   -15.337109
 0.545000   -3.951328   -14.728125
 0.550000   -4.024027   -14.526562
 0.555000   -4.096594   -14.764063
 0.560000   -4.171668   -15.259375
 0.565000   -4.249187   -15.673828
 0.570000   -4.328406   -15.902344
 0.575000   -4.408211   -15.843359
 0.580000   -4.486840   -15.406641
 0.585000   -4.562277   -14.590234
 0.590000   -4.632742   -13.227344
 0.595000   -4.694551   -11.298828
 0.600000   -4.745730   -9.045703
 0.605000   -4.785008   -6.616406
 0.610000   -4.811895   -4.173047
 0.615000   -4.826738   -1.863281
 0.620000   -4.830527   0.141016
 0.625000   -4.825328   1.750781
 0.630000   -4.813020   2.975391
 0.635000   -4.795574   3.820312
 0.640000   -4.774816   4.331250
 0.645000   -4.752262   4.580859
 0.650000   -4.729008   4.725781
 0.655000   -4.705004   4.879687
 0.660000   -4.680211   5.060937
 0.665000   -4.654395   5.283984
 0.670000   -4.627371   5.523828
 0.675000   -4.599156   5.758984
 0.680000   -4.569781   5.976172
 0.685000   -4.539395   6.174609
 0.690000   -4.508035   6.391797
 0.695000   -4.475477   6.683984
 0.700000   -4.441195   7.177734
 0.705000   -4.403699   7.989453
 0.710000   -4.361301   9.016406
 0.715000   -4.313535   10.118359
 0.720000   -4.260117   11.228125
 0.725000   -4.201254   12.233984
 0.730000   -4.137777   13.064453
 0.735000   -4.070609   13.460938
 0.740000   -4.003168   13.149219
 0.745000   -3.939117   12.148437
 0.750000   -3.881684   10.530859
 0.755000   -3.833809   8.394141
 0.760000   -3.797742   5.902734
 0.765000   -3.774781   3.312500
 0.770000   -3.764617   0.909375
 0.775000   -3.765688   -1.141406
 0.780000   -3.776031   -2.766016
 0.785000   -3.793348   -3.985547
 0.790000   -3.815887   -4.945313
 0.795000   -3.842801   -5.948047
 0.800000   -3.875367   -7.251562
 0.805000   -3.915316   -8.951953
 0.810000   -3.964887   -11.141016
 0.815000   -4.026727   -13.862109
 0.820000   -4.103508   -17.148047
 0.825000   -4.198207   -20.514453
 0.830000   -4.308652   -23.471484
 0.835000   -4.432922   -25.878516
 0.840000   -4.567438   -27.428125
 0.845000   -4.707203   -27.865234
 0.850000   -4.846090   -26.964453
 0.855000   -4.976848   -24.776563
 0.860000   -5.093855   -21.680469
 0.865000   -5.193652   -18.082031
 0.870000   -5.274676   -14.342578
 0.875000   -5.337078   -10.737500
 0.880000   -5.382051   -7.528125
 0.885000   -5.412359   -4.924609
 0.890000   -5.431297   -2.896094
 0.895000   -5.441320   -1.299219
 0.900000   -5.444289   -0.023828
 0.905000   -5.441559   1.039063
 0.910000   -5.433898   1.999609
 0.915000   -5.421563   2.952734
 0.920000   -5.404371   3.973828
 0.925000   -5.381824   5.133203
 0.930000   -5.353039   6.528906
 0.935000   -5.316535   8.513281
 0.940000   -5.267906   11.511328
 0.945000   -5.201422   15.557812
 0.950000   -5.112328   20.554688
 0.955000   -4.995875   26.464453
 0.960000   -4.847684   33.567188
 0.965000   -4.660203   44.751562
 0.970000   -4.400168   66.317578
 0.975000   -3.997027   111.282812
 0.980000   -3.287340   197.389844
 0.985000   -2.023129   327.556250
 0.990000   -0.011777   462.630469
 0.995000   2.603176   513.910156
 1.000000   5.127324   495.749219
3 N Z A of ION SPECIES
 6.000000   6.000000   12.010700
 1.000000   1.000000   2.000000
 1.000000   1.000000   2.000000
