201 psinorm ne(10^20/m^3) dne/dpsiN
 0.000000   0.459984   -0.382431
 0.005000   0.458077   -0.380228
 0.010000   0.456182   -0.378033
 0.015000   0.454297   -0.375852
 0.020000   0.452423   -0.373685
 0.025000   0.450560   -0.371532
 0.030000   0.448708   -0.369393
 0.035000   0.446866   -0.367267
 0.040000   0.445035   -0.365156
 0.045000   0.443215   -0.363058
 0.050000   0.441405   -0.360973
 0.055000   0.439605   -0.358902
 0.060000   0.437816   -0.356845
 0.065000   0.436036   -0.354800
 0.070000   0.434268   -0.352769
 0.075000   0.432509   -0.350750
 0.080000   0.430760   -0.348745
 0.085000   0.429021   -0.346752
 0.090000   0.427293   -0.344773
 0.095000   0.425574   -0.342805
 0.100000   0.423864   -0.340851
 0.105000   0.422165   -0.338909
 0.110000   0.420475   -0.336979
 0.115000   0.418795   -0.335062
 0.120000   0.417125   -0.333157
 0.125000   0.415464   -0.331263
 0.130000   0.413812   -0.329382
 0.135000   0.412170   -0.327513
 0.140000   0.410537   -0.325656
 0.145000   0.408913   -0.323811
 0.150000   0.407299   -0.321977
 0.155000   0.405694   -0.320155
 0.160000   0.404097   -0.318344
 0.165000   0.402510   -0.316545
 0.170000   0.400932   -0.314758
 0.175000   0.399363   -0.312981
 0.180000   0.397802   -0.311216
 0.185000   0.396250   -0.309462
 0.190000   0.394707   -0.307719
 0.195000   0.393173   -0.305986
 0.200000   0.391648   -0.304265
 0.205000   0.390131   -0.302555
 0.210000   0.388622   -0.300855
 0.215000   0.387122   -0.299166
 0.220000   0.385630   -0.297488
 0.225000   0.384147   -0.295820
 0.230000   0.382672   -0.294162
 0.235000   0.381206   -0.292515
 0.240000   0.379747   -0.290878
 0.245000   0.378297   -0.289252
 0.250000   0.376855   -0.287635
 0.255000   0.375420   -0.286029
 0.260000   0.373994   -0.284432
 0.265000   0.372576   -0.282846
 0.270000   0.371166   -0.281269
 0.275000   0.369763   -0.279702
 0.280000   0.368369   -0.278145
 0.285000   0.366982   -0.276598
 0.290000   0.365603   -0.275060
 0.295000   0.364231   -0.273532
 0.300000   0.362867   -0.272013
 0.305000   0.361511   -0.270503
 0.310000   0.360162   -0.269003
 0.315000   0.358821   -0.267512
 0.320000   0.357487   -0.266030
 0.325000   0.356161   -0.264558
 0.330000   0.354842   -0.263094
 0.335000   0.353530   -0.261639
 0.340000   0.352225   -0.260194
 0.345000   0.350928   -0.258757
 0.350000   0.349638   -0.257329
 0.355000   0.348355   -0.255910
 0.360000   0.347079   -0.254499
 0.365000   0.345810   -0.253097
 0.370000   0.344548   -0.251704
 0.375000   0.343293   -0.250319
 0.380000   0.342045   -0.248943
 0.385000   0.340803   -0.247575
 0.390000   0.339569   -0.246215
 0.395000   0.338341   -0.244863
 0.400000   0.337120   -0.243520
 0.405000   0.335906   -0.242185
 0.410000   0.334698   -0.240858
 0.415000   0.333497   -0.239539
 0.420000   0.332303   -0.238228
 0.425000   0.331115   -0.236925
 0.430000   0.329934   -0.235630
 0.435000   0.328759   -0.234343
 0.440000   0.327590   -0.233063
 0.445000   0.326428   -0.231792
 0.450000   0.325272   -0.230528
 0.455000   0.324123   -0.229271
 0.460000   0.322980   -0.228022
 0.465000   0.321843   -0.226781
 0.470000   0.320712   -0.225547
 0.475000   0.319587   -0.224320
 0.480000   0.318469   -0.223101
 0.485000   0.317356   -0.221889
 0.490000   0.316250   -0.220684
 0.495000   0.315149   -0.219486
 0.500000   0.314055   -0.218296
 0.505000   0.312966   -0.217113
 0.510000   0.311884   -0.215937
 0.515000   0.310807   -0.214767
 0.520000   0.309736   -0.213605
 0.525000   0.308671   -0.212450
 0.530000   0.307612   -0.211301
 0.535000   0.306558   -0.210160
 0.540000   0.305510   -0.209025
 0.545000   0.304468   -0.207896
 0.550000   0.303431   -0.206775
 0.555000   0.302400   -0.205660
 0.560000   0.301374   -0.204552
 0.565000   0.300354   -0.203450
 0.570000   0.299340   -0.202355
 0.575000   0.298331   -0.201266
 0.580000   0.297327   -0.200183
 0.585000   0.296329   -0.199107
 0.590000   0.295336   -0.198037
 0.595000   0.294349   -0.196974
 0.600000   0.293366   -0.195917
 0.605000   0.292389   -0.194865
 0.610000   0.291418   -0.193820
 0.615000   0.290451   -0.192781
 0.620000   0.289490   -0.191748
 0.625000   0.288534   -0.190721
 0.630000   0.287583   -0.189700
 0.635000   0.286637   -0.188685
 0.640000   0.285696   -0.187675
 0.645000   0.284760   -0.186671
 0.650000   0.283829   -0.185673
 0.655000   0.282903   -0.184680
 0.660000   0.281982   -0.183692
 0.665000   0.281066   -0.182710
 0.670000   0.280155   -0.181733
 0.675000   0.279249   -0.180760
 0.680000   0.278348   -0.179792
 0.685000   0.277451   -0.178829
 0.690000   0.276559   -0.177869
 0.695000   0.275672   -0.176912
 0.700000   0.274790   -0.175959
 0.705000   0.273913   -0.175007
 0.710000   0.273040   -0.174056
 0.715000   0.272172   -0.173106
 0.720000   0.271309   -0.172153
 0.725000   0.270451   -0.171198
 0.730000   0.269597   -0.170236
 0.735000   0.268748   -0.169266
 0.740000   0.267904   -0.168284
 0.745000   0.267066   -0.167285
 0.750000   0.266232   -0.166264
 0.755000   0.265403   -0.165212
 0.760000   0.264580   -0.164121
 0.765000   0.263762   -0.162981
 0.770000   0.262950   -0.161775
 0.775000   0.262144   -0.160487
 0.780000   0.261345   -0.159095
 0.785000   0.260553   -0.157570
 0.790000   0.259769   -0.155878
 0.795000   0.258994   -0.153977
 0.800000   0.258229   -0.151813
 0.805000   0.257476   -0.149322
 0.810000   0.256736   -0.146422
 0.815000   0.256012   -0.143015
 0.820000   0.255306   -0.138980
 0.825000   0.254622   -0.134172
 0.830000   0.253964   -0.128413
 0.835000   0.253338   -0.121493
 0.840000   0.252749   -0.113159
 0.845000   0.252206   -0.103117
 0.850000   0.251718   -0.091026
 0.855000   0.251296   -0.076501
 0.860000   0.250953   -0.059116
 0.865000   0.250705   -0.038425
 0.870000   0.250569   -0.013990
 0.875000   0.250565   0.014563
 0.880000   0.250715   0.047445
 0.885000   0.251039   0.084552
 0.890000   0.251560   0.125221
 0.895000   0.252292   0.167858
 0.900000   0.253239   0.209389
 0.905000   0.254386   0.244482
 0.910000   0.255683   0.264534
 0.915000   0.257031   0.256487
 0.920000   0.258248   0.201790
 0.925000   0.259049   0.076226
 0.930000   0.259011   -0.148050
 0.935000   0.257568   -0.496481
 0.940000   0.254046   -0.980774
 0.945000   0.247761   -1.583854
 0.950000   0.238207   -2.248056
 0.955000   0.225280   -2.877962
 0.960000   0.209428   -3.365334
 0.965000   0.191627   -3.628427
 0.970000   0.173143   -3.642966
 0.975000   0.155197   -3.445051
 0.980000   0.138693   -3.107234
 0.985000   0.124125   -2.706715
 0.990000   0.111626   -2.303567
 0.995000   0.101089   -1.934052
 1.000000   0.092285   -1.587465
201 psinorm te(KeV) dte/dpsiN
 0.000000   4.136425   -4.153624
 0.005000   4.115656   -4.153878
 0.010000   4.094886   -4.154025
 0.015000   4.074116   -4.153957
 0.020000   4.053347   -4.153676
 0.025000   4.032579   -4.153183
 0.030000   4.011815   -4.152479
 0.035000   3.991055   -4.151565
 0.040000   3.970299   -4.150442
 0.045000   3.949550   -4.149112
 0.050000   3.928808   -4.147576
 0.055000   3.908074   -4.145834
 0.060000   3.887350   -4.143888
 0.065000   3.866636   -4.141740
 0.070000   3.845932   -4.139390
 0.075000   3.825242   -4.136840
 0.080000   3.804564   -4.134091
 0.085000   3.783901   -4.131144
 0.090000   3.763253   -4.128001
 0.095000   3.742621   -4.124663
 0.100000   3.722006   -4.121132
 0.105000   3.701409   -4.117408
 0.110000   3.680832   -4.113492
 0.115000   3.660274   -4.109388
 0.120000   3.639738   -4.105095
 0.125000   3.619224   -4.100615
 0.130000   3.598732   -4.095950
 0.135000   3.578264   -4.091100
 0.140000   3.557821   -4.086068
 0.145000   3.537403   -4.080855
 0.150000   3.517012   -4.075462
 0.155000   3.496649   -4.069890
 0.160000   3.476313   -4.064142
 0.165000   3.456007   -4.058219
 0.170000   3.435731   -4.052121
 0.175000   3.415486   -4.045851
 0.180000   3.395273   -4.039410
 0.185000   3.375092   -4.032800
 0.190000   3.354945   -4.026022
 0.195000   3.334832   -4.019077
 0.200000   3.314754   -4.011968
 0.205000   3.294712   -4.004695
 0.210000   3.274707   -3.997260
 0.215000   3.254739   -3.989666
 0.220000   3.234810   -3.981912
 0.225000   3.214920   -3.974002
 0.230000   3.195070   -3.965936
 0.235000   3.175261   -3.957717
 0.240000   3.155493   -3.949344
 0.245000   3.135768   -3.940822
 0.250000   3.116085   -3.932150
 0.255000   3.096446   -3.923330
 0.260000   3.076852   -3.914365
 0.265000   3.057302   -3.905255
 0.270000   3.037799   -3.896003
 0.275000   3.018342   -3.886609
 0.280000   2.998933   -3.877077
 0.285000   2.979572   -3.867406
 0.290000   2.960259   -3.857599
 0.295000   2.940996   -3.847658
 0.300000   2.921782   -3.837584
 0.305000   2.902620   -3.827378
 0.310000   2.883509   -3.817043
 0.315000   2.864449   -3.806580
 0.320000   2.845443   -3.795991
 0.325000   2.826489   -3.785277
 0.330000   2.807590   -3.774440
 0.335000   2.788745   -3.763482
 0.340000   2.769955   -3.752404
 0.345000   2.751221   -3.741208
 0.350000   2.732543   -3.729896
 0.355000   2.713922   -3.718469
 0.360000   2.695358   -3.706929
 0.365000   2.676853   -3.695278
 0.370000   2.658406   -3.683517
 0.375000   2.640018   -3.671648
 0.380000   2.621689   -3.659673
 0.385000   2.603421   -3.647593
 0.390000   2.585213   -3.635410
 0.395000   2.567067   -3.623125
 0.400000   2.548982   -3.610741
 0.405000   2.530959   -3.598259
 0.410000   2.512999   -3.585680
 0.415000   2.495103   -3.573007
 0.420000   2.477269   -3.560240
 0.425000   2.459500   -3.547382
 0.430000   2.441795   -3.534434
 0.435000   2.424156   -3.521398
 0.440000   2.406581   -3.508276
 0.445000   2.389073   -3.495068
 0.450000   2.371631   -3.481777
 0.455000   2.354255   -3.468405
 0.460000   2.336947   -3.454953
 0.465000   2.319706   -3.441422
 0.470000   2.302533   -3.427814
 0.475000   2.285428   -3.414132
 0.480000   2.268391   -3.400376
 0.485000   2.251424   -3.386548
 0.490000   2.234526   -3.372649
 0.495000   2.217697   -3.358682
 0.500000   2.200939   -3.344648
 0.505000   2.184251   -3.330548
 0.510000   2.167633   -3.316385
 0.515000   2.151087   -3.302158
 0.520000   2.134612   -3.287872
 0.525000   2.118208   -3.273525
 0.530000   2.101877   -3.259122
 0.535000   2.085617   -3.244662
 0.540000   2.069430   -3.230147
 0.545000   2.053316   -3.215580
 0.550000   2.037274   -3.200961
 0.555000   2.021306   -3.186292
 0.560000   2.005411   -3.171574
 0.565000   1.989590   -3.156810
 0.570000   1.973843   -3.142000
 0.575000   1.958170   -3.127147
 0.580000   1.942572   -3.112251
 0.585000   1.927048   -3.097314
 0.590000   1.911599   -3.082337
 0.595000   1.896224   -3.067322
 0.600000   1.880925   -3.052271
 0.605000   1.865702   -3.037185
 0.610000   1.850553   -3.022065
 0.615000   1.835481   -3.006913
 0.620000   1.820484   -2.991731
 0.625000   1.805564   -2.976519
 0.630000   1.790719   -2.961279
 0.635000   1.775951   -2.946012
 0.640000   1.761259   -2.930720
 0.645000   1.746644   -2.915405
 0.650000   1.732105   -2.900067
 0.655000   1.717643   -2.884708
 0.660000   1.703258   -2.869329
 0.665000   1.688950   -2.853933
 0.670000   1.674719   -2.838519
 0.675000   1.660565   -2.823089
 0.680000   1.646488   -2.807646
 0.685000   1.632488   -2.792189
 0.690000   1.618566   -2.776721
 0.695000   1.604721   -2.761242
 0.700000   1.590953   -2.745754
 0.705000   1.577263   -2.730258
 0.710000   1.563651   -2.714755
 0.715000   1.550116   -2.699248
 0.720000   1.536658   -2.683736
 0.725000   1.523278   -2.668221
 0.730000   1.509976   -2.652704
 0.735000   1.496751   -2.637187
 0.740000   1.483604   -2.621671
 0.745000   1.470535   -2.606157
 0.750000   1.457543   -2.590646
 0.755000   1.444628   -2.575139
 0.760000   1.431791   -2.559638
 0.765000   1.419032   -2.544143
 0.770000   1.406350   -2.528655
 0.775000   1.393745   -2.513177
 0.780000   1.381218   -2.497708
 0.785000   1.368768   -2.482251
 0.790000   1.356396   -2.466805
 0.795000   1.344100   -2.451372
 0.800000   1.331882   -2.435952
 0.805000   1.319741   -2.420547
 0.810000   1.307676   -2.405158
 0.815000   1.295689   -2.389783
 0.820000   1.283779   -2.374423
 0.825000   1.271945   -2.359078
 0.830000   1.260188   -2.343746
 0.835000   1.248507   -2.328423
 0.840000   1.236904   -2.313107
 0.845000   1.225376   -2.297789
 0.850000   1.213926   -2.282458
 0.855000   1.202552   -2.267101
 0.860000   1.191255   -2.251697
 0.865000   1.180035   -2.236217
 0.870000   1.168892   -2.220630
 0.875000   1.157828   -2.204899
 0.880000   1.146844   -2.188997
 0.885000   1.135938   -2.172934
 0.890000   1.125114   -2.156806
 0.895000   1.114370   -2.140916
 0.900000   1.103705   -2.125992
 0.905000   1.093111   -2.113612
 0.910000   1.082569   -2.106998
 0.915000   1.072041   -2.112474
 0.920000   1.061444   -2.142122
 0.925000   1.050619   -2.218503
 0.930000   1.039259   -2.382894
 0.935000   1.026790   -2.709102
 0.940000   1.012168   -3.325143
 0.945000   0.993539   -4.442674
 0.950000   0.967741   -6.383041
 0.955000   0.929709   -9.556339
 0.960000   0.872178   -14.285509
 0.965000   0.786853   -20.328884
 0.970000   0.668889   -26.206306
 0.975000   0.524790   -29.224819
 0.980000   0.376641   -27.301791
 0.985000   0.251772   -21.232640
 0.990000   0.164315   -14.114680
 0.995000   0.110626   -8.466658
 1.000000   0.079648   -3.924427
201 psinorm ni(10^20/m^3) dni/dpsiN
 0.000000   0.272525   -0.527640
 0.005000   0.270201   -0.402110
 0.010000   0.268504   -0.296547
 0.015000   0.267235   -0.217941
 0.020000   0.266325   -0.152993
 0.025000   0.265705   -0.099290
 0.030000   0.265332   -0.054517
 0.035000   0.265160   -0.017590
 0.040000   0.265156   0.012852
 0.045000   0.265289   0.037599
 0.050000   0.265532   0.057848
 0.055000   0.265867   0.073809
 0.060000   0.266270   0.085778
 0.065000   0.266725   0.094747
 0.070000   0.267217   0.100905
 0.075000   0.267734   0.104925
 0.080000   0.268267   0.106736
 0.085000   0.268801   0.106499
 0.090000   0.269332   0.104917
 0.095000   0.269850   0.101580
 0.100000   0.270347   0.096796
 0.105000   0.270818   0.091235
 0.110000   0.271260   0.084983
 0.115000   0.271668   0.078209
 0.120000   0.272042   0.070937
 0.125000   0.272378   0.062743
 0.130000   0.272669   0.054091
 0.135000   0.272919   0.045579
 0.140000   0.273125   0.036928
 0.145000   0.273288   0.028165
 0.150000   0.273407   0.019363
 0.155000   0.273481   0.010570
 0.160000   0.273512   0.001844
 0.165000   0.273500   -0.006777
 0.170000   0.273445   -0.015274
 0.175000   0.273347   -0.023604
 0.180000   0.273209   -0.031677
 0.185000   0.273030   -0.039526
 0.190000   0.272813   -0.047243
 0.195000   0.272558   -0.054844
 0.200000   0.272265   -0.062573
 0.205000   0.271932   -0.070010
 0.210000   0.271565   -0.076838
 0.215000   0.271164   -0.083404
 0.220000   0.270731   -0.089726
 0.225000   0.270267   -0.095818
 0.230000   0.269773   -0.101646
 0.235000   0.269250   -0.107157
 0.240000   0.268701   -0.112562
 0.245000   0.268124   -0.118005
 0.250000   0.267521   -0.122946
 0.255000   0.266895   -0.127277
 0.260000   0.266248   -0.131378
 0.265000   0.265581   -0.135285
 0.270000   0.264895   -0.139062
 0.275000   0.264191   -0.143082
 0.280000   0.263464   -0.146841
 0.285000   0.262722   -0.149984
 0.290000   0.261965   -0.153003
 0.295000   0.261192   -0.155928
 0.300000   0.260405   -0.159043
 0.305000   0.259602   -0.162118
 0.310000   0.258784   -0.164776
 0.315000   0.257954   -0.167265
 0.320000   0.257112   -0.169681
 0.325000   0.256257   -0.172271
 0.330000   0.255389   -0.174748
 0.335000   0.254510   -0.176823
 0.340000   0.253621   -0.178790
 0.345000   0.252722   -0.180754
 0.350000   0.251813   -0.182756
 0.355000   0.250894   -0.184538
 0.360000   0.249968   -0.186051
 0.365000   0.249034   -0.187475
 0.370000   0.248093   -0.188997
 0.375000   0.247144   -0.190422
 0.380000   0.246189   -0.191569
 0.385000   0.245228   -0.192643
 0.390000   0.244262   -0.193780
 0.395000   0.243290   -0.194867
 0.400000   0.242314   -0.195731
 0.405000   0.241333   -0.196482
 0.410000   0.240349   -0.197261
 0.415000   0.239360   -0.197999
 0.420000   0.238369   -0.198552
 0.425000   0.237375   -0.198985
 0.430000   0.236379   -0.199435
 0.435000   0.235380   -0.199837
 0.440000   0.234381   -0.200053
 0.445000   0.233380   -0.200154
 0.450000   0.232379   -0.200285
 0.455000   0.231377   -0.200356
 0.460000   0.230375   -0.200248
 0.465000   0.229375   -0.200055
 0.470000   0.228375   -0.199907
 0.475000   0.227376   -0.199681
 0.480000   0.226378   -0.199241
 0.485000   0.225383   -0.198680
 0.490000   0.224391   -0.198112
 0.495000   0.223402   -0.197409
 0.500000   0.222417   -0.196448
 0.505000   0.221438   -0.195344
 0.510000   0.220464   -0.194163
 0.515000   0.219496   -0.192803
 0.520000   0.218536   -0.191199
 0.525000   0.217584   -0.189472
 0.530000   0.216641   -0.187658
 0.535000   0.215707   -0.185675
 0.540000   0.214784   -0.183507
 0.545000   0.213872   -0.181262
 0.550000   0.212972   -0.178954
 0.555000   0.212083   -0.176511
 0.560000   0.211207   -0.173928
 0.565000   0.210343   -0.171286
 0.570000   0.209494   -0.168580
 0.575000   0.208658   -0.165743
 0.580000   0.207836   -0.162777
 0.585000   0.207030   -0.159735
 0.590000   0.206239   -0.156608
 0.595000   0.205464   -0.153360
 0.600000   0.204705   -0.150011
 0.605000   0.203964   -0.146607
 0.610000   0.203239   -0.143153
 0.615000   0.202532   -0.139634
 0.620000   0.201843   -0.136071
 0.625000   0.201171   -0.132465
 0.630000   0.200518   -0.128786
 0.635000   0.199884   -0.125019
 0.640000   0.199268   -0.121163
 0.645000   0.198672   -0.117213
 0.650000   0.198096   -0.113113
 0.655000   0.197541   -0.108896
 0.660000   0.197007   -0.104633
 0.665000   0.196494   -0.100316
 0.670000   0.196004   -0.095929
 0.675000   0.195535   -0.091513
 0.680000   0.195089   -0.087026
 0.685000   0.194665   -0.082281
 0.690000   0.194266   -0.077128
 0.695000   0.193894   -0.071480
 0.700000   0.193551   -0.065352
 0.705000   0.193240   -0.058776
 0.710000   0.192963   -0.051553
 0.715000   0.192725   -0.043855
 0.720000   0.192525   -0.036288
 0.725000   0.192362   -0.029032
 0.730000   0.192234   -0.022098
 0.735000   0.192141   -0.015642
 0.740000   0.192078   -0.009701
 0.745000   0.192044   -0.004632
 0.750000   0.192032   -0.000811
 0.755000   0.192036   0.001863
 0.760000   0.192050   0.003456
 0.765000   0.192070   0.003998
 0.770000   0.192090   0.003315
 0.775000   0.192103   0.001295
 0.780000   0.192103   -0.001408
 0.785000   0.192089   -0.004257
 0.790000   0.192061   -0.007129
 0.795000   0.192018   -0.009752
 0.800000   0.191963   -0.012010
 0.805000   0.191898   -0.013655
 0.810000   0.191827   -0.014101
 0.815000   0.191757   -0.013213
 0.820000   0.191694   -0.011163
 0.825000   0.191645   -0.007947
 0.830000   0.191615   -0.003594
 0.835000   0.191609   0.001862
 0.840000   0.191634   0.008510
 0.845000   0.191694   0.016660
 0.850000   0.191800   0.026712
 0.855000   0.191962   0.039081
 0.860000   0.192191   0.054210
 0.865000   0.192504   0.072618
 0.870000   0.192917   0.095054
 0.875000   0.193454   0.122146
 0.880000   0.194139   0.154133
 0.885000   0.194995   0.190925
 0.890000   0.196048   0.231833
 0.895000   0.197314   0.275538
 0.900000   0.198803   0.318865
 0.905000   0.200502   0.356381
 0.910000   0.202367   0.379808
 0.915000   0.204301   0.376166
 0.920000   0.206129   0.327051
 0.925000   0.207571   0.209959
 0.930000   0.208228   -0.002660
 0.935000   0.207544   -0.336525
 0.940000   0.204863   -0.801346
 0.945000   0.199531   -1.377894
 0.950000   0.191084   -2.005877
 0.955000   0.179472   -2.583505
 0.960000   0.165249   -3.000879
 0.965000   0.149463   -3.179127
 0.970000   0.133458   -3.095675
 0.975000   0.118507   -2.794929
 0.980000   0.105509   -2.364385
 0.985000   0.094863   -1.896422
 0.990000   0.086544   -1.471319
 0.995000   0.080150   -1.136721
 1.000000   0.075177   -0.852297
201 psinorm ti(KeV) dti/dpsiN
 0.000000   6.133888   0.002758
 0.005000   6.132827   -0.427228
 0.010000   6.129616   -0.860997
 0.015000   6.124217   -1.301757
 0.020000   6.116598   -1.748282
 0.025000   6.106734   -2.199199
 0.030000   6.094606   -2.653027
 0.035000   6.080204   -3.108297
 0.040000   6.063523   -3.563692
 0.045000   6.044567   -4.018554
 0.050000   6.023338   -4.472360
 0.055000   5.999843   -4.924269
 0.060000   5.974095   -5.373438
 0.065000   5.946109   -5.818709
 0.070000   5.915908   -6.258418
 0.075000   5.883525   -6.689940
 0.080000   5.849008   -7.111237
 0.085000   5.812412   -7.521527
 0.090000   5.773793   -7.920085
 0.095000   5.733211   -8.306300
 0.100000   5.690730   -8.679767
 0.105000   5.646414   -9.039843
 0.110000   5.600332   -9.385419
 0.115000   5.552560   -9.715535
 0.120000   5.503176   -10.029437
 0.125000   5.452265   -10.326322
 0.130000   5.399913   -10.605605
 0.135000   5.346209   -10.865089
 0.140000   5.291262   -11.101693
 0.145000   5.235192   -11.314111
 0.150000   5.178121   -11.501624
 0.155000   5.120176   -11.663430
 0.160000   5.061487   -11.797934
 0.165000   5.002197   -11.904008
 0.170000   4.942447   -11.983391
 0.175000   4.882363   -12.036804
 0.180000   4.822079   -12.063510
 0.185000   4.761728   -12.064002
 0.190000   4.701439   -12.037380
 0.195000   4.641354   -11.983833
 0.200000   4.581600   -11.910280
 0.205000   4.522251   -11.820443
 0.210000   4.463396   -11.713674
 0.215000   4.405114   -11.592307
 0.220000   4.347473   -11.458260
 0.225000   4.290532   -11.314942
 0.230000   4.234323   -11.168339
 0.235000   4.178848   -11.019841
 0.240000   4.124125   -10.868049
 0.245000   4.070168   -10.713810
 0.250000   4.016987   -10.558427
 0.255000   3.964584   -10.405672
 0.260000   3.912930   -10.250609
 0.265000   3.862077   -10.086395
 0.270000   3.812066   -9.913053
 0.275000   3.762947   -9.729178
 0.280000   3.714775   -9.534261
 0.285000   3.667604   -9.328734
 0.290000   3.621487   -9.110100
 0.295000   3.576503   -8.878608
 0.300000   3.532701   -8.638037
 0.305000   3.490123   -8.389502
 0.310000   3.448806   -8.133902
 0.315000   3.408784   -7.866378
 0.320000   3.370142   -7.590385
 0.325000   3.332880   -7.316324
 0.330000   3.296979   -7.048189
 0.335000   3.262398   -6.789789
 0.340000   3.229081   -6.543360
 0.345000   3.196965   -6.309912
 0.350000   3.165982   -6.092039
 0.355000   3.136044   -5.889556
 0.360000   3.107086   -5.699496
 0.365000   3.079049   -5.521065
 0.370000   3.051876   -5.353556
 0.375000   3.025514   -5.199828
 0.380000   2.999878   -5.057130
 0.385000   2.974942   -4.919041
 0.390000   2.950687   -4.784780
 0.395000   2.927095   -4.652824
 0.400000   2.904159   -4.521014
 0.405000   2.881884   -4.387873
 0.410000   2.860280   -4.250776
 0.415000   2.839377   -4.110582
 0.420000   2.819174   -3.971885
 0.425000   2.799658   -3.837375
 0.430000   2.780801   -3.709087
 0.435000   2.762567   -3.586640
 0.440000   2.744934   -3.471479
 0.445000   2.727852   -3.367838
 0.450000   2.711256   -3.275640
 0.455000   2.695096   -3.193361
 0.460000   2.679322   -3.121005
 0.465000   2.663886   -3.057428
 0.470000   2.648748   -3.003290
 0.475000   2.633853   -2.961587
 0.480000   2.619132   -2.931843
 0.485000   2.604534   -2.912308
 0.490000   2.590009   -2.902819
 0.495000   2.575506   -2.903495
 0.500000   2.560974   -2.914110
 0.505000   2.546365   -2.930999
 0.510000   2.531664   -2.950430
 0.515000   2.516861   -2.971888
 0.520000   2.501945   -2.995530
 0.525000   2.486905   -3.021824
 0.530000   2.471727   -3.051109
 0.535000   2.456394   -3.082920
 0.540000   2.440898   -3.116570
 0.545000   2.425229   -3.151634
 0.550000   2.409381   -3.187599
 0.555000   2.393353   -3.224009
 0.560000   2.377141   -3.260631
 0.565000   2.360746   -3.296477
 0.570000   2.344177   -3.330677
 0.575000   2.327440   -3.363056
 0.580000   2.310546   -3.393119
 0.585000   2.293508   -3.420402
 0.590000   2.276342   -3.444584
 0.595000   2.259063   -3.464866
 0.600000   2.241693   -3.480654
 0.605000   2.224256   -3.491978
 0.610000   2.206774   -3.498741
 0.615000   2.189269   -3.500947
 0.620000   2.171764   -3.498505
 0.625000   2.154284   -3.491514
 0.630000   2.136849   -3.480106
 0.635000   2.119483   -3.464198
 0.640000   2.102207   -3.443838
 0.645000   2.085044   -3.419118
 0.650000   2.068016   -3.390079
 0.655000   2.051143   -3.357119
 0.660000   2.034445   -3.321178
 0.665000   2.017932   -3.283484
 0.670000   2.001610   -3.245265
 0.675000   1.985479   -3.207413
 0.680000   1.969536   -3.172220
 0.685000   1.953757   -3.138890
 0.690000   1.938147   -3.103325
 0.695000   1.922723   -3.063645
 0.700000   1.907510   -3.018707
 0.705000   1.892536   -2.967565
 0.710000   1.877835   -2.909964
 0.715000   1.863437   -2.845760
 0.720000   1.849377   -2.776457
 0.725000   1.835672   -2.704459
 0.730000   1.822332   -2.630938
 0.735000   1.809363   -2.556825
 0.740000   1.796764   -2.481951
 0.745000   1.784543   -2.407158
 0.750000   1.772693   -2.335455
 0.755000   1.761189   -2.268120
 0.760000   1.750011   -2.205646
 0.765000   1.739132   -2.149625
 0.770000   1.728515   -2.101864
 0.775000   1.718114   -2.065195
 0.780000   1.707863   -2.040091
 0.785000   1.697713   -2.023987
 0.790000   1.687623   -2.015302
 0.795000   1.677560   -2.013414
 0.800000   1.667489   -2.018502
 0.805000   1.657375   -2.031077
 0.810000   1.647178   -2.050614
 0.815000   1.636869   -2.078365
 0.820000   1.626395   -2.116952
 0.825000   1.615699   -2.167697
 0.830000   1.604718   -2.232444
 0.835000   1.593375   -2.314314
 0.840000   1.581575   -2.408912
 0.845000   1.569285   -2.512476
 0.850000   1.556450   -2.628549
 0.855000   1.543000   -2.759908
 0.860000   1.528851   -2.912064
 0.865000   1.513879   -3.098906
 0.870000   1.497862   -3.315726
 0.875000   1.480722   -3.553625
 0.880000   1.462325   -3.818734
 0.885000   1.442535   -4.111313
 0.890000   1.421212   -4.431627
 0.895000   1.398218   -4.796031
 0.900000   1.373252   -5.185191
 0.905000   1.346367   -5.582482
 0.910000   1.317427   -6.007036
 0.915000   1.286296   -6.457709
 0.920000   1.252850   -6.929523
 0.925000   1.217001   -7.449382
 0.930000   1.178356   -7.983070
 0.935000   1.137170   -8.480357
 0.940000   1.093553   -8.947297
 0.945000   1.047697   -9.363208
 0.950000   0.999921   -9.703217
 0.955000   0.950665   -9.969296
 0.960000   0.900228   -10.116452
 0.965000   0.849501   -10.112865
 0.970000   0.799099   -9.997389
 0.975000   0.749527   -9.785629
 0.980000   0.701243   -9.486826
 0.985000   0.654658   -9.122433
 0.990000   0.610018   -8.689035
 0.995000   0.567768   -8.181954
 1.000000   0.528199   -7.645726
201 psinorm nb(10^20/m^3) dnb/dpsiN
 0.000000   0.105002   0.145194
 0.005000   0.105424   0.023968
 0.010000   0.105241   -0.077279
 0.015000   0.104652   -0.151547
 0.020000   0.103726   -0.212139
 0.025000   0.102530   -0.261477
 0.030000   0.101111   -0.301881
 0.035000   0.099511   -0.334446
 0.040000   0.097766   -0.360539
 0.045000   0.095906   -0.380961
 0.050000   0.093957   -0.396919
 0.055000   0.091937   -0.408635
 0.060000   0.089871   -0.416418
 0.065000   0.087773   -0.421270
 0.070000   0.085658   -0.423396
 0.075000   0.083539   -0.423475
 0.080000   0.081423   -0.421434
 0.085000   0.079324   -0.417446
 0.090000   0.077249   -0.412224
 0.095000   0.075202   -0.405362
 0.100000   0.073195   -0.397181
 0.105000   0.071230   -0.388339
 0.110000   0.069312   -0.378895
 0.115000   0.067441   -0.369024
 0.120000   0.065621   -0.358760
 0.125000   0.063854   -0.347681
 0.130000   0.062145   -0.336257
 0.135000   0.060491   -0.325079
 0.140000   0.058894   -0.313849
 0.145000   0.057353   -0.302595
 0.150000   0.055868   -0.291388
 0.155000   0.054439   -0.280276
 0.160000   0.053065   -0.269316
 0.165000   0.051746   -0.258554
 0.170000   0.050480   -0.248019
 0.175000   0.049265   -0.237758
 0.180000   0.048102   -0.227861
 0.185000   0.046987   -0.218295
 0.190000   0.045919   -0.208970
 0.195000   0.044897   -0.199870
 0.200000   0.043920   -0.190759
 0.205000   0.042990   -0.182051
 0.210000   0.042100   -0.174060
 0.215000   0.041249   -0.166439
 0.220000   0.040435   -0.159166
 0.225000   0.039657   -0.152228
 0.230000   0.038913   -0.145636
 0.235000   0.038201   -0.139424
 0.240000   0.037519   -0.133373
 0.245000   0.036867   -0.127335
 0.250000   0.036246   -0.121847
 0.255000   0.035649   -0.117009
 0.260000   0.035075   -0.112461
 0.265000   0.034524   -0.108184
 0.270000   0.033994   -0.104110
 0.275000   0.033483   -0.099868
 0.280000   0.032995   -0.095965
 0.285000   0.032523   -0.092745
 0.290000   0.032067   -0.089732
 0.295000   0.031626   -0.086907
 0.300000   0.031198   -0.083973
 0.305000   0.030786   -0.081159
 0.310000   0.030387   -0.078834
 0.315000   0.029998   -0.076750
 0.320000   0.029619   -0.074799
 0.325000   0.029250   -0.072710
 0.330000   0.028892   -0.070762
 0.335000   0.028542   -0.069226
 0.340000   0.028200   -0.067801
 0.345000   0.027864   -0.066372
 0.350000   0.027536   -0.064882
 0.355000   0.027216   -0.063578
 0.360000   0.026900   -0.062512
 0.365000   0.026590   -0.061501
 0.370000   0.026285   -0.060363
 0.375000   0.025987   -0.059292
 0.380000   0.025692   -0.058467
 0.385000   0.025402   -0.057683
 0.390000   0.025116   -0.056797
 0.395000   0.024834   -0.055918
 0.400000   0.024556   -0.055215
 0.405000   0.024282   -0.054572
 0.410000   0.024011   -0.053847
 0.415000   0.023744   -0.053106
 0.420000   0.023480   -0.052491
 0.425000   0.023219   -0.051932
 0.430000   0.022960   -0.051287
 0.435000   0.022706   -0.050617
 0.440000   0.022454   -0.050057
 0.445000   0.022205   -0.049544
 0.450000   0.021959   -0.048938
 0.455000   0.021716   -0.048328
 0.460000   0.021475   -0.047832
 0.465000   0.021238   -0.047359
 0.470000   0.021002   -0.046779
 0.475000   0.020770   -0.046194
 0.480000   0.020540   -0.045728
 0.485000   0.020312   -0.045281
 0.490000   0.020087   -0.044730
 0.495000   0.019865   -0.044191
 0.500000   0.019645   -0.043777
 0.505000   0.019427   -0.043354
 0.510000   0.019212   -0.042853
 0.515000   0.018999   -0.042382
 0.520000   0.018788   -0.042008
 0.525000   0.018579   -0.041611
 0.530000   0.018372   -0.041160
 0.535000   0.018167   -0.040757
 0.540000   0.017964   -0.040436
 0.545000   0.017763   -0.040095
 0.550000   0.017563   -0.039723
 0.555000   0.017366   -0.039401
 0.560000   0.017169   -0.039136
 0.565000   0.016974   -0.038852
 0.570000   0.016781   -0.038554
 0.575000   0.016589   -0.038303
 0.580000   0.016398   -0.038095
 0.585000   0.016208   -0.037875
 0.590000   0.016019   -0.037653
 0.595000   0.015831   -0.037474
 0.600000   0.015644   -0.037331
 0.605000   0.015458   -0.037188
 0.610000   0.015272   -0.037058
 0.615000   0.015087   -0.036966
 0.620000   0.014903   -0.036905
 0.625000   0.014718   -0.036860
 0.630000   0.014534   -0.036841
 0.635000   0.014350   -0.036854
 0.640000   0.014166   -0.036890
 0.645000   0.013981   -0.036948
 0.650000   0.013796   -0.037048
 0.655000   0.013610   -0.037174
 0.660000   0.013424   -0.037302
 0.665000   0.013237   -0.037445
 0.670000   0.013050   -0.037636
 0.675000   0.012861   -0.037850
 0.680000   0.012671   -0.038046
 0.685000   0.012481   -0.038248
 0.690000   0.012289   -0.038479
 0.695000   0.012096   -0.038747
 0.700000   0.011901   -0.039011
 0.705000   0.011706   -0.039265
 0.710000   0.011509   -0.039531
 0.715000   0.011310   -0.039850
 0.720000   0.011110   -0.040191
 0.725000   0.010909   -0.040499
 0.730000   0.010705   -0.040805
 0.735000   0.010500   -0.041118
 0.740000   0.010294   -0.041483
 0.745000   0.010086   -0.041853
 0.750000   0.009876   -0.042171
 0.755000   0.009664   -0.042481
 0.760000   0.009451   -0.042787
 0.765000   0.009236   -0.043114
 0.770000   0.009020   -0.043435
 0.775000   0.008802   -0.043706
 0.780000   0.008583   -0.043953
 0.785000   0.008362   -0.044186
 0.790000   0.008141   -0.044406
 0.795000   0.007918   -0.044628
 0.800000   0.007694   -0.044824
 0.805000   0.007470   -0.044979
 0.810000   0.007245   -0.045114
 0.815000   0.007019   -0.045228
 0.820000   0.006792   -0.045318
 0.825000   0.006566   -0.045379
 0.830000   0.006339   -0.045405
 0.835000   0.006112   -0.045389
 0.840000   0.005885   -0.045336
 0.845000   0.005658   -0.045246
 0.850000   0.005432   -0.045119
 0.855000   0.005207   -0.044949
 0.860000   0.004983   -0.044733
 0.865000   0.004760   -0.044525
 0.870000   0.004537   -0.044393
 0.875000   0.004316   -0.044325
 0.880000   0.004094   -0.044291
 0.885000   0.003873   -0.044278
 0.890000   0.003651   -0.044270
 0.895000   0.003430   -0.044244
 0.900000   0.003209   -0.044166
 0.905000   0.002988   -0.044001
 0.910000   0.002769   -0.043717
 0.915000   0.002551   -0.043238
 0.920000   0.002337   -0.042462
 0.925000   0.002127   -0.041394
 0.930000   0.001923   -0.040110
 0.935000   0.001726   -0.038698
 0.940000   0.001536   -0.037298
 0.945000   0.001353   -0.036008
 0.950000   0.001176   -0.034758
 0.955000   0.001005   -0.033148
 0.960000   0.000844   -0.030693
 0.965000   0.000698   -0.027267
 0.970000   0.000571   -0.023188
 0.975000   0.000466   -0.018929
 0.980000   0.000382   -0.015351
 0.985000   0.000313   -0.013217
 0.990000   0.000250   -0.012205
 0.995000   0.000191   -0.012045
 1.000000   0.000130   -0.012393
201 psinorm pb(KPa) dpb/dpsiN
 0.000000   43.241701   28.118459
 0.005000   43.274429   -15.027338
 0.010000   43.091428   -52.424478
 0.015000   42.750184   -81.457083
 0.020000   42.276857   -104.877052
 0.025000   41.701414   -123.388007
 0.030000   41.042977   -138.249932
 0.035000   40.318915   -149.993009
 0.040000   39.543047   -159.177190
 0.045000   38.727143   -166.141075
 0.050000   37.881636   -171.310158
 0.055000   37.014041   -174.849482
 0.060000   36.133142   -176.964175
 0.065000   35.244399   -177.978547
 0.070000   34.353356   -177.982633
 0.075000   33.464573   -177.333536
 0.080000   32.580021   -175.890896
 0.085000   31.705664   -173.643176
 0.090000   30.843589   -170.961830
 0.095000   29.996046   -167.664267
 0.100000   29.166946   -163.876851
 0.105000   28.357277   -159.839030
 0.110000   27.568556   -155.600972
 0.115000   26.801268   -151.286010
 0.120000   26.055696   -146.873919
 0.125000   25.332528   -142.169869
 0.130000   24.633997   -137.363983
 0.135000   23.958889   -132.684810
 0.140000   23.307149   -128.003403
 0.145000   22.678855   -123.334134
 0.150000   22.073808   -118.705411
 0.155000   21.491800   -114.132637
 0.160000   20.932481   -109.642984
 0.165000   20.395371   -105.246910
 0.170000   19.880012   -100.951363
 0.175000   19.385857   -96.782660
 0.180000   18.912186   -92.781708
 0.185000   18.458040   -88.923566
 0.190000   18.022950   -85.153498
 0.195000   17.606505   -81.473073
 0.200000   17.208219   -77.794964
 0.205000   16.828555   -74.281248
 0.210000   16.465407   -71.056023
 0.215000   16.117995   -67.983324
 0.220000   15.785574   -65.050499
 0.225000   15.467490   -62.247624
 0.230000   15.163097   -59.584194
 0.235000   14.871648   -57.080195
 0.240000   14.592295   -54.650505
 0.245000   14.325143   -52.233047
 0.250000   14.069965   -50.033090
 0.255000   13.824812   -48.087374
 0.260000   13.589091   -46.256913
 0.265000   13.362243   -44.535139
 0.270000   13.143740   -42.894613
 0.275000   12.933297   -41.189833
 0.280000   12.731841   -39.617747
 0.285000   12.537119   -38.313851
 0.290000   12.348703   -37.091640
 0.295000   12.166203   -35.944035
 0.300000   11.989263   -34.756771
 0.305000   11.818635   -33.616489
 0.310000   11.653098   -32.665205
 0.315000   11.491983   -31.807401
 0.320000   11.335024   -31.001726
 0.325000   11.181966   -30.145649
 0.330000   11.033567   -29.347929
 0.335000   10.888487   -28.710550
 0.340000   10.746462   -28.113447
 0.345000   10.607352   -27.516296
 0.350000   10.471299   -26.897648
 0.355000   10.338376   -26.350444
 0.360000   10.207794   -25.894179
 0.365000   10.079434   -25.461610
 0.370000   9.953178   -24.981710
 0.375000   9.829617   -24.528112
 0.380000   9.707897   -24.169504
 0.385000   9.587922   -23.827465
 0.390000   9.469622   -23.446270
 0.395000   9.353459   -23.069483
 0.400000   9.238928   -22.761956
 0.405000   9.125840   -22.477920
 0.410000   9.014148   -22.165230
 0.415000   8.904187   -21.848374
 0.420000   8.795665   -21.579638
 0.425000   8.688391   -21.332504
 0.430000   8.582340   -21.055397
 0.435000   8.477837   -20.770252
 0.440000   8.374637   -20.526003
 0.445000   8.272577   -20.299863
 0.450000   8.171638   -20.041439
 0.455000   8.072162   -19.787982
 0.460000   7.973759   -19.578590
 0.465000   7.876377   -19.371763
 0.470000   7.780041   -19.126068
 0.475000   7.685116   -18.880167
 0.480000   7.591239   -18.676949
 0.485000   7.498346   -18.481146
 0.490000   7.406428   -18.249638
 0.495000   7.315850   -18.023900
 0.500000   7.226189   -17.841956
 0.505000   7.137430   -17.657600
 0.510000   7.049613   -17.447232
 0.515000   6.962958   -17.247719
 0.520000   6.877136   -17.081648
 0.525000   6.792142   -16.906851
 0.530000   6.708067   -16.713255
 0.535000   6.625009   -16.537443
 0.540000   6.542693   -16.390863
 0.545000   6.461100   -16.237577
 0.550000   6.380317   -16.074095
 0.555000   6.300360   -15.927007
 0.560000   6.221047   -15.799516
 0.565000   6.142364   -15.665400
 0.570000   6.064393   -15.524847
 0.575000   5.987116   -15.399624
 0.580000   5.910397   -15.289545
 0.585000   5.834220   -15.174038
 0.590000   5.758656   -15.056068
 0.595000   5.683660   -14.952611
 0.600000   5.609130   -14.860711
 0.605000   5.535053   -14.766170
 0.610000   5.461469   -14.675263
 0.615000   5.388300   -14.600808
 0.620000   5.315460   -14.538252
 0.625000   5.242918   -14.482468
 0.630000   5.170636   -14.435372
 0.635000   5.098564   -14.400316
 0.640000   5.026633   -14.376132
 0.645000   4.954802   -14.361578
 0.650000   4.883017   -14.361559
 0.655000   4.811187   -14.370038
 0.660000   4.739316   -14.381093
 0.665000   4.667376   -14.397942
 0.670000   4.595337   -14.431851
 0.675000   4.523057   -14.471663
 0.680000   4.450620   -14.503908
 0.685000   4.378018   -14.538331
 0.690000   4.305237   -14.581064
 0.695000   4.232208   -14.634803
 0.700000   4.158889   -14.688026
 0.705000   4.085327   -14.738982
 0.710000   4.011499   -14.794558
 0.715000   3.937382   -14.869574
 0.720000   3.862803   -14.952818
 0.725000   3.787854   -15.024909
 0.730000   3.712554   -15.095686
 0.735000   3.636897   -15.167754
 0.740000   3.560877   -15.257121
 0.745000   3.484326   -15.346630
 0.750000   3.407411   -15.416926
 0.755000   3.330156   -15.483308
 0.760000   3.252577   -15.546515
 0.765000   3.174691   -15.614244
 0.770000   3.096435   -15.676577
 0.775000   3.017925   -15.720894
 0.780000   2.939226   -15.755848
 0.785000   2.860367   -15.784698
 0.790000   2.781379   -15.808106
 0.795000   2.702286   -15.829267
 0.800000   2.623086   -15.840895
 0.805000   2.543877   -15.839513
 0.810000   2.464691   -15.830836
 0.815000   2.385569   -15.813900
 0.820000   2.306552   -15.788105
 0.825000   2.227688   -15.749028
 0.830000   2.149062   -15.695930
 0.835000   2.070728   -15.631345
 0.840000   1.992749   -15.554407
 0.845000   1.915184   -15.465323
 0.850000   1.838095   -15.363994
 0.855000   1.761544   -15.249765
 0.860000   1.685598   -15.118213
 0.865000   1.610362   -14.981054
 0.870000   1.535787   -14.861327
 0.875000   1.461749   -14.756726
 0.880000   1.388220   -14.656986
 0.885000   1.315179   -14.559638
 0.890000   1.242623   -14.460542
 0.895000   1.170574   -14.353868
 0.900000   1.099085   -14.229893
 0.905000   1.028275   -14.077104
 0.910000   0.958314   -13.884788
 0.915000   0.889427   -13.628326
 0.920000   0.822031   -13.268697
 0.925000   0.756740   -12.817397
 0.930000   0.693857   -12.305183
 0.935000   0.633688   -11.758163
 0.940000   0.576275   -11.245544
 0.945000   0.521233   -10.855422
 0.950000   0.467721   -10.650849
 0.955000   0.414724   -10.592080
 0.960000   0.361800   -10.541177
 0.965000   0.309312   -10.350986
 0.970000   0.258290   -9.937946
 0.975000   0.209933   -9.275196
 0.980000   0.165538   -8.440815
 0.985000   0.125525   -7.454409
 0.990000   0.090994   -6.143843
 0.995000   0.064086   -4.855044
 1.000000   0.042444   -3.802022
201 psinorm ptot(KPa) dptot/dpsiN
 0.000000   101.859332   -79.689815
 0.005000   101.379933   -112.069956
 0.010000   100.738633   -140.670768
 0.015000   99.973225   -163.574584
 0.020000   99.102887   -182.232091
 0.025000   98.150904   -197.111760
 0.030000   97.131769   -209.245204
 0.035000   96.058452   -219.053178
 0.040000   94.941237   -226.958490
 0.045000   93.788867   -233.219815
 0.050000   92.609039   -238.143410
 0.055000   91.407433   -241.868195
 0.060000   90.190357   -244.564274
 0.065000   88.961790   -246.451962
 0.070000   87.725838   -247.592256
 0.075000   86.485868   -248.262673
 0.080000   85.243211   -248.316282
 0.085000   84.002705   -247.718265
 0.090000   82.766028   -246.766481
 0.095000   81.535040   -245.308887
 0.100000   80.312939   -243.436606
 0.105000   79.100674   -241.320593
 0.110000   77.899734   -238.995215
 0.115000   76.710722   -236.560853
 0.120000   75.534125   -233.988610
 0.125000   74.370836   -231.113632
 0.130000   73.222989   -228.079341
 0.135000   72.090043   -225.049957
 0.140000   70.972489   -221.905653
 0.145000   69.870986   -218.650696
 0.150000   68.785982   -215.302767
 0.155000   67.717958   -211.868736
 0.160000   66.667295   -208.363179
 0.165000   65.634327   -204.787806
 0.170000   64.619417   -201.156190
 0.175000   63.622765   -197.494825
 0.180000   62.644468   -193.835122
 0.185000   61.684413   -190.158086
 0.190000   60.742888   -186.413096
 0.195000   59.820282   -182.604867
 0.200000   58.916839   -178.696338
 0.205000   58.033319   -174.837192
 0.210000   57.168467   -171.127518
 0.215000   56.322044   -167.469441
 0.220000   55.493773   -163.862278
 0.225000   54.683421   -160.314097
 0.230000   53.890632   -156.861081
 0.235000   53.114810   -153.527666
 0.240000   52.355355   -150.237820
 0.245000   51.612432   -146.943737
 0.250000   50.885918   -143.822524
 0.255000   50.174207   -140.922807
 0.260000   49.476690   -138.109567
 0.265000   48.793111   -135.348977
 0.270000   48.123200   -132.618995
 0.275000   47.466921   -129.791313
 0.280000   46.825287   -127.031332
 0.285000   46.196608   -124.457010
 0.290000   45.580717   -121.902056
 0.295000   44.977587   -119.363355
 0.300000   44.387083   -116.760402
 0.305000   43.809983   -114.172460
 0.310000   43.245358   -111.725477
 0.315000   42.692729   -109.318307
 0.320000   42.152175   -106.931026
 0.325000   41.623418   -104.519975
 0.330000   41.106976   -102.195909
 0.335000   40.601459   -100.062234
 0.340000   40.106353   -98.024102
 0.345000   39.621218   -96.050641
 0.350000   39.145847   -94.133050
 0.355000   38.679888   -92.349831
 0.360000   38.222349   -90.705216
 0.365000   37.772836   -89.137374
 0.370000   37.330975   -87.580874
 0.375000   36.897027   -86.111172
 0.380000   36.469863   -84.776339
 0.385000   36.049263   -83.481040
 0.390000   35.635053   -82.172723
 0.395000   35.227536   -80.883238
 0.400000   34.826220   -79.660623
 0.405000   34.430930   -78.458593
 0.410000   34.041634   -77.221062
 0.415000   33.658719   -75.973184
 0.420000   33.281902   -74.779305
 0.425000   32.910926   -73.626781
 0.430000   32.545635   -72.478101
 0.435000   32.186145   -71.350434
 0.440000   31.832130   -70.292087
 0.445000   31.483224   -69.299607
 0.450000   31.139134   -68.327901
 0.455000   30.799945   -67.403766
 0.460000   30.465097   -66.560514
 0.465000   30.134340   -65.755859
 0.470000   29.807538   -64.955781
 0.475000   29.484782   -64.204819
 0.480000   29.165490   -63.537677
 0.485000   28.849406   -62.915794
 0.490000   28.536332   -62.299636
 0.495000   28.226409   -61.725336
 0.500000   27.919079   -61.224560
 0.505000   27.614164   -60.741829
 0.510000   27.311660   -60.242084
 0.515000   27.011743   -59.756066
 0.520000   26.714100   -59.304295
 0.525000   26.418700   -58.851285
 0.530000   26.125587   -58.389467
 0.535000   25.834805   -57.950322
 0.540000   25.546084   -57.542107
 0.545000   25.259384   -57.131508
 0.550000   24.974768   -56.713780
 0.555000   24.692246   -56.311076
 0.560000   24.411658   -55.925672
 0.565000   24.132990   -55.531019
 0.570000   23.856347   -55.124150
 0.575000   23.581748   -54.723965
 0.580000   23.309108   -54.328847
 0.585000   23.038460   -53.918823
 0.590000   22.769920   -53.495672
 0.595000   22.503503   -53.072470
 0.600000   22.239195   -52.645200
 0.605000   21.977051   -52.201657
 0.610000   21.717178   -51.748108
 0.615000   21.459570   -51.297109
 0.620000   21.204207   -50.844672
 0.625000   20.951123   -50.386402
 0.630000   20.700343   -49.923957
 0.635000   20.451884   -49.460196
 0.640000   20.205741   -48.994394
 0.645000   19.961940   -48.525706
 0.650000   19.720484   -48.057723
 0.655000   19.481362   -47.586978
 0.660000   19.244614   -47.112931
 0.665000   19.010233   -46.642728
 0.670000   18.778187   -46.191074
 0.675000   18.548322   -45.751051
 0.680000   18.320677   -45.315823
 0.685000   18.095164   -44.887388
 0.690000   17.871803   -44.454502
 0.695000   17.650619   -44.011702
 0.700000   17.431686   -43.544707
 0.705000   17.215172   -43.049876
 0.710000   17.001187   -42.528547
 0.715000   16.789887   -41.999481
 0.720000   16.581192   -41.471749
 0.725000   16.375169   -40.938188
 0.730000   16.171810   -40.412131
 0.735000   15.971048   -39.902372
 0.740000   15.772787   -39.424468
 0.745000   15.576803   -38.972022
 0.750000   15.383066   -38.543727
 0.755000   15.191366   -38.155381
 0.760000   15.001513   -37.806677
 0.765000   14.813299   -37.508697
 0.770000   14.626426   -37.260480
 0.775000   14.440694   -37.060196
 0.780000   14.255824   -36.901782
 0.785000   14.071676   -36.766887
 0.790000   13.888155   -36.647421
 0.795000   13.705202   -36.537370
 0.800000   13.522781   -36.426449
 0.805000   13.340938   -36.306175
 0.810000   13.159719   -36.166120
 0.815000   12.979277   -36.004815
 0.820000   12.799671   -35.832012
 0.825000   12.620956   -35.644972
 0.830000   12.443221   -35.446556
 0.835000   12.266491   -35.246466
 0.840000   12.090757   -35.023552
 0.845000   11.916255   -34.754683
 0.850000   11.743210   -34.437605
 0.855000   11.571879   -34.066754
 0.860000   11.402542   -33.641226
 0.865000   11.235467   -33.202499
 0.870000   11.070517   -32.740803
 0.875000   10.908059   -32.213909
 0.880000   10.748378   -31.633708
 0.885000   10.591722   -31.016331
 0.890000   10.438215   -30.401499
 0.895000   10.287707   -29.913313
 0.900000   10.139082   -29.618612
 0.905000   9.991521   -29.673651
 0.910000   9.842345   -30.460486
 0.915000   9.686916   -32.434529
 0.920000   9.518000   -36.196145
 0.925000   9.324954   -42.646304
 0.930000   9.091537   -52.599888
 0.935000   8.798956   -66.700413
 0.940000   8.424533   -85.334365
 0.945000   7.945612   -107.947989
 0.950000   7.345053   -132.787761
 0.955000   6.617734   -156.914900
 0.960000   5.775904   -176.429435
 0.965000   4.853440   -186.995313
 0.970000   3.905951   -184.298304
 0.975000   3.010457   -165.665041
 0.980000   2.249300   -133.863059
 0.985000   1.671826   -97.814386
 0.990000   1.271157   -66.801778
 0.995000   1.003809   -45.080080
 1.000000   0.820356   -28.301031
201 psinorm omeg(kRad/s) domeg/dpsiN
 0.000000   55.731815   0.038182
 0.005000   55.731432   -0.191465
 0.010000   55.729901   -0.487901
 0.015000   55.726553   -0.938093
 0.020000   55.720520   -1.578534
 0.025000   55.710768   -2.438266
 0.030000   55.696137   -3.536354
 0.035000   55.675404   -4.876899
 0.040000   55.647368   -6.428027
 0.045000   55.611124   -8.150148
 0.050000   55.565866   -10.007137
 0.055000   55.511052   -11.942442
 0.060000   55.446442   -13.895256
 0.065000   55.372100   -15.806067
 0.070000   55.288381   -17.549435
 0.075000   55.196606   -19.135448
 0.080000   55.097027   -20.664710
 0.085000   54.989958   -22.133178
 0.090000   54.875695   -23.564318
 0.095000   54.754315   -25.000306
 0.100000   54.625692   -26.440966
 0.105000   54.489906   -27.908059
 0.110000   54.346611   -29.412528
 0.115000   54.195780   -30.909195
 0.120000   54.037520   -32.390063
 0.125000   53.871880   -33.869898
 0.130000   53.698821   -35.356539
 0.135000   53.518314   -36.862051
 0.140000   53.330200   -38.384186
 0.145000   53.134472   -39.897468
 0.150000   52.931225   -41.392542
 0.155000   52.720547   -42.871926
 0.160000   52.502506   -44.339513
 0.165000   52.277152   -45.808423
 0.170000   52.044422   -47.280881
 0.175000   51.804343   -48.735794
 0.180000   51.557064   -50.153188
 0.185000   51.302811   -51.517985
 0.190000   51.041884   -52.817390
 0.195000   50.774637   -54.039587
 0.200000   50.501488   -55.178172
 0.205000   50.222856   -56.226834
 0.210000   49.939220   -57.166681
 0.215000   49.651189   -57.968982
 0.220000   49.359530   -58.584715
 0.225000   49.065342   -58.939131
 0.230000   48.770139   -59.056805
 0.235000   48.474774   -58.985437
 0.240000   48.180284   -58.712067
 0.245000   47.887653   -58.250082
 0.250000   47.597784   -57.599396
 0.255000   47.311659   -56.719288
 0.260000   47.030591   -55.733199
 0.265000   46.754327   -54.719733
 0.270000   46.483393   -53.607315
 0.275000   46.218254   -52.411131
 0.280000   45.959282   -51.145902
 0.285000   45.706795   -49.779068
 0.290000   45.461491   -48.444812
 0.295000   45.222347   -47.237352
 0.300000   44.989118   -46.087074
 0.305000   44.761476   -45.005919
 0.310000   44.539059   -43.995014
 0.315000   44.321526   -43.023868
 0.320000   44.108820   -42.052442
 0.325000   43.901001   -41.057224
 0.330000   43.698248   -40.031445
 0.335000   43.500687   -38.984005
 0.340000   43.308408   -37.921551
 0.345000   43.121471   -36.846705
 0.350000   42.939941   -35.769311
 0.355000   42.763778   -34.694565
 0.360000   42.592995   -33.617822
 0.365000   42.427600   -32.539638
 0.370000   42.267599   -31.460760
 0.375000   42.112992   -30.387964
 0.380000   41.963719   -29.318831
 0.385000   41.819804   -28.243211
 0.390000   41.681287   -27.159348
 0.395000   41.548211   -26.064920
 0.400000   41.420638   -24.956863
 0.405000   41.298642   -23.834249
 0.410000   41.182295   -22.694478
 0.415000   41.071697   -21.543016
 0.420000   40.966865   -20.397104
 0.425000   40.867726   -19.272993
 0.430000   40.774135   -18.184135
 0.435000   40.685885   -17.146142
 0.440000   40.602674   -16.164892
 0.445000   40.524236   -15.224303
 0.450000   40.450431   -14.312543
 0.455000   40.381111   -13.428088
 0.460000   40.316150   -12.567387
 0.465000   40.255437   -11.735518
 0.470000   40.198795   -10.930645
 0.475000   40.146130   -10.135120
 0.480000   40.097443   -9.350884
 0.485000   40.052621   -8.592039
 0.490000   40.011523   -7.865044
 0.495000   39.973971   -7.179326
 0.500000   39.939730   -6.541319
 0.505000   39.908558   -5.954495
 0.510000   39.880185   -5.436093
 0.515000   39.854197   -5.008945
 0.520000   39.830095   -4.688159
 0.525000   39.807315   -4.490459
 0.530000   39.785191   -4.440288
 0.535000   39.762912   -4.539392
 0.540000   39.739797   -4.798520
 0.545000   39.714927   -5.261641
 0.550000   39.687180   -5.975423
 0.555000   39.655173   -7.003406
 0.560000   39.617146   -8.447462
 0.565000   39.570698   -10.341109
 0.570000   39.513735   -12.715817
 0.575000   39.443540   -15.660014
 0.580000   39.357135   -19.215781
 0.585000   39.251382   -23.403802
 0.590000   39.123097   -28.243993
 0.595000   38.968942   -33.591113
 0.600000   38.787186   -39.293280
 0.605000   38.576010   -45.298454
 0.610000   38.334201   -51.479158
 0.615000   38.061218   -57.698952
 0.620000   37.757212   -63.703532
 0.625000   37.424183   -69.371832
 0.630000   37.063494   -74.683540
 0.635000   36.677347   -79.506427
 0.640000   36.268429   -83.762354
 0.645000   35.839724   -87.406891
 0.650000   35.394360   -90.214896
 0.655000   34.937575   -92.404242
 0.660000   34.470318   -94.350540
 0.665000   33.994069   -96.040324
 0.670000   33.509915   -97.588274
 0.675000   33.018187   -99.137424
 0.680000   32.518540   -100.877234
 0.685000   32.009414   -102.976738
 0.690000   31.488773   -105.221729
 0.695000   30.957197   -107.176553
 0.700000   30.417008   -108.527800
 0.705000   29.871919   -109.034778
 0.710000   29.326660   -108.533868
 0.715000   28.786580   -106.999193
 0.720000   28.256668   -104.620697
 0.725000   27.740373   -101.593538
 0.730000   27.240732   -98.002028
 0.735000   26.760353   -93.932899
 0.740000   26.301403   -89.416890
 0.745000   25.866184   -84.567082
 0.750000   25.455733   -79.605804
 0.755000   25.070126   -74.635329
 0.760000   24.709379   -69.735829
 0.765000   24.372768   -65.049435
 0.770000   24.058885   -60.754428
 0.775000   23.765224   -57.021130
 0.780000   23.488674   -53.669493
 0.785000   23.228529   -50.413846
 0.790000   22.984535   -47.190474
 0.795000   22.756624   -44.000122
 0.800000   22.544534   -40.957527
 0.805000   22.347049   -38.217538
 0.810000   22.162359   -35.847913
 0.815000   21.988570   -34.081267
 0.820000   21.821546   -33.272240
 0.825000   21.655847   -33.684081
 0.830000   21.484705   -35.605629
 0.835000   21.299791   -39.353651
 0.840000   21.091169   -45.026083
 0.845000   20.849530   -52.679390
 0.850000   20.564375   -62.446619
 0.855000   20.225064   -74.330774
 0.860000   19.821067   -88.343565
 0.865000   19.341628   -104.709691
 0.870000   18.773970   -123.113635
 0.875000   18.110492   -142.946733
 0.880000   17.344503   -163.781360
 0.885000   16.472678   -184.826192
 0.890000   15.496241   -205.065495
 0.895000   14.422023   -223.675829
 0.900000   13.259483   -238.447638
 0.905000   12.037547   -247.332085
 0.910000   10.786162   -249.718460
 0.915000   9.540362   -244.802615
 0.920000   8.338136   -232.269359
 0.925000   7.217669   -212.376361
 0.930000   6.214372   -185.960315
 0.935000   5.358066   -154.662099
 0.940000   4.667751   -120.589192
 0.945000   4.152174   -85.901529
 0.950000   3.808736   -52.889290
 0.955000   3.623281   -23.756604
 0.960000   3.571170   -0.423439
 0.965000   3.619046   16.023131
 0.970000   3.731401   25.498978
 0.975000   3.874036   28.569186
 0.980000   4.017093   26.301820
 0.985000   4.137054   20.006691
 0.990000   4.217160   11.210211
 0.995000   4.249156   1.295519
 1.000000   4.230115   -8.912130
201 psinorm omegp(kRad/s) domegp/dpsiN
 0.000000   -0.030775   180.934448
 0.005000   0.690109   107.419267
 0.010000   1.043418   67.435840
 0.015000   1.364468   62.890079
 0.020000   1.672319   60.292238
 0.025000   1.967390   57.121251
 0.030000   2.243531   52.851556
 0.035000   2.495906   48.468893
 0.040000   2.728220   44.292883
 0.045000   2.938835   40.312826
 0.050000   3.131348   37.043176
 0.055000   3.309266   34.650805
 0.060000   3.477856   33.202688
 0.065000   3.641293   32.339324
 0.070000   3.801250   31.760562
 0.075000   3.958899   31.239575
 0.080000   4.113645   30.538143
 0.085000   4.264280   29.661603
 0.090000   4.410261   28.515982
 0.095000   4.549440   26.977135
 0.100000   4.680033   25.162721
 0.105000   4.801067   23.152469
 0.110000   4.911557   21.038947
 0.115000   5.011457   18.777637
 0.120000   5.099334   16.664332
 0.125000   5.178100   14.954982
 0.130000   5.248884   13.635705
 0.135000   5.314457   12.571314
 0.140000   5.374597   11.811249
 0.145000   5.432570   11.270250
 0.150000   5.487299   10.743094
 0.155000   5.540001   10.025447
 0.160000   5.587554   9.046103
 0.165000   5.630462   7.951129
 0.170000   5.667065   6.563638
 0.175000   5.696098   5.008668
 0.180000   5.717152   3.277044
 0.185000   5.728868   1.470853
 0.190000   5.731860   -0.414458
 0.195000   5.724724   -2.220689
 0.200000   5.709653   -3.926812
 0.205000   5.685456   -5.686256
 0.210000   5.652791   -7.185009
 0.215000   5.613606   -8.521573
 0.220000   5.567575   -9.709744
 0.225000   5.516508   -10.773407
 0.230000   5.459841   -11.905311
 0.235000   5.397455   -12.970699
 0.240000   5.330134   -14.140176
 0.245000   5.256053   -15.429069
 0.250000   5.175843   -16.719486
 0.255000   5.088858   -18.154597
 0.260000   4.994297   -19.560497
 0.265000   4.893253   -20.960506
 0.270000   4.784692   -22.407641
 0.275000   4.669177   -23.681437
 0.280000   4.547878   -24.887528
 0.285000   4.420302   -26.036565
 0.290000   4.287512   -27.021177
 0.295000   4.150090   -27.960835
 0.300000   4.007904   -28.898698
 0.305000   3.861103   -29.780875
 0.310000   3.710095   -30.695697
 0.315000   3.554146   -31.627988
 0.320000   3.393815   -32.575935
 0.325000   3.228387   -33.663389
 0.330000   3.057181   -34.762780
 0.335000   2.880759   -35.823420
 0.340000   2.698947   -36.852788
 0.345000   2.512231   -37.721062
 0.350000   2.321737   -38.301119
 0.355000   2.129220   -38.670111
 0.360000   1.935035   -38.880789
 0.365000   1.740412   -38.881921
 0.370000   1.546216   -38.772243
 0.375000   1.352690   -38.567925
 0.380000   1.160537   -38.221330
 0.385000   0.970476   -37.908107
 0.390000   0.781456   -37.747762
 0.395000   0.592999   -37.693111
 0.400000   0.404525   -37.704492
 0.405000   0.215954   -37.800809
 0.410000   0.026517   -37.914699
 0.415000   -0.163193   -37.998937
 0.420000   -0.353473   -38.275423
 0.425000   -0.545948   -39.074059
 0.430000   -0.744213   -40.677594
 0.435000   -0.952723   -43.443654
 0.440000   -1.178650   -47.944327
 0.445000   -1.432167   -53.451927
 0.450000   -1.713169   -59.058391
 0.455000   -2.022751   -64.769115
 0.460000   -2.360860   -70.283925
 0.465000   -2.725590   -75.340324
 0.470000   -3.114263   -79.363343
 0.475000   -3.519223   -81.341018
 0.480000   -3.927674   -81.062894
 0.485000   -4.329852   -78.832751
 0.490000   -4.716001   -74.818926
 0.495000   -5.078042   -69.098437
 0.500000   -5.406986   -61.769414
 0.505000   -5.695736   -53.880367
 0.510000   -5.945789   -46.340650
 0.515000   -6.159142   -39.222950
 0.520000   -6.338019   -32.677159
 0.525000   -6.485914   -26.841311
 0.530000   -6.606432   -22.249192
 0.535000   -6.708406   -19.215207
 0.540000   -6.798584   -17.313301
 0.545000   -6.881539   -16.268897
 0.550000   -6.961273   -15.680592
 0.555000   -7.038345   -15.233860
 0.560000   -7.113611   -14.799556
 0.565000   -7.186340   -14.109892
 0.570000   -7.254710   -13.082542
 0.575000   -7.317166   -11.745557
 0.580000   -7.372166   -10.213234
 0.585000   -7.419298   -8.460025
 0.590000   -7.456766   -6.412929
 0.595000   -7.483427   -4.280871
 0.600000   -7.499575   -2.234692
 0.605000   -7.505774   -0.277775
 0.610000   -7.502353   1.519916
 0.615000   -7.490575   2.955384
 0.620000   -7.472799   4.133461
 0.625000   -7.449240   5.139593
 0.630000   -7.421403   5.844524
 0.635000   -7.390795   6.334032
 0.640000   -7.358063   6.716235
 0.645000   -7.323633   7.032867
 0.650000   -7.287734   7.285312
 0.655000   -7.250780   7.521860
 0.660000   -7.212515   7.777118
 0.665000   -7.173009   7.980823
 0.670000   -7.132707   8.098840
 0.675000   -7.092020   8.200245
 0.680000   -7.050705   8.300807
 0.685000   -7.009012   8.386389
 0.690000   -6.966841   8.495858
 0.695000   -6.924053   8.657030
 0.700000   -6.880270   8.901525
 0.705000   -6.835038   9.121544
 0.710000   -6.789055   9.243716
 0.715000   -6.742601   9.213868
 0.720000   -6.696916   8.915428
 0.725000   -6.653447   8.310192
 0.730000   -6.613814   7.395049
 0.735000   -6.579496   6.156711
 0.740000   -6.552247   4.565923
 0.745000   -6.533837   2.733180
 0.750000   -6.524915   0.821230
 0.755000   -6.525625   -1.072556
 0.760000   -6.535641   -2.840996
 0.765000   -6.554035   -4.334112
 0.770000   -6.578982   -5.489778
 0.775000   -6.608932   -6.398144
 0.780000   -6.642964   -7.135922
 0.785000   -6.680292   -7.792112
 0.790000   -6.720885   -8.732355
 0.795000   -6.767615   -10.397030
 0.800000   -6.824855   -12.826299
 0.805000   -6.895878   -15.957485
 0.810000   -6.984430   -19.772620
 0.815000   -7.093604   -24.250715
 0.820000   -7.226937   -29.513819
 0.825000   -7.388743   -35.010751
 0.830000   -7.577044   -40.349855
 0.835000   -7.792241   -45.502171
 0.840000   -8.032066   -49.776628
 0.845000   -8.290007   -52.445802
 0.850000   -8.556524   -52.751280
 0.855000   -8.817520   -49.506000
 0.860000   -9.051584   -42.203929
 0.865000   -9.239560   -31.315467
 0.870000   -9.364739   -17.663510
 0.875000   -9.416195   -2.316344
 0.880000   -9.387902   13.264342
 0.885000   -9.283551   27.550027
 0.890000   -9.112402   39.590911
 0.895000   -8.887642   49.049606
 0.900000   -8.621906   55.950969
 0.905000   -8.328132   60.255591
 0.910000   -8.019350   62.660235
 0.915000   -7.701530   64.354304
 0.920000   -7.375807   66.153548
 0.925000   -7.039995   69.380201
 0.930000   -6.682005   74.739621
 0.935000   -6.292598   84.598908
 0.940000   -5.836016   102.037968
 0.945000   -5.272219   124.963368
 0.950000   -4.586382   145.537148
 0.955000   -3.816847   152.562877
 0.960000   -3.060754   130.289647
 0.965000   -2.513951   58.886400
 0.970000   -2.471890   -68.195107
 0.975000   -3.195902   -193.754126
 0.980000   -4.409431   -172.915889
 0.985000   -4.925061   149.463935
 0.990000   -2.914791   753.313869
 0.995000   2.608078   1278.983232
 1.000000   9.875041   1627.801943
201 psinorm omgvb(kRad/s) domgvb/dpsiN
 0.000000   55.701040   180.972629
 0.005000   56.421541   107.227802
 0.010000   56.773318   66.947939
 0.015000   57.091021   61.951986
 0.020000   57.392838   58.713704
 0.025000   57.678158   54.682986
 0.030000   57.939668   49.315202
 0.035000   58.171310   43.591994
 0.040000   58.375588   37.864856
 0.045000   58.549958   32.162678
 0.050000   58.697215   27.036039
 0.055000   58.820319   22.708362
 0.060000   58.924298   19.307432
 0.065000   59.013393   16.533257
 0.070000   59.089631   14.211127
 0.075000   59.155504   12.104127
 0.080000   59.210672   9.873433
 0.085000   59.254239   7.528424
 0.090000   59.285956   4.951664
 0.095000   59.303755   1.976829
 0.100000   59.305725   -1.278246
 0.105000   59.290973   -4.755589
 0.110000   59.258169   -8.373580
 0.115000   59.207237   -12.131558
 0.120000   59.136853   -15.725731
 0.125000   59.049980   -18.914916
 0.130000   58.947704   -21.720834
 0.135000   58.832771   -24.290736
 0.140000   58.704797   -26.572936
 0.145000   58.567042   -28.627218
 0.150000   58.418525   -30.649448
 0.155000   58.260548   -32.846479
 0.160000   58.090060   -35.293410
 0.165000   57.907613   -37.857294
 0.170000   57.711487   -40.717243
 0.175000   57.500441   -43.727126
 0.180000   57.274216   -46.876143
 0.185000   57.031680   -50.047133
 0.190000   56.773744   -53.231849
 0.195000   56.499361   -56.260275
 0.200000   56.211141   -59.104984
 0.205000   55.908311   -61.913090
 0.210000   55.592011   -64.351690
 0.215000   55.264794   -66.490556
 0.220000   54.927105   -68.294459
 0.225000   54.581850   -69.712538
 0.230000   54.229980   -70.962116
 0.235000   53.872229   -71.956136
 0.240000   53.510418   -72.852243
 0.245000   53.143706   -73.679151
 0.250000   52.773627   -74.318881
 0.255000   52.400517   -74.873885
 0.260000   52.024888   -75.293696
 0.265000   51.647580   -75.680239
 0.270000   51.268086   -76.014956
 0.275000   50.887431   -76.092569
 0.280000   50.507160   -76.033430
 0.285000   50.127097   -75.815633
 0.290000   49.749004   -75.465989
 0.295000   49.372437   -75.198187
 0.300000   48.997022   -74.985772
 0.305000   48.622579   -74.786794
 0.310000   48.249154   -74.690711
 0.315000   47.875672   -74.651856
 0.320000   47.502635   -74.628377
 0.325000   47.129388   -74.720613
 0.330000   46.755429   -74.794225
 0.335000   46.381446   -74.807425
 0.340000   46.007355   -74.774339
 0.345000   45.633702   -74.567767
 0.350000   45.261677   -74.070430
 0.355000   44.892998   -73.364676
 0.360000   44.528030   -72.498611
 0.365000   44.168012   -71.421558
 0.370000   43.813815   -70.233003
 0.375000   43.465682   -68.955889
 0.380000   43.124256   -67.540161
 0.385000   42.790280   -66.151318
 0.390000   42.462743   -64.907111
 0.395000   42.141209   -63.758031
 0.400000   41.825162   -62.661355
 0.405000   41.514596   -61.635059
 0.410000   41.208812   -60.609177
 0.415000   40.908504   -59.541953
 0.420000   40.613392   -58.672527
 0.425000   40.321779   -58.347051
 0.430000   40.029922   -58.861729
 0.435000   39.733161   -60.589795
 0.440000   39.424024   -64.109219
 0.445000   39.092069   -68.676231
 0.450000   38.737262   -73.370935
 0.455000   38.358360   -78.197203
 0.460000   37.955289   -82.851312
 0.465000   37.529847   -87.075842
 0.470000   37.084531   -90.293988
 0.475000   36.626907   -91.476138
 0.480000   36.169770   -90.413779
 0.485000   35.722769   -87.424790
 0.490000   35.295522   -82.683970
 0.495000   34.895929   -76.277763
 0.500000   34.532744   -68.310733
 0.505000   34.212822   -59.834862
 0.510000   33.934396   -51.776744
 0.515000   33.695055   -44.231895
 0.520000   33.492077   -37.365318
 0.525000   33.321401   -31.331769
 0.530000   33.178759   -26.689480
 0.535000   33.054507   -23.754599
 0.540000   32.941213   -22.111820
 0.545000   32.833388   -21.530538
 0.550000   32.725908   -21.656015
 0.555000   32.616828   -22.237265
 0.560000   32.503535   -23.247018
 0.565000   32.384358   -24.451001
 0.570000   32.259025   -25.798360
 0.575000   32.126375   -27.405571
 0.580000   31.984969   -29.429015
 0.585000   31.832084   -31.863827
 0.590000   31.666331   -34.656922
 0.595000   31.485515   -37.871984
 0.600000   31.287611   -41.527972
 0.605000   31.070235   -45.576229
 0.610000   30.831849   -49.959242
 0.615000   30.570643   -54.743568
 0.620000   30.284413   -59.570071
 0.625000   29.974942   -64.232239
 0.630000   29.642091   -68.839017
 0.635000   29.286552   -73.172395
 0.640000   28.910367   -77.046119
 0.645000   28.516091   -80.374024
 0.650000   28.106626   -82.929584
 0.655000   27.686795   -84.882382
 0.660000   27.257803   -86.573422
 0.665000   26.821061   -88.059502
 0.670000   26.377208   -89.489434
 0.675000   25.926167   -90.937179
 0.680000   25.467836   -92.576427
 0.685000   25.000402   -94.590349
 0.690000   24.521932   -96.725871
 0.695000   24.033144   -98.519523
 0.700000   23.536737   -99.626275
 0.705000   23.036881   -99.913234
 0.710000   22.537605   -99.290153
 0.715000   22.043979   -97.785324
 0.720000   21.559752   -95.705269
 0.725000   21.086927   -93.283346
 0.730000   20.626918   -90.606979
 0.735000   20.180857   -87.776189
 0.740000   19.749156   -84.850967
 0.745000   19.332347   -81.833902
 0.750000   18.930817   -78.784574
 0.755000   18.544501   -75.707884
 0.760000   18.173738   -72.576825
 0.765000   17.818733   -69.383547
 0.770000   17.479903   -66.244206
 0.775000   17.156291   -63.419274
 0.780000   16.845710   -60.805415
 0.785000   16.548237   -58.205958
 0.790000   16.263651   -55.922829
 0.795000   15.989009   -54.397152
 0.800000   15.719679   -53.783826
 0.805000   15.451170   -54.175024
 0.810000   15.177929   -55.620532
 0.815000   14.894965   -58.331981
 0.820000   14.594609   -62.786059
 0.825000   14.267104   -68.694832
 0.830000   13.907661   -75.955484
 0.835000   13.507550   -84.855823
 0.840000   13.059102   -94.802712
 0.845000   12.559523   -105.125192
 0.850000   12.007850   -115.197899
 0.855000   11.407544   -123.836774
 0.860000   10.769483   -130.547495
 0.865000   10.102069   -136.025158
 0.870000   9.409231   -140.777146
 0.875000   8.694297   -145.263077
 0.880000   7.956600   -150.517018
 0.885000   7.189127   -157.276164
 0.890000   6.383839   -165.474584
 0.895000   5.534381   -174.626222
 0.900000   4.637577   -182.496669
 0.905000   3.709414   -187.076493
 0.910000   2.766812   -187.058225
 0.915000   1.838832   -180.448311
 0.920000   0.962328   -166.115811
 0.925000   0.177674   -142.996160
 0.930000   -0.467633   -111.220694
 0.935000   -0.934533   -70.063190
 0.940000   -1.168265   -18.551224
 0.945000   -1.120045   39.061839
 0.950000   -0.777647   92.647858
 0.955000   -0.193567   128.806273
 0.960000   0.510416   129.866208
 0.965000   1.105096   74.909530
 0.970000   1.259511   -42.696129
 0.975000   0.678134   -165.184939
 0.980000   -0.392338   -146.614068
 0.985000   -0.788006   169.470626
 0.990000   1.302368   764.524080
 0.995000   6.857234   1280.278751
 1.000000   14.105156   1618.889813
201 psinorm omgpp(kRad/s) domgpp/dpsiN
 0.000000   -0.073401   -36.630489
 0.005000   -0.295943   -52.386536
 0.010000   -0.597266   -60.753361
 0.015000   -0.903477   -61.640090
 0.020000   -1.213667   -62.327676
 0.025000   -1.526754   -62.787432
 0.030000   -1.841541   -63.033977
 0.035000   -2.157093   -63.087107
 0.040000   -2.472412   -62.951275
 0.045000   -2.786606   -62.641751
 0.050000   -3.098830   -62.156859
 0.055000   -3.408175   -61.501544
 0.060000   -3.713845   -60.664466
 0.065000   -4.014819   -59.573220
 0.070000   -4.309578   -58.195815
 0.075000   -4.596778   -56.555772
 0.080000   -4.875135   -54.648891
 0.085000   -5.143266   -52.500540
 0.090000   -5.400141   -50.378939
 0.095000   -5.647056   -48.268861
 0.100000   -5.882829   -46.010568
 0.105000   -6.107162   -43.703289
 0.110000   -6.319862   -41.353560
 0.115000   -6.520697   -38.946717
 0.120000   -6.709329   -36.465852
 0.125000   -6.885356   -33.854876
 0.130000   -7.047878   -31.087878
 0.135000   -7.196234   -28.187072
 0.140000   -7.329749   -25.152107
 0.145000   -7.447756   -21.931089
 0.150000   -7.549060   -18.658446
 0.155000   -7.634340   -15.394380
 0.160000   -7.703003   -12.050793
 0.165000   -7.754848   -8.677374
 0.170000   -7.789777   -5.292928
 0.175000   -7.807777   -1.546760
 0.180000   -7.805245   1.961707
 0.185000   -7.788160   4.981097
 0.190000   -7.755434   8.042824
 0.195000   -7.707732   10.937797
 0.200000   -7.646056   13.624209
 0.205000   -7.571490   16.465960
 0.210000   -7.481396   18.642427
 0.215000   -7.385066   19.977296
 0.220000   -7.281623   21.325938
 0.225000   -7.171806   22.456419
 0.230000   -7.057059   23.309515
 0.235000   -6.938711   23.760728
 0.240000   -6.819452   23.820632
 0.245000   -6.700505   23.958902
 0.250000   -6.579863   24.304786
 0.255000   -6.457457   24.716443
 0.260000   -6.332698   25.275599
 0.265000   -6.204701   25.772299
 0.270000   -6.074975   26.834436
 0.275000   -5.936356   28.630514
 0.280000   -5.788670   30.212707
 0.285000   -5.634229   31.528942
 0.290000   -5.473381   32.766749
 0.295000   -5.306562   33.969992
 0.300000   -5.133681   35.235061
 0.305000   -4.954211   36.325491
 0.310000   -4.770426   37.170146
 0.315000   -4.582510   37.881016
 0.320000   -4.391616   38.288020
 0.325000   -4.199630   38.377087
 0.330000   -4.007845   37.673580
 0.335000   -3.822894   35.898810
 0.340000   -3.648857   34.000357
 0.345000   -3.482890   32.370541
 0.350000   -3.325151   30.724345
 0.355000   -3.175647   29.011361
 0.360000   -3.035038   27.109932
 0.365000   -2.904547   25.491789
 0.370000   -2.780120   24.249073
 0.375000   -2.662057   23.021080
 0.380000   -2.549909   21.883480
 0.385000   -2.443222   20.740502
 0.390000   -2.342504   19.644667
 0.395000   -2.246775   19.474526
 0.400000   -2.147759   19.736950
 0.405000   -2.049406   19.559447
 0.410000   -1.952164   19.279450
 0.415000   -1.856611   18.907890
 0.420000   -1.763086   18.660261
 0.425000   -1.670009   17.903037
 0.430000   -1.584055   16.549039
 0.435000   -1.504518   15.245990
 0.440000   -1.431595   13.917771
 0.445000   -1.365341   12.601427
 0.450000   -1.305581   11.664913
 0.455000   -1.248691   10.330040
 0.460000   -1.202281   8.598911
 0.465000   -1.162702   7.229151
 0.470000   -1.129989   5.850590
 0.475000   -1.104196   4.458309
 0.480000   -1.085406   3.136629
 0.485000   -1.072830   1.545313
 0.490000   -1.069953   -0.188992
 0.495000   -1.074720   -1.639760
 0.500000   -1.086350   -2.913463
 0.505000   -1.103855   -3.956780
 0.510000   -1.125918   -4.758740
 0.515000   -1.151442   -5.453139
 0.520000   -1.180450   -6.195016
 0.525000   -1.213392   -6.947712
 0.530000   -1.249927   -7.621960
 0.535000   -1.289612   -8.203446
 0.540000   -1.331961   -8.730269
 0.545000   -1.376915   -9.139530
 0.550000   -1.423357   -9.403640
 0.555000   -1.470951   -9.614053
 0.560000   -1.519497   -9.773194
 0.565000   -1.568683   -9.869880
 0.570000   -1.618196   -9.930499
 0.575000   -1.667988   -9.926765
 0.580000   -1.717464   -9.836142
 0.585000   -1.766349   -9.706311
 0.590000   -1.814527   -9.527406
 0.595000   -1.861623   -9.271385
 0.600000   -1.907240   -8.927739
 0.605000   -1.950901   -8.494003
 0.610000   -1.992181   -8.026543
 0.615000   -2.031166   -7.558557
 0.620000   -2.067766   -7.085894
 0.625000   -2.102025   -6.633966
 0.630000   -2.134106   -6.234183
 0.635000   -2.164367   -5.925252
 0.640000   -2.193358   -5.653539
 0.645000   -2.220902   -5.372595
 0.650000   -2.247084   -5.111959
 0.655000   -2.272022   -4.877700
 0.660000   -2.295861   -4.746518
 0.665000   -2.319487   -4.868366
 0.670000   -2.344545   -4.937971
 0.675000   -2.368867   -4.970224
 0.680000   -2.394247   -5.336195
 0.685000   -2.422229   -6.012010
 0.690000   -2.454367   -7.152973
 0.695000   -2.493758   -9.053495
 0.700000   -2.544902   -9.852132
 0.705000   -2.592280   -9.654398
 0.710000   -2.641446   -9.933132
 0.715000   -2.691611   -10.017817
 0.720000   -2.741624   -9.902196
 0.725000   -2.790633   -9.882956
 0.730000   -2.840454   -8.420478
 0.735000   -2.874838   -6.050339
 0.740000   -2.900957   -4.242724
 0.745000   -2.917265   -2.137452
 0.750000   -2.922332   0.227624
 0.755000   -2.914989   3.488176
 0.760000   -2.887450   6.562590
 0.765000   -2.849363   8.703435
 0.770000   -2.800416   10.724460
 0.775000   -2.742118   12.374347
 0.780000   -2.676672   13.514673
 0.785000   -2.606972   14.998638
 0.790000   -2.526686   14.660850
 0.795000   -2.460363   12.447119
 0.800000   -2.402215   10.749832
 0.805000   -2.352865   8.805018
 0.810000   -2.314164   6.507533
 0.815000   -2.287790   3.592083
 0.820000   -2.278244   0.350254
 0.825000   -2.284287   -1.908966
 0.830000   -2.297333   -3.116792
 0.835000   -2.315455   -4.028966
 0.840000   -2.337623   -4.805744
 0.845000   -2.363512   -5.784794
 0.850000   -2.395471   -6.861080
 0.855000   -2.432123   -8.247580
 0.860000   -2.477947   -10.460837
 0.865000   -2.536732   -13.309570
 0.870000   -2.611042   -16.664826
 0.875000   -2.703380   -21.572155
 0.880000   -2.826764   -27.163552
 0.885000   -2.975015   -31.048513
 0.890000   -3.137249   -34.291485
 0.895000   -3.317930   -37.987825
 0.900000   -3.517127   -41.831794
 0.905000   -3.736248   -48.319451
 0.910000   -4.000322   -56.815575
 0.915000   -4.304404   -61.542246
 0.920000   -4.615744   -65.140045
 0.925000   -4.955804   -71.010344
 0.930000   -5.325848   -77.179369
 0.935000   -5.727598   -86.996612
 0.940000   -6.195814   -101.038083
 0.945000   -6.737979   -108.709319
 0.950000   -7.282907   -116.322315
 0.955000   -7.901202   -133.889750
 0.960000   -8.621805   -157.194935
 0.965000   -9.473151   -188.677680
 0.970000   -10.508581   -225.859487
 0.975000   -11.731746   -236.391262
 0.980000   -12.872494   -218.167719
 0.985000   -13.913423   -184.945574
 0.990000   -14.721950   -123.877703
 0.995000   -15.152200   -38.233650
 1.000000   -15.104286   57.399318
201 psinorm omgeb(kRad/s) domgeb/dpsiN
 0.000000   55.627640   144.342141
 0.005000   56.125598   54.841266
 0.010000   56.176052   6.194579
 0.015000   56.187544   0.311895
 0.020000   56.179171   -3.613972
 0.025000   56.151404   -8.104447
 0.030000   56.098127   -13.718775
 0.035000   56.014216   -19.495113
 0.040000   55.903176   -25.086419
 0.045000   55.763352   -30.479073
 0.050000   55.598385   -35.120820
 0.055000   55.412144   -38.793182
 0.060000   55.210453   -41.357034
 0.065000   54.998574   -43.039964
 0.070000   54.780053   -43.984688
 0.075000   54.558727   -44.451645
 0.080000   54.335537   -44.775458
 0.085000   54.110972   -44.972115
 0.090000   53.885816   -45.427275
 0.095000   53.656699   -46.292032
 0.100000   53.422895   -47.288814
 0.105000   53.183811   -48.458879
 0.110000   52.938307   -49.727141
 0.115000   52.686540   -51.078275
 0.120000   52.427524   -52.191583
 0.125000   52.164624   -52.769792
 0.130000   51.899826   -52.808712
 0.135000   51.636537   -52.477808
 0.140000   51.375048   -51.725043
 0.145000   51.119287   -50.558307
 0.150000   50.869465   -49.307894
 0.155000   50.626208   -48.240859
 0.160000   50.387056   -47.344203
 0.165000   50.152766   -46.534668
 0.170000   49.921710   -46.010171
 0.175000   49.692664   -45.273886
 0.180000   49.468971   -44.914436
 0.185000   49.243520   -45.066036
 0.190000   49.018310   -45.189025
 0.195000   48.791629   -45.322478
 0.200000   48.565086   -45.480775
 0.205000   48.336822   -45.447131
 0.210000   48.110614   -45.709263
 0.215000   47.879729   -46.513259
 0.220000   47.645482   -46.968521
 0.225000   47.410044   -47.256119
 0.230000   47.172921   -47.652600
 0.235000   46.933518   -48.195408
 0.240000   46.690966   -49.031611
 0.245000   46.443202   -49.720249
 0.250000   46.193764   -50.014095
 0.255000   45.943061   -50.157442
 0.260000   45.692190   -50.018096
 0.265000   45.442880   -49.907940
 0.270000   45.193110   -49.180519
 0.275000   44.951074   -47.462055
 0.280000   44.718490   -45.820723
 0.285000   44.492867   -44.286691
 0.290000   44.275623   -42.699240
 0.295000   44.065875   -41.228195
 0.300000   43.863341   -39.750711
 0.305000   43.668368   -38.461303
 0.310000   43.478728   -37.520565
 0.315000   43.293162   -36.770840
 0.320000   43.111019   -36.340357
 0.325000   42.929758   -36.343526
 0.330000   42.747584   -37.120645
 0.335000   42.558552   -38.908614
 0.340000   42.358498   -40.773982
 0.345000   42.150812   -42.197226
 0.350000   41.936526   -43.346085
 0.355000   41.717351   -44.353316
 0.360000   41.492992   -45.388679
 0.365000   41.263465   -45.929769
 0.370000   41.033695   -45.983930
 0.375000   40.803625   -45.934809
 0.380000   40.574347   -45.656681
 0.385000   40.347058   -45.410816
 0.390000   40.120239   -45.262444
 0.395000   39.894434   -44.283506
 0.400000   39.677403   -42.924405
 0.405000   39.465190   -42.075612
 0.410000   39.256647   -41.329727
 0.415000   39.051893   -40.634063
 0.420000   38.850307   -40.012266
 0.425000   38.651770   -40.444015
 0.430000   38.445867   -42.312690
 0.435000   38.228643   -45.343806
 0.440000   37.992429   -50.191448
 0.445000   37.726729   -56.074804
 0.450000   37.431680   -61.706022
 0.455000   37.109668   -67.867162
 0.460000   36.753009   -74.252401
 0.465000   36.367144   -79.846691
 0.470000   35.954542   -84.443398
 0.475000   35.522710   -87.017829
 0.480000   35.084364   -87.277150
 0.485000   34.649939   -85.879478
 0.490000   34.225569   -82.872962
 0.495000   33.821209   -77.917523
 0.500000   33.446394   -71.224196
 0.505000   33.108967   -63.791642
 0.510000   32.808477   -56.535484
 0.515000   32.543613   -49.685034
 0.520000   32.311627   -43.560334
 0.525000   32.108009   -38.279482
 0.530000   31.928832   -34.311440
 0.535000   31.764895   -31.958045
 0.540000   31.609252   -30.842089
 0.545000   31.456474   -30.670067
 0.550000   31.302551   -31.059655
 0.555000   31.145877   -31.851319
 0.560000   30.984038   -33.020213
 0.565000   30.815675   -34.320881
 0.570000   30.640829   -35.728859
 0.575000   30.458387   -37.332336
 0.580000   30.267506   -39.265157
 0.585000   30.065735   -41.570138
 0.590000   29.851804   -44.184328
 0.595000   29.623892   -47.143369
 0.600000   29.380371   -50.455712
 0.605000   29.119335   -54.070232
 0.610000   28.839668   -57.985785
 0.615000   28.539477   -62.302125
 0.620000   28.216647   -66.655965
 0.625000   27.872917   -70.866205
 0.630000   27.507985   -75.073200
 0.635000   27.122185   -79.097646
 0.640000   26.717008   -82.699658
 0.645000   26.295189   -85.746619
 0.650000   25.859542   -88.041542
 0.655000   25.414773   -89.760082
 0.660000   24.961941   -91.319941
 0.665000   24.501574   -92.927868
 0.670000   24.032663   -94.427404
 0.675000   23.557300   -95.907403
 0.680000   23.073589   -97.912622
 0.685000   22.578174   -100.602359
 0.690000   22.067565   -103.878844
 0.695000   21.539385   -107.573018
 0.700000   20.991835   -109.478408
 0.705000   20.444601   -109.567632
 0.710000   19.896159   -109.223285
 0.715000   19.352368   -107.803141
 0.720000   18.818127   -105.607465
 0.725000   18.296294   -103.166302
 0.730000   17.786464   -99.027457
 0.735000   17.306019   -93.826527
 0.740000   16.848199   -89.093690
 0.745000   16.415082   -83.971354
 0.750000   16.008485   -78.556950
 0.755000   15.629513   -72.219709
 0.760000   15.286288   -66.014235
 0.765000   14.969370   -60.680113
 0.770000   14.679487   -55.519746
 0.775000   14.414173   -51.044927
 0.780000   14.169038   -47.290742
 0.785000   13.941265   -43.207320
 0.790000   13.736965   -41.261979
 0.795000   13.528645   -41.950033
 0.800000   13.317464   -43.033995
 0.805000   13.098306   -45.370006
 0.810000   12.863764   -49.112999
 0.815000   12.607176   -54.739898
 0.820000   12.316365   -62.435805
 0.825000   11.982818   -70.603798
 0.830000   11.610327   -79.072276
 0.835000   11.192095   -88.884789
 0.840000   10.721479   -99.608456
 0.845000   10.196010   -110.909986
 0.850000   9.612380   -122.058979
 0.855000   8.975420   -132.084354
 0.860000   8.291536   -141.008332
 0.865000   7.565337   -149.334728
 0.870000   6.798189   -157.441972
 0.875000   5.990917   -166.835232
 0.880000   5.129836   -177.680570
 0.885000   4.214112   -188.324677
 0.890000   3.246590   -199.766069
 0.895000   2.216451   -212.614048
 0.900000   1.120449   -224.328463
 0.905000   -0.026834   -235.395944
 0.910000   -1.233510   -243.873800
 0.915000   -2.465572   -241.990557
 0.920000   -3.653416   -231.255856
 0.925000   -4.778130   -214.006504
 0.930000   -5.793481   -188.400063
 0.935000   -6.662131   -157.059802
 0.940000   -7.364079   -119.589307
 0.945000   -7.858024   -69.647480
 0.950000   -8.060554   -23.674456
 0.955000   -8.094768   -5.083478
 0.960000   -8.111388   -27.328727
 0.965000   -8.368056   -113.768150
 0.970000   -9.249070   -268.555616
 0.975000   -11.053612   -401.576202
 0.980000   -13.264832   -364.781787
 0.985000   -14.701430   -15.474948
 0.990000   -13.419581   640.646377
 0.995000   -8.294966   1242.045101
 1.000000   -0.999130   1676.289131
201 psinorm er(kV/m) der/dpsiN
 0.000000   0.529197   1185.585110
 0.005000   5.226739   693.431822
 0.010000   7.463515   395.500234
 0.015000   9.181741   318.530961
 0.020000   10.648824   274.959921
 0.025000   11.931340   244.098338
 0.030000   13.089808   221.522139
 0.035000   14.146562   202.973142
 0.040000   15.119539   187.542266
 0.045000   16.021985   174.571383
 0.050000   16.865253   163.203249
 0.055000   17.654017   152.413040
 0.060000   18.389383   141.186990
 0.065000   19.065887   133.844412
 0.070000   19.727828   129.368282
 0.075000   20.359570   120.245800
 0.080000   20.930286   114.132115
 0.085000   21.500891   112.160150
 0.090000   22.051887   102.364517
 0.095000   22.524536   99.284351
 0.100000   23.044731   95.439915
 0.105000   23.478935   89.297201
 0.110000   23.937703   86.351247
 0.115000   24.342448   80.223817
 0.120000   24.739941   77.316444
 0.125000   25.115612   72.548276
 0.130000   25.465424   69.653012
 0.135000   25.812142   66.704924
 0.140000   26.132473   63.445751
 0.145000   26.446600   62.259024
 0.150000   26.755063   58.507290
 0.155000   27.031673   58.308617
 0.160000   27.338149   53.949734
 0.165000   27.571170   54.703304
 0.170000   27.885182   49.573105
 0.175000   28.066901   48.047506
 0.180000   28.365657   48.909788
 0.185000   28.555999   42.759264
 0.190000   28.793250   45.727644
 0.195000   29.013275   38.472703
 0.200000   29.177977   40.408394
 0.205000   29.417359   35.627729
 0.210000   29.534254   31.922301
 0.215000   29.736582   36.286287
 0.220000   29.897117   27.756845
 0.225000   30.014151   29.735540
 0.230000   30.194473   26.168848
 0.235000   30.275839   21.514475
 0.240000   30.409617   26.245566
 0.245000   30.538295   17.707975
 0.250000   30.586697   17.031506
 0.255000   30.708610   19.679671
 0.260000   30.783494   12.743167
 0.265000   30.836042   15.015934
 0.270000   30.933653   13.481103
 0.275000   30.970853   10.159622
 0.280000   31.035249   15.522739
 0.285000   31.126080   11.265239
 0.290000   31.147902   9.639703
 0.295000   31.222477   15.944600
 0.300000   31.307348   10.075832
 0.305000   31.323235   9.319955
 0.310000   31.400547   15.026389
 0.315000   31.473499   9.111578
 0.320000   31.491663   8.250883
 0.325000   31.556008   12.073072
 0.330000   31.612394   6.028454
 0.335000   31.616293   3.628342
 0.340000   31.648677   5.396729
 0.345000   31.670260   -0.454043
 0.350000   31.644137   -2.531670
 0.355000   31.644943   -0.480140
 0.360000   31.639335   -5.424490
 0.365000   31.590698   -7.278233
 0.370000   31.566553   -5.012531
 0.375000   31.540573   -8.008528
 0.380000   31.486468   -9.475678
 0.385000   31.445816   -7.898725
 0.390000   31.407480   -9.503381
 0.395000   31.350782   -10.643124
 0.400000   31.301049   -9.031797
 0.405000   31.260464   -8.884607
 0.410000   31.212203   -10.355560
 0.415000   31.156909   -10.005779
 0.420000   31.112145   -9.208271
 0.425000   31.064826   -11.524917
 0.430000   30.996896   -13.703539
 0.435000   30.927791   -15.503229
 0.440000   30.841864   -21.175512
 0.445000   30.716036   -27.029028
 0.450000   30.571574   -31.205124
 0.455000   30.403984   -37.234041
 0.460000   30.199233   -43.852001
 0.465000   29.965464   -48.791508
 0.470000   29.711318   -52.845344
 0.475000   29.437011   -56.443836
 0.480000   29.146880   -57.425782
 0.485000   28.862753   -56.162759
 0.490000   28.585252   -54.909684
 0.495000   28.313656   -51.732426
 0.500000   28.067928   -46.058304
 0.505000   27.853073   -40.335761
 0.510000   27.664570   -35.343314
 0.515000   27.499640   -29.904049
 0.520000   27.365530   -24.521169
 0.525000   27.254428   -21.148103
 0.530000   27.154049   -18.326970
 0.535000   27.071159   -15.903172
 0.540000   26.995017   -15.526615
 0.545000   26.915893   -16.225027
 0.550000   26.832767   -16.568534
 0.555000   26.750207   -17.072907
 0.560000   26.662038   -19.130513
 0.565000   26.558902   -20.648814
 0.570000   26.455550   -21.356940
 0.575000   26.345333   -23.366075
 0.580000   26.221889   -25.833767
 0.585000   26.086995   -27.733886
 0.590000   25.944550   -29.815261
 0.595000   25.788842   -33.482450
 0.600000   25.609725   -36.734689
 0.605000   25.421496   -39.325508
 0.610000   25.216470   -43.342029
 0.615000   24.988075   -47.945860
 0.620000   24.737012   -51.699883
 0.625000   24.471076   -55.120198
 0.630000   24.185810   -59.937939
 0.635000   23.871697   -63.904076
 0.640000   23.546769   -66.510502
 0.645000   23.206592   -69.681393
 0.650000   22.849955   -72.587377
 0.655000   22.480718   -74.140500
 0.660000   22.108550   -75.188229
 0.665000   21.728836   -77.519777
 0.670000   21.333352   -79.356674
 0.675000   20.935269   -80.273201
 0.680000   20.530620   -82.221811
 0.685000   20.113051   -85.576618
 0.690000   19.674854   -88.645277
 0.695000   19.226598   -91.469340
 0.700000   18.760161   -93.850048
 0.705000   18.288098   -94.597604
 0.710000   17.814185   -94.079796
 0.715000   17.347300   -92.611000
 0.720000   16.888075   -91.695509
 0.725000   16.430345   -89.825466
 0.730000   15.989820   -85.474342
 0.735000   15.575601   -81.138729
 0.740000   15.178433   -77.754436
 0.745000   14.798057   -73.105843
 0.750000   14.447374   -67.706329
 0.755000   14.120994   -62.657809
 0.760000   13.820796   -57.581143
 0.765000   13.545182   -52.394105
 0.770000   13.296855   -47.489954
 0.775000   13.070283   -44.292469
 0.780000   12.853931   -41.095643
 0.785000   12.659326   -36.787489
 0.790000   12.486056   -35.227964
 0.795000   12.307047   -36.490933
 0.800000   12.121146   -37.473121
 0.805000   11.932315   -39.202088
 0.810000   11.729125   -43.000050
 0.815000   11.502315   -48.571493
 0.820000   11.243410   -55.473408
 0.825000   10.947581   -62.763824
 0.830000   10.615772   -71.046111
 0.835000   10.237120   -80.320544
 0.840000   9.812567   -89.904661
 0.845000   9.338073   -100.331078
 0.850000   8.809256   -111.098929
 0.855000   8.227084   -120.469604
 0.860000   7.604560   -128.439063
 0.865000   6.942693   -136.329899
 0.870000   6.241261   -144.195890
 0.875000   5.500734   -152.891456
 0.880000   4.712346   -162.737413
 0.885000   3.873360   -172.805551
 0.890000   2.984291   -183.568963
 0.895000   2.037671   -195.342089
 0.900000   1.030870   -206.118030
 0.905000   -0.023510   -216.572675
 0.910000   -1.134857   -224.426915
 0.915000   -2.267779   -222.534656
 0.920000   -3.360203   -212.906742
 0.925000   -4.396846   -198.056409
 0.930000   -5.340767   -174.669100
 0.935000   -6.143537   -145.236066
 0.940000   -6.793128   -113.107762
 0.945000   -7.274615   -70.057640
 0.950000   -7.493704   -24.868941
 0.955000   -7.523304   -4.180820
 0.960000   -7.535513   -34.688605
 0.965000   -7.870190   -121.397165
 0.970000   -8.749484   -258.090891
 0.975000   -10.451099   -378.916441
 0.980000   -12.538649   -351.427408
 0.985000   -13.965373   -23.475476
 0.990000   -12.773403   603.597282
 0.995000   -7.929401   1174.856544
 1.000000   -1.024838   1586.968471
201 psinorm ommvb() dommvb/dpsiN
 0.000000   5.438207   20943.179121
 0.005000   94.644948   14739.517133
 0.010000   152.833379   11103.664792
 0.015000   205.681596   9684.559703
 0.020000   249.678976   8127.298101
 0.025000   286.954577   6782.379662
 0.030000   317.502772   5721.366137
 0.035000   344.168238   4955.425914
 0.040000   367.057031   4250.958347
 0.045000   386.677822   3666.488061
 0.050000   403.721912   3195.990523
 0.055000   418.637727   2735.273885
 0.060000   431.074651   2346.908503
 0.065000   442.106812   2030.725572
 0.070000   451.381907   1735.509091
 0.075000   459.461903   1539.613856
 0.080000   466.778045   1276.463780
 0.085000   472.226541   887.172179
 0.090000   475.649767   664.350346
 0.095000   478.870044   550.978126
 0.100000   481.159548   322.306053
 0.105000   482.093105   -49.469092
 0.110000   480.664857   -210.632198
 0.115000   479.986783   -189.656536
 0.120000   478.768292   -326.651023
 0.125000   476.720272   -483.510028
 0.130000   473.933192   -622.673690
 0.135000   470.493536   -760.713556
 0.140000   466.326056   -889.161435
 0.145000   461.601921   -997.043725
 0.150000   456.355619   -1099.434803
 0.155000   450.607573   -1185.784390
 0.160000   444.497775   -1261.457838
 0.165000   437.992995   -1333.846444
 0.170000   431.159311   -1395.797727
 0.175000   424.035018   -1416.682843
 0.180000   416.992482   -1428.334617
 0.185000   409.751671   -1484.103982
 0.190000   402.151442   -1536.562881
 0.195000   394.386043   -1559.708542
 0.200000   386.554357   -1571.255034
 0.205000   378.673492   -1571.765606
 0.210000   370.836701   -1560.997076
 0.215000   363.063521   -1547.634530
 0.220000   355.360355   -1677.206913
 0.225000   346.291452   -1730.110734
 0.230000   338.059248   -1545.125429
 0.235000   330.840198   -1419.011507
 0.240000   323.869133   -1373.542671
 0.245000   317.104771   -1332.416081
 0.250000   310.544972   -1288.194251
 0.255000   304.222829   -1365.515816
 0.260000   296.889814   -1390.305805
 0.265000   290.319771   -1196.602207
 0.270000   284.923792   -1058.520158
 0.275000   279.734569   -1015.642651
 0.280000   274.767366   -962.869216
 0.285000   270.105877   -1069.321751
 0.290000   264.074148   -1026.084554
 0.295000   259.845031   -793.548743
 0.300000   256.138661   -720.953613
 0.305000   252.635495   -679.951096
 0.310000   249.339150   -765.250766
 0.315000   244.982988   -742.683462
 0.320000   241.912315   -555.406345
 0.325000   239.428924   -476.690079
 0.330000   237.145414   -442.055705
 0.335000   235.008367   -538.371540
 0.340000   231.761699   -495.275886
 0.345000   230.055608   -329.004819
 0.350000   228.471651   -305.837878
 0.355000   226.997230   -357.256653
 0.360000   224.899084   -366.156123
 0.365000   223.335668   -258.589885
 0.370000   222.313185   -197.790243
 0.375000   221.357766   -219.621296
 0.380000   220.116972   -258.880673
 0.385000   218.768959   -202.838071
 0.390000   218.088592   -131.086440
 0.395000   217.458095   -138.326194
 0.400000   216.705330   -187.006103
 0.405000   215.588034   -148.374394
 0.410000   215.221586   -70.672897
 0.415000   214.881305   -81.859738
 0.420000   214.402988   -139.503199
 0.425000   213.486273   -114.778792
 0.430000   213.255200   -47.066463
 0.435000   213.015608   -68.678996
 0.440000   212.568410   -131.416974
 0.445000   211.701438   -112.764855
 0.450000   211.440762   -49.160280
 0.455000   211.209836   -61.728430
 0.460000   210.823478   -124.936107
 0.465000   209.960475   -119.847880
 0.470000   209.624999   -69.183290
 0.475000   209.268642   -105.378984
 0.480000   208.571209   -144.652055
 0.485000   207.822121   -103.649779
 0.490000   207.534711   -55.418065
 0.495000   207.267940   -91.262734
 0.500000   206.622084   -109.307447
 0.505000   206.174866   -52.622261
 0.510000   206.095861   -11.577745
 0.515000   206.059089   -50.080360
 0.520000   205.595058   -61.395445
 0.525000   205.445134   -3.982578
 0.530000   205.555232   26.040659
 0.535000   205.705541   -11.447251
 0.540000   205.440759   -5.116671
 0.545000   205.654374   55.155681
 0.550000   205.992316   69.840993
 0.555000   206.352784   29.103963
 0.560000   206.283356   38.021304
 0.565000   206.732997   94.805280
 0.570000   207.231409   101.422776
 0.575000   207.747225   67.635049
 0.580000   207.907759   80.819038
 0.585000   208.555415   132.865827
 0.590000   209.236417   139.331411
 0.595000   209.948729   116.891468
 0.600000   210.405332   131.039952
 0.605000   211.259129   179.001139
 0.610000   212.195343   195.835649
 0.615000   213.217485   200.685266
 0.620000   214.202196   232.626553
 0.625000   215.543751   277.365701
 0.630000   216.975853   296.251959
 0.635000   218.506270   331.408256
 0.640000   220.289936   379.307160
 0.645000   222.299342   412.522485
 0.650000   224.415160   437.819539
 0.655000   226.677537   488.208977
 0.660000   229.297250   546.467117
 0.665000   232.142208   571.234053
 0.670000   235.009591   588.470127
 0.675000   238.026910   625.590733
 0.680000   241.265498   697.050358
 0.685000   244.997413   726.199115
 0.690000   248.527489   723.502270
 0.695000   252.232436   761.094260
 0.700000   256.138432   845.046195
 0.705000   260.682898   925.529350
 0.710000   265.393725   951.348285
 0.715000   270.196381   990.148176
 0.720000   275.295207   1050.017409
 0.725000   280.696555   1174.028970
 0.730000   287.035497   1248.727059
 0.735000   293.183825   1256.238085
 0.740000   299.597878   1318.438433
 0.745000   306.368210   1389.610948
 0.750000   313.493987   1515.052346
 0.755000   321.518733   1589.700493
 0.760000   329.390992   1600.814125
 0.765000   337.526875   1664.286487
 0.770000   346.033857   1739.606850
 0.775000   354.922943   1837.929737
 0.780000   364.413154   1931.334808
 0.785000   374.236291   1988.322267
 0.790000   384.296377   2061.024335
 0.795000   394.846534   2163.154530
 0.800000   405.927922   2270.200688
 0.805000   417.548541   2386.829794
 0.810000   429.796220   2492.207527
 0.815000   442.470617   2589.487648
 0.820000   455.691097   2705.831128
 0.825000   469.528928   2836.224676
 0.830000   484.053343   2977.122569
 0.835000   499.300154   3121.359876
 0.840000   515.266942   3222.240531
 0.845000   531.522559   3364.178961
 0.850000   548.908732   3575.867465
 0.855000   567.281234   3790.438547
 0.860000   586.813117   4081.552586
 0.865000   608.096759   4504.107624
 0.870000   631.854194   5047.811721
 0.875000   658.574877   5658.033318
 0.880000   688.434527   6305.306743
 0.885000   721.627944   6995.783979
 0.890000   758.392367   7849.274700
 0.895000   800.120691   8803.360744
 0.900000   846.425974   9743.293356
 0.905000   897.553625   10737.180660
 0.910000   953.797781   11699.692790
 0.915000   1014.550552   12483.713767
 0.920000   1078.634918   13076.192751
 0.925000   1145.312480   13682.400348
 0.930000   1215.458922   14755.505047
 0.935000   1292.867530   17216.423469
 0.940000   1387.623156   22615.395994
 0.945000   1519.021490   32750.050214
 0.950000   1715.123659   48238.045002
 0.955000   2001.401940   66655.240733
 0.960000   2381.676066   83838.451305
 0.965000   2839.786453   95805.251594
 0.970000   3339.728582   98472.575083
 0.975000   3824.512204   89459.853904
 0.980000   4234.327121   75278.588574
 0.985000   4577.298090   51007.199427
 0.990000   4744.399115   3345.950230
 0.995000   4610.757592   144390.302730
 1.000000   6188.302142   486627.517304
201 psinorm ommpp() dommpp/dpsiN
 0.000000   50.189432   -20798.836980
 0.005000   -38.519350   -14684.675867
 0.010000   -96.657326   -11097.470213
 0.015000   -149.494052   -9684.247808
 0.020000   -193.499805   -8130.912073
 0.025000   -230.803173   -6790.484109
 0.030000   -261.404646   -5735.084912
 0.035000   -288.154022   -4974.921027
 0.040000   -311.153856   -4276.044766
 0.045000   -330.914470   -3696.967133
 0.050000   -348.123527   -3231.111343
 0.055000   -363.225583   -2774.067067
 0.060000   -375.864198   -2388.265537
 0.065000   -387.108238   -2073.765536
 0.070000   -396.601853   -1779.493779
 0.075000   -404.903176   -1584.065501
 0.080000   -412.442508   -1321.239238
 0.085000   -418.115568   -932.144294
 0.090000   -421.763951   -709.777621
 0.095000   -425.213345   -597.270158
 0.100000   -427.736653   -369.594867
 0.105000   -428.909293   1.010214
 0.110000   -427.726551   160.905058
 0.115000   -427.300243   138.578261
 0.120000   -426.340768   274.459440
 0.125000   -424.555648   430.740236
 0.130000   -422.033366   569.864979
 0.135000   -418.856999   708.235748
 0.140000   -414.951008   837.436392
 0.145000   -410.482635   946.485418
 0.150000   -405.486154   1050.126910
 0.155000   -399.981366   1137.543530
 0.160000   -394.110719   1214.113635
 0.165000   -387.840229   1287.311777
 0.170000   -381.237601   1349.787556
 0.175000   -374.342354   1371.408957
 0.180000   -367.523511   1383.420181
 0.185000   -360.508152   1439.037946
 0.190000   -353.133132   1491.373856
 0.195000   -345.594413   1514.386064
 0.200000   -337.989271   1525.774259
 0.205000   -330.336671   1526.318475
 0.210000   -322.726086   1515.287813
 0.215000   -315.183793   1501.121270
 0.220000   -307.714874   1630.238392
 0.225000   -298.881409   1682.854615
 0.230000   -290.886328   1497.472829
 0.235000   -283.906680   1370.816099
 0.240000   -277.178167   1324.511060
 0.245000   -270.661570   1282.695832
 0.250000   -264.351208   1238.180156
 0.255000   -258.279768   1315.358374
 0.260000   -251.197625   1340.287709
 0.265000   -244.876891   1146.694267
 0.270000   -239.730682   1009.339639
 0.275000   -234.783495   968.180596
 0.280000   -230.048876   917.048492
 0.285000   -225.613010   1025.035060
 0.290000   -219.798525   983.385313
 0.295000   -215.779157   752.320548
 0.300000   -212.275320   681.202903
 0.305000   -208.967128   641.489793
 0.310000   -205.860422   727.730201
 0.315000   -201.689826   705.912622
 0.320000   -198.801296   519.065988
 0.325000   -196.499166   440.346553
 0.330000   -194.397830   404.935060
 0.335000   -192.449815   499.462926
 0.340000   -189.403201   454.501905
 0.345000   -187.904796   286.807592
 0.350000   -186.535125   262.491793
 0.355000   -185.279878   312.903338
 0.360000   -183.406092   320.767444
 0.365000   -182.072204   212.660116
 0.370000   -181.279490   151.806313
 0.375000   -180.554141   173.686488
 0.380000   -179.542626   213.223992
 0.385000   -178.421901   157.427255
 0.390000   -177.968353   85.823996
 0.395000   -177.563661   94.042688
 0.400000   -177.027926   144.081698
 0.405000   -176.122844   106.298782
 0.410000   -175.964938   29.343169
 0.415000   -175.829412   41.225676
 0.420000   -175.552682   99.490933
 0.425000   -174.834503   74.334777
 0.430000   -174.809334   4.753774
 0.435000   -174.786965   23.335190
 0.440000   -174.575982   81.225526
 0.445000   -173.974710   56.690051
 0.450000   -174.009081   -12.545742
 0.455000   -174.100167   -6.138732
 0.460000   -174.070469   50.683706
 0.465000   -173.593330   40.001189
 0.470000   -173.670457   -15.260108
 0.475000   -173.745931   18.361154
 0.480000   -173.486845   57.374905
 0.485000   -173.172182   17.770302
 0.490000   -173.309142   -27.454897
 0.495000   -173.446731   13.345211
 0.500000   -173.175690   38.083251
 0.505000   -173.065899   -11.169381
 0.510000   -173.287384   -44.957739
 0.515000   -173.515476   0.395326
 0.520000   -173.283431   17.835111
 0.525000   -173.337125   -34.296904
 0.530000   -173.626400   -60.352099
 0.535000   -173.940646   -20.510795
 0.540000   -173.831508   -25.725418
 0.545000   -174.197900   -85.825748
 0.550000   -174.689765   -100.900649
 0.555000   -175.206906   -60.955282
 0.560000   -175.299318   -71.041517
 0.565000   -175.917322   -129.126162
 0.570000   -176.590580   -137.151635
 0.575000   -177.288838   -104.967385
 0.580000   -177.640253   -120.084195
 0.585000   -178.489680   -174.435966
 0.590000   -179.384613   -183.515739
 0.595000   -180.324837   -164.034837
 0.600000   -181.024961   -181.495664
 0.605000   -182.139794   -233.071370
 0.610000   -183.355675   -253.821434
 0.615000   -184.678008   -262.987391
 0.620000   -185.985549   -299.282518
 0.625000   -187.670834   -348.231906
 0.630000   -189.467868   -371.325159
 0.635000   -191.384085   -410.505902
 0.640000   -193.572927   -462.006818
 0.645000   -196.004153   -498.269105
 0.650000   -198.555618   -525.861081
 0.655000   -201.262764   -577.969060
 0.660000   -204.335309   -637.787057
 0.665000   -207.640635   -664.161921
 0.670000   -210.976928   -682.897532
 0.675000   -214.469610   -721.498136
 0.680000   -218.191909   -794.962980
 0.685000   -222.419240   -826.801474
 0.690000   -226.459924   -827.381113
 0.695000   -230.693051   -868.667278
 0.700000   -235.146597   -954.524603
 0.705000   -240.238297   -1035.096982
 0.710000   -245.497567   -1060.571570
 0.715000   -250.844013   -1097.951317
 0.720000   -256.477080   -1155.624874
 0.725000   -262.400261   -1277.195272
 0.730000   -269.249033   -1347.754516
 0.735000   -275.877807   -1350.064613
 0.740000   -282.749679   -1407.532123
 0.745000   -289.953128   -1473.582302
 0.750000   -297.485502   -1593.609296
 0.755000   -305.889221   -1661.920202
 0.760000   -314.104704   -1666.828360
 0.765000   -322.557504   -1724.966600
 0.770000   -331.354370   -1795.126597
 0.775000   -340.508770   -1888.974664
 0.780000   -350.244116   -1978.625550
 0.785000   -360.295026   -2031.529587
 0.790000   -370.559412   -2102.286314
 0.795000   -381.317889   -2205.104562
 0.800000   -392.610458   -2313.234682
 0.805000   -404.450236   -2432.199799
 0.810000   -416.932456   -2541.320526
 0.815000   -429.863441   -2644.227546
 0.820000   -443.374731   -2768.266933
 0.825000   -457.546110   -2906.828475
 0.830000   -472.443016   -3056.194845
 0.835000   -488.108059   -3210.244665
 0.840000   -504.545463   -3321.848987
 0.845000   -521.326549   -3475.088947
 0.850000   -539.296352   -3697.926444
 0.855000   -558.305813   -3922.522901
 0.860000   -578.521581   -4222.560918
 0.865000   -600.531422   -4653.442352
 0.870000   -625.056005   -5205.253692
 0.875000   -652.583959   -5824.868551
 0.880000   -683.304690   -6482.987313
 0.885000   -717.413832   -7184.108656
 0.890000   -755.145777   -8049.040769
 0.895000   -797.904240   -9015.974792
 0.900000   -845.305525   -9967.621819
 0.905000   -897.580458   -10972.576604
 0.910000   -955.031291   -11943.566590
 0.915000   -1017.016124   -12725.704324
 0.920000   -1082.288334   -13307.448607
 0.925000   -1150.090610   -13896.406852
 0.930000   -1221.252403   -14943.905110
 0.935000   -1299.529661   -17373.483272
 0.940000   -1394.987235   -22734.985301
 0.945000   -1526.879514   -32819.697694
 0.950000   -1723.184212   -48261.719458
 0.955000   -2009.496709   -66660.324211
 0.960000   -2389.787454   -83865.780032
 0.965000   -2848.154509   -95919.019743
 0.970000   -3348.977652   -98741.130699
 0.975000   -3835.565816   -89861.430106
 0.980000   -4247.591953   -75643.370361
 0.985000   -4591.999520   -51022.674375
 0.990000   -4757.818697   -2705.303853
 0.995000   -4619.052558   -143148.257629
 1.000000   -6189.301273   -484951.228173
201 psinorm omevb() domevb/dpsiN
 0.000000   32.437578   153.594452
 0.005000   32.989479   67.165845
 0.010000   33.109236   20.103542
 0.015000   33.190514   14.316755
 0.020000   33.252404   10.485575
 0.025000   33.295370   6.088574
 0.030000   33.313290   0.566503
 0.035000   33.301035   -5.118798
 0.040000   33.262102   -10.620290
 0.045000   33.194832   -15.924356
 0.050000   33.102858   -20.478745
 0.055000   32.990044   -24.064980
 0.060000   32.862208   -26.543939
 0.065000   32.724605   -28.143213
 0.070000   32.580776   -29.005519
 0.075000   32.434550   -29.391300
 0.080000   32.286863   -29.635179
 0.085000   32.138198   -29.753146
 0.090000   31.989332   -30.130863
 0.095000   31.836889   -30.919423
 0.100000   31.680137   -31.841257
 0.105000   31.518477   -32.937624
 0.110000   31.350761   -34.133439
 0.115000   31.177142   -35.413378
 0.120000   30.996627   -36.456742
 0.125000   30.812575   -36.966261
 0.130000   30.626965   -36.937744
 0.135000   30.443198   -36.540657
 0.140000   30.261558   -35.722962
 0.145000   30.085968   -34.492550
 0.150000   29.916633   -33.179714
 0.155000   29.754171   -32.051509
 0.160000   29.596118   -31.094935
 0.165000   29.443221   -30.226734
 0.170000   29.293850   -29.644822
 0.175000   29.146773   -28.852373
 0.180000   29.005326   -28.438008
 0.185000   28.862393   -28.535940
 0.190000   28.719967   -28.606509
 0.195000   28.576328   -28.688786
 0.200000   28.433079   -28.797151
 0.205000   28.288357   -28.714816
 0.210000   28.145931   -28.929498
 0.215000   27.999062   -29.687282
 0.220000   27.849058   -30.097567
 0.225000   27.698086   -30.341422
 0.230000   27.545644   -30.695391
 0.235000   27.391132   -31.196915
 0.240000   27.233675   -31.993060
 0.245000   27.071201   -32.642863
 0.250000   26.907246   -32.899095
 0.255000   26.742210   -33.006044
 0.260000   26.577186   -32.831515
 0.265000   26.413895   -32.687386
 0.270000   26.250312   -31.927200
 0.275000   26.094623   -30.177173
 0.280000   25.948540   -28.505479
 0.285000   25.809568   -26.942282
 0.290000   25.679117   -25.326858
 0.295000   25.556300   -23.829027
 0.300000   25.440827   -22.325943
 0.305000   25.333040   -21.012114
 0.310000   25.230706   -20.048131
 0.315000   25.132559   -19.276332
 0.320000   25.037943   -18.824942
 0.325000   24.944310   -18.808366
 0.330000   24.849859   -19.566897
 0.335000   24.748641   -21.337430
 0.340000   24.636485   -23.186509
 0.345000   24.516776   -24.594607
 0.350000   24.390539   -25.729456
 0.355000   24.259481   -26.723809
 0.360000   24.123301   -27.747421
 0.365000   23.982007   -28.277880
 0.370000   23.840522   -28.322525
 0.375000   23.698782   -28.264998
 0.380000   23.557872   -27.979567
 0.385000   23.418986   -27.727497
 0.390000   23.280597   -27.574012
 0.395000   23.143246   -26.591047
 0.400000   23.014686   -25.228998
 0.405000   22.890956   -24.378331
 0.410000   22.770903   -23.631639
 0.415000   22.654639   -22.936227
 0.420000   22.541541   -22.315738
 0.425000   22.431482   -22.749842
 0.430000   22.314042   -24.621913
 0.435000   22.185263   -27.657459
 0.440000   22.037468   -32.510558
 0.445000   21.860157   -38.400392
 0.450000   21.653464   -44.039102
 0.455000   21.419766   -50.208740
 0.460000   21.151376   -56.603476
 0.465000   20.853732   -62.208256
 0.470000   20.529294   -66.816437
 0.475000   20.185567   -69.403321
 0.480000   19.835261   -69.676064
 0.485000   19.488807   -68.292778
 0.490000   19.152333   -65.301603
 0.495000   18.835791   -60.362452
 0.500000   18.548708   -53.686354
 0.505000   18.298927   -46.271961
 0.510000   18.085989   -39.034889
 0.515000   17.908578   -32.204442
 0.520000   17.763944   -26.100653
 0.525000   17.647572   -20.841612
 0.530000   17.555528   -16.896275
 0.535000   17.478609   -14.566470
 0.540000   17.409863   -13.474979
 0.545000   17.343859   -13.328291
 0.550000   17.276581   -13.744071
 0.555000   17.206418   -14.562778
 0.560000   17.130953   -15.759557
 0.565000   17.048823   -17.088943
 0.570000   16.960063   -18.526462
 0.575000   16.863558   -20.160293
 0.580000   16.758460   -22.124272
 0.585000   16.642315   -24.461205
 0.590000   16.513848   -27.108128
 0.595000   16.371234   -30.100672
 0.600000   16.212842   -33.447276
 0.605000   16.036761   -37.096800
 0.610000   15.841874   -41.048086
 0.615000   15.626281   -45.400869
 0.620000   15.387865   -49.791843
 0.625000   15.128362   -54.039887
 0.630000   14.847466   -58.285329
 0.635000   14.545509   -62.348834
 0.640000   14.223978   -65.990482
 0.645000   13.885604   -69.077612
 0.650000   13.533202   -71.413184
 0.655000   13.171472   -73.172790
 0.660000   12.801474   -74.774054
 0.665000   12.423732   -76.423629
 0.670000   12.037237   -77.964937
 0.675000   11.644082   -79.486685
 0.680000   11.242371   -81.533447
 0.685000   10.828748   -84.264294
 0.690000   10.399728   -87.581171
 0.695000   9.952936   -91.314667
 0.700000   9.486581   -93.257866
 0.705000   9.020357   -93.382833
 0.710000   8.552753   -93.071472
 0.715000   8.089643   -91.680692
 0.720000   7.635946   -89.509681
 0.725000   7.194546   -87.087134
 0.730000   6.765074   -82.959173
 0.735000   6.364954   -77.759294
 0.740000   5.987481   -73.015056
 0.745000   5.634804   -67.865607
 0.750000   5.308825   -62.404320
 0.755000   5.010760   -55.995387
 0.760000   4.748872   -49.687163
 0.765000   4.513889   -44.211493
 0.770000   4.306757   -38.861219
 0.775000   4.125277   -34.136344
 0.780000   3.965393   -30.057457
 0.785000   3.824702   -25.556912
 0.790000   3.709824   -23.080309
 0.795000   3.593899   -23.096527
 0.800000   3.478859   -23.336058
 0.805000   3.360538   -24.616461
 0.810000   3.232694   -27.046492
 0.815000   3.090073   -31.048240
 0.820000   2.922212   -36.742338
 0.825000   2.722650   -42.457009
 0.830000   2.497642   -47.935137
 0.835000   2.243299   -54.124703
 0.840000   1.956395   -60.489284
 0.845000   1.638406   -66.588559
 0.850000   1.290509   -71.589879
 0.855000   0.922507   -74.438832
 0.860000   0.546121   -75.116264
 0.865000   0.171344   -74.163014
 0.870000   -0.195509   -72.129244
 0.875000   -0.549948   -70.911921
 0.880000   -0.904629   -71.416110
 0.885000   -1.264109   -73.260461
 0.890000   -1.637233   -79.513577
 0.895000   -2.059245   -94.019937
 0.900000   -2.577433   -119.124953
 0.905000   -3.250494   -162.448788
 0.910000   -4.201920   -232.078610
 0.915000   -5.571281   -333.697963
 0.920000   -7.538900   -485.760532
 0.925000   -10.428886   -710.079977
 0.930000   -14.639700   -1024.188640
 0.935000   -20.670772   -1445.290229
 0.940000   -29.092602   -1976.454443
 0.945000   -40.435317   -2596.469667
 0.950000   -55.057299   -3276.947082
 0.955000   -73.204787   -3932.674803
 0.960000   -94.384047   -4317.861528
 0.965000   -116.383403   -3940.693877
 0.970000   -133.790986   -2193.001681
 0.975000   -138.313420   943.009007
 0.980000   -124.360896   4163.015740
 0.985000   -96.683262   5820.246737
 0.990000   -66.158428   5692.444344
 0.995000   -39.758819   4659.214502
 1.000000   -19.566283   3417.799721
201 psinorm omepp() domepp/dpsiN
 0.000000   23.190062   -9.252311
 0.005000   23.136120   -12.324579
 0.010000   23.066816   -13.908963
 0.015000   22.997030   -14.004860
 0.020000   22.926767   -14.099547
 0.025000   22.856034   -14.193021
 0.030000   22.784837   -14.285278
 0.035000   22.713182   -14.376315
 0.040000   22.641074   -14.466129
 0.045000   22.568520   -14.554716
 0.050000   22.495527   -14.642075
 0.055000   22.422100   -14.728202
 0.060000   22.348245   -14.813095
 0.065000   22.273969   -14.896751
 0.070000   22.199277   -14.979169
 0.075000   22.124177   -15.060345
 0.080000   22.048674   -15.140279
 0.085000   21.972774   -15.218969
 0.090000   21.896484   -15.296413
 0.095000   21.819810   -15.372609
 0.100000   21.742758   -15.447557
 0.105000   21.665335   -15.521255
 0.110000   21.587546   -15.593702
 0.115000   21.509398   -15.664897
 0.120000   21.430897   -15.734840
 0.125000   21.352049   -15.803530
 0.130000   21.272861   -15.870967
 0.135000   21.193339   -15.937151
 0.140000   21.113490   -16.002081
 0.145000   21.033319   -16.065757
 0.150000   20.952832   -16.128180
 0.155000   20.872037   -16.189350
 0.160000   20.790939   -16.249268
 0.165000   20.709544   -16.307934
 0.170000   20.627859   -16.365348
 0.175000   20.545891   -16.421513
 0.180000   20.463644   -16.476428
 0.185000   20.381126   -16.530096
 0.190000   20.298343   -16.582516
 0.195000   20.215301   -16.633692
 0.200000   20.132006   -16.683624
 0.205000   20.048465   -16.732314
 0.210000   19.964683   -16.779765
 0.215000   19.880667   -16.825977
 0.220000   19.796423   -16.870954
 0.225000   19.711958   -16.914697
 0.230000   19.627276   -16.957210
 0.235000   19.542386   -16.998493
 0.240000   19.457292   -17.038551
 0.245000   19.372000   -17.077386
 0.250000   19.286518   -17.115000
 0.255000   19.200850   -17.151398
 0.260000   19.115004   -17.186581
 0.265000   19.028984   -17.220554
 0.270000   18.942798   -17.253320
 0.275000   18.856451   -17.284882
 0.280000   18.769949   -17.315244
 0.285000   18.683299   -17.344409
 0.290000   18.596505   -17.372383
 0.295000   18.509575   -17.399167
 0.300000   18.422514   -17.424768
 0.305000   18.335327   -17.449189
 0.310000   18.248022   -17.472434
 0.315000   18.160603   -17.494508
 0.320000   18.073077   -17.515415
 0.325000   17.985449   -17.535160
 0.330000   17.897725   -17.553748
 0.335000   17.809911   -17.571184
 0.340000   17.722013   -17.587473
 0.345000   17.634037   -17.602619
 0.350000   17.545987   -17.616629
 0.355000   17.457870   -17.629506
 0.360000   17.369692   -17.641258
 0.365000   17.281458   -17.651889
 0.370000   17.193173   -17.661405
 0.375000   17.104844   -17.669811
 0.380000   17.016475   -17.677114
 0.385000   16.928072   -17.683319
 0.390000   16.839642   -17.688432
 0.395000   16.751188   -17.692459
 0.400000   16.662717   -17.695407
 0.405000   16.574234   -17.697281
 0.410000   16.485744   -17.698088
 0.415000   16.397253   -17.697835
 0.420000   16.308766   -17.696528
 0.425000   16.220288   -17.694173
 0.430000   16.131824   -17.690777
 0.435000   16.043380   -17.686347
 0.440000   15.954961   -17.680889
 0.445000   15.866571   -17.674412
 0.450000   15.778217   -17.666920
 0.455000   15.689902   -17.658422
 0.460000   15.601632   -17.648925
 0.465000   15.513413   -17.638435
 0.470000   15.425248   -17.626960
 0.475000   15.337143   -17.614508
 0.480000   15.249103   -17.601085
 0.485000   15.161132   -17.586700
 0.490000   15.073236   -17.571359
 0.495000   14.985419   -17.555070
 0.500000   14.897685   -17.537842
 0.505000   14.810040   -17.519681
 0.510000   14.722489   -17.500595
 0.515000   14.635034   -17.480593
 0.520000   14.547683   -17.459681
 0.525000   14.460438   -17.437869
 0.530000   14.373304   -17.415165
 0.535000   14.286286   -17.391575
 0.540000   14.199388   -17.367110
 0.545000   14.112615   -17.341777
 0.550000   14.025970   -17.315584
 0.555000   13.939459   -17.288541
 0.560000   13.853085   -17.260656
 0.565000   13.766852   -17.231938
 0.570000   13.680766   -17.202397
 0.575000   13.594828   -17.172043
 0.580000   13.509045   -17.140884
 0.585000   13.423420   -17.108933
 0.590000   13.337956   -17.076200
 0.595000   13.252658   -17.042697
 0.600000   13.167529   -17.008436
 0.605000   13.082573   -16.973432
 0.610000   12.997795   -16.937699
 0.615000   12.913196   -16.901256
 0.620000   12.828782   -16.864122
 0.625000   12.744555   -16.826318
 0.630000   12.660519   -16.787872
 0.635000   12.576676   -16.748812
 0.640000   12.493031   -16.709177
 0.645000   12.409585   -16.669008
 0.650000   12.326341   -16.628358
 0.655000   12.243301   -16.587292
 0.660000   12.160468   -16.545887
 0.665000   12.077842   -16.504239
 0.670000   11.995425   -16.462467
 0.675000   11.913217   -16.420718
 0.680000   11.831218   -16.379175
 0.685000   11.749426   -16.338065
 0.690000   11.667837   -16.297672
 0.695000   11.586449   -16.258350
 0.700000   11.505254   -16.220542
 0.705000   11.424244   -16.184799
 0.710000   11.343406   -16.151813
 0.715000   11.262725   -16.122449
 0.720000   11.182181   -16.097784
 0.725000   11.101748   -16.079168
 0.730000   11.021390   -16.068284
 0.735000   10.941065   -16.067233
 0.740000   10.860717   -16.078634
 0.745000   10.780278   -16.105747
 0.750000   10.699660   -16.152630
 0.755000   10.618752   -16.224322
 0.760000   10.537417   -16.327072
 0.765000   10.455481   -16.468620
 0.770000   10.372731   -16.658527
 0.775000   10.288896   -16.908583
 0.780000   10.203645   -17.233285
 0.785000   10.116563   -17.650408
 0.790000   10.027141   -18.181670
 0.795000   9.934747   -18.853506
 0.800000   9.838606   -19.697937
 0.805000   9.737767   -20.753544
 0.810000   9.631070   -22.066507
 0.815000   9.517102   -23.691659
 0.820000   9.394154   -25.693467
 0.825000   9.260167   -28.146789
 0.830000   9.112686   -31.137139
 0.835000   8.948796   -34.760086
 0.840000   8.765085   -39.119172
 0.845000   8.557604   -44.321427
 0.850000   8.321871   -50.469099
 0.855000   8.052913   -57.645522
 0.860000   7.745415   -65.892068
 0.865000   7.393993   -75.171714
 0.870000   6.993698   -85.312728
 0.875000   6.540865   -95.923311
 0.880000   6.034465   -106.264460
 0.885000   5.478221   -115.064216
 0.890000   4.883823   -120.252491
 0.895000   4.275696   -118.594111
 0.900000   3.697882   -105.203510
 0.905000   3.223661   -72.947156
 0.910000   2.968410   -11.795190
 0.915000   3.105709   91.707406
 0.920000   3.885484   254.504676
 0.925000   5.650756   496.073474
 0.930000   8.846219   835.788577
 0.935000   14.008641   1288.230427
 0.940000   21.728523   1856.865136
 0.945000   32.577293   2526.822186
 0.950000   46.996745   3253.272625
 0.955000   65.110019   3927.591325
 0.960000   86.272658   4290.532801
 0.965000   108.015347   3826.925728
 0.970000   124.541916   1924.446065
 0.975000   127.259808   -1344.585209
 0.980000   111.096064   -4527.797528
 0.985000   81.981832   -5835.721686
 0.990000   52.738847   -5051.797967
 0.995000   31.463853   -3417.169401
 1.000000   18.567153   -1741.510590
201 psinorm kpol(km/s/T) dkpol/dpsiN
 0.000000   -0.030179   182.454510
 0.005000   0.704038   111.232065
 0.010000   1.082142   72.880687
 0.015000   1.432845   69.215215
 0.020000   1.774294   67.323639
 0.025000   2.106081   64.684271
 0.030000   2.421137   60.737743
 0.035000   2.713458   56.510309
 0.040000   2.986240   52.383302
 0.045000   3.237291   48.388262
 0.050000   3.470123   45.090654
 0.055000   3.688198   42.692729
 0.060000   3.897050   41.311428
 0.065000   4.101312   40.572393
 0.070000   4.302774   40.129940
 0.075000   4.502612   39.736451
 0.080000   4.700138   39.136985
 0.085000   4.893982   38.321495
 0.090000   5.083353   37.172034
 0.095000   5.265702   35.552937
 0.100000   5.438883   33.594336
 0.105000   5.601645   31.379985
 0.110000   5.752682   29.012201
 0.115000   5.891767   26.446560
 0.120000   6.017148   24.032804
 0.125000   6.132095   22.063599
 0.130000   6.237784   20.537971
 0.135000   6.337475   19.312506
 0.140000   6.430909   18.435827
 0.145000   6.521833   17.809040
 0.150000   6.608999   17.198931
 0.155000   6.693823   16.356907
 0.160000   6.772569   15.187258
 0.165000   6.845695   13.863524
 0.170000   6.911204   12.176970
 0.175000   6.967465   10.270034
 0.180000   7.013904   8.130432
 0.185000   7.048769   5.881330
 0.190000   7.072717   3.521156
 0.195000   7.083981   1.238094
 0.200000   7.085098   -0.940296
 0.205000   7.074578   -3.194627
 0.210000   7.053152   -5.141534
 0.215000   7.023162   -6.899151
 0.220000   6.984161   -8.482496
 0.225000   6.938337   -9.917239
 0.230000   6.884988   -11.444649
 0.235000   6.823891   -12.901408
 0.240000   6.755974   -14.495695
 0.245000   6.678934   -16.249364
 0.250000   6.593480   -18.019904
 0.255000   6.498735   -19.982354
 0.260000   6.393657   -21.920099
 0.265000   6.279534   -23.863065
 0.270000   6.155026   -25.874095
 0.275000   6.020793   -27.675408
 0.280000   5.878272   -29.397324
 0.285000   5.726820   -31.053345
 0.290000   5.567739   -32.507457
 0.295000   5.401745   -33.908003
 0.300000   5.228659   -35.312385
 0.305000   5.048621   -36.652682
 0.310000   4.862132   -38.039672
 0.315000   4.668225   -39.455151
 0.320000   4.467580   -40.900870
 0.325000   4.259216   -42.536354
 0.330000   4.042217   -44.194422
 0.335000   3.817272   -45.809977
 0.340000   3.584117   -47.390738
 0.345000   3.343364   -48.764764
 0.350000   3.096469   -49.760401
 0.355000   2.845760   -50.476046
 0.360000   2.591709   -50.981222
 0.365000   2.335948   -51.206413
 0.370000   2.079645   -51.280416
 0.375000   1.823144   -51.224224
 0.380000   1.567403   -50.973590
 0.385000   1.313408   -50.764018
 0.390000   1.059762   -50.757906
 0.395000   0.805829   -50.893734
 0.400000   0.550825   -51.117989
 0.405000   0.294649   -51.457272
 0.410000   0.036252   -51.820493
 0.415000   -0.223556   -52.143245
 0.420000   -0.485180   -52.730305
 0.425000   -0.750859   -54.037797
 0.430000   -1.025558   -56.461284
 0.435000   -1.315472   -60.504537
 0.440000   -1.630603   -66.971899
 0.445000   -1.985191   -74.870002
 0.450000   -2.379303   -82.949745
 0.455000   -2.814688   -91.219487
 0.460000   -3.291498   -99.259178
 0.465000   -3.807280   -106.701159
 0.470000   -4.358510   -112.735935
 0.475000   -4.934639   -115.929107
 0.480000   -5.517801   -115.964783
 0.485000   -6.094287   -113.248718
 0.490000   -6.650288   -107.996912
 0.495000   -7.174256   -100.297071
 0.500000   -7.653259   -90.272691
 0.505000   -8.076983   -79.399334
 0.510000   -8.447252   -68.956285
 0.515000   -8.766546   -59.053452
 0.520000   -9.037787   -49.915834
 0.525000   -9.265704   -41.739447
 0.530000   -9.455181   -35.296525
 0.535000   -9.618670   -31.056399
 0.540000   -9.765745   -28.421933
 0.545000   -9.902889   -27.002378
 0.550000   -10.035769   -26.233362
 0.555000   -10.165223   -25.668784
 0.560000   -10.292457   -25.115292
 0.565000   -10.416375   -24.186578
 0.570000   -10.534323   -22.763967
 0.575000   -10.644015   -20.884820
 0.580000   -10.743171   -18.705687
 0.585000   -10.831072   -16.191667
 0.590000   -10.905087   -13.239716
 0.595000   -10.963469   -10.144176
 0.600000   -11.006529   -7.155746
 0.605000   -11.035027   -4.286513
 0.610000   -11.049394   -1.638886
 0.615000   -11.051415   0.493135
 0.620000   -11.044463   2.255080
 0.625000   -11.028865   3.766069
 0.630000   -11.006802   4.839802
 0.635000   -10.980467   5.601787
 0.640000   -10.950784   6.205312
 0.645000   -10.918414   6.710422
 0.650000   -10.883680   7.127303
 0.655000   -10.847140   7.522610
 0.660000   -10.808454   7.943012
 0.665000   -10.767710   8.288872
 0.670000   -10.725565   8.510683
 0.675000   -10.682604   8.707302
 0.680000   -10.638492   8.899248
 0.685000   -10.593611   9.072776
 0.690000   -10.547765   9.285070
 0.695000   -10.500760   9.572850
 0.700000   -10.452036   9.987323
 0.705000   -10.400887   10.371122
 0.710000   -10.348325   10.606939
 0.715000   -10.294818   10.606594
 0.720000   -10.242259   10.196574
 0.725000   -10.192852   9.316960
 0.730000   -10.149089   7.954704
 0.735000   -10.113305   6.085065
 0.740000   -10.088239   3.666646
 0.745000   -10.076639   0.863541
 0.750000   -10.079603   -2.079336
 0.755000   -10.097432   -5.009766
 0.760000   -10.129701   -7.755963
 0.765000   -10.174992   -10.087984
 0.770000   -10.230581   -11.911223
 0.775000   -10.294104   -13.355691
 0.780000   -10.364138   -14.538115
 0.785000   -10.439485   -15.600529
 0.790000   -10.520143   -17.116366
 0.795000   -10.610649   -19.773141
 0.800000   -10.717874   -23.642558
 0.805000   -10.847074   -28.639615
 0.810000   -11.004271   -34.740604
 0.815000   -11.194480   -41.912998
 0.820000   -11.423400   -50.361846
 0.825000   -11.698099   -59.226211
 0.830000   -12.015663   -67.881501
 0.835000   -12.376914   -76.276548
 0.840000   -12.778428   -83.314876
 0.845000   -13.210062   -87.830165
 0.850000   -13.656730   -88.586376
 0.855000   -14.095926   -83.660625
 0.860000   -14.493336   -72.213235
 0.865000   -14.818058   -54.956967
 0.870000   -15.042906   -33.168939
 0.875000   -15.149748   -8.545794
 0.880000   -15.128364   16.564637
 0.885000   -14.984102   39.702788
 0.890000   -14.731336   59.324777
 0.895000   -14.390854   74.854512
 0.900000   -13.982791   86.300720
 0.905000   -13.527847   93.581805
 0.910000   -13.046973   97.807478
 0.915000   -12.549772   100.891390
 0.920000   -12.038059   104.157834
 0.925000   -11.508193   109.779104
 0.930000   -10.940268   118.922616
 0.935000   -10.318967   135.493574
 0.940000   -9.585332   164.600620
 0.945000   -8.672961   202.877005
 0.950000   -7.556562   237.446888
 0.955000   -6.298492   249.790308
 0.960000   -5.058659   213.712598
 0.965000   -4.161366   96.063465
 0.970000   -4.098024   -114.506932
 0.975000   -5.306436   -323.450205
 0.980000   -7.332526   -289.599021
 0.985000   -8.202426   247.074321
 0.990000   -4.861783   1255.920866
 0.995000   4.356783   2138.298011
 1.000000   16.521197   2727.467693
201 psinorm omghb() domghb/dpsiN
 0.000000   -0.000066   0.047896
 0.005000   0.000024   -0.011814
 0.010000   -0.000184   -0.006663
 0.015000   -0.000042   0.044259
 0.020000   0.000258   0.074456
 0.025000   0.000702   0.105640
 0.030000   0.001315   0.148444
 0.035000   0.002187   0.200709
 0.040000   0.003322   0.247406
 0.045000   0.004661   0.264048
 0.050000   0.005962   0.259957
 0.055000   0.007260   0.250362
 0.060000   0.008466   0.227121
 0.065000   0.009531   0.209105
 0.070000   0.010557   0.195173
 0.075000   0.011483   0.180505
 0.080000   0.012362   0.175062
 0.085000   0.013234   0.184317
 0.090000   0.014205   0.199842
 0.095000   0.015232   0.213365
 0.100000   0.016339   0.253830
 0.105000   0.017770   0.290990
 0.110000   0.019249   0.283879
 0.115000   0.020609   0.264401
 0.120000   0.021893   0.247706
 0.125000   0.023086   0.229228
 0.130000   0.024185   0.184726
 0.135000   0.024934   0.123180
 0.140000   0.025417   0.083835
 0.145000   0.025772   0.064339
 0.150000   0.026060   0.056863
 0.155000   0.026341   0.053582
 0.160000   0.026596   0.048902
 0.165000   0.026830   0.086770
 0.170000   0.027464   0.108101
 0.175000   0.027911   0.119231
 0.180000   0.028656   0.136705
 0.185000   0.029278   0.121373
 0.190000   0.029870   0.128893
 0.195000   0.030567   0.198504
 0.200000   0.031855   0.236433
 0.205000   0.032931   0.193597
 0.210000   0.033791   0.188304
 0.215000   0.034814   0.190815
 0.220000   0.035699   0.187333
 0.225000   0.036687   0.262245
 0.230000   0.038321   0.274558
 0.235000   0.039433   0.225157
 0.240000   0.040573   0.233243
 0.245000   0.041765   0.235202
 0.250000   0.042925   0.306048
 0.255000   0.044826   0.193910
 0.260000   0.044864   0.023475
 0.265000   0.045060   0.010382
 0.270000   0.044968   -0.066000
 0.275000   0.044400   -0.117933
 0.280000   0.043789   -0.107241
 0.285000   0.043328   -0.207614
 0.290000   0.041712   -0.243548
 0.295000   0.040893   -0.147268
 0.300000   0.040240   -0.138411
 0.305000   0.039508   -0.098680
 0.310000   0.039253   -0.166680
 0.315000   0.037842   -0.092610
 0.320000   0.038327   0.154723
 0.325000   0.039389   0.277200
 0.330000   0.041099   0.363870
 0.335000   0.043028   0.423058
 0.340000   0.045329   0.437234
 0.345000   0.047400   0.452597
 0.350000   0.049855   0.419780
 0.355000   0.051598   0.315398
 0.360000   0.053009   0.234111
 0.365000   0.053939   0.160312
 0.370000   0.054613   0.214265
 0.375000   0.056081   0.131971
 0.380000   0.055932   -0.028769
 0.385000   0.055794   -0.040829
 0.390000   0.055524   -0.067374
 0.395000   0.055120   -0.094920
 0.400000   0.054575   -0.110497
 0.405000   0.054015   -0.179386
 0.410000   0.052781   -0.170071
 0.415000   0.052314   -0.050217
 0.420000   0.052279   0.098879
 0.425000   0.053303   0.404038
 0.430000   0.056319   0.721121
 0.435000   0.060514   1.068812
 0.440000   0.067007   1.460238
 0.445000   0.075117   1.671392
 0.450000   0.083721   1.943066
 0.455000   0.094547   2.031957
 0.460000   0.104041   1.702679
 0.465000   0.111574   1.399003
 0.470000   0.118031   1.131362
 0.475000   0.122888   0.695311
 0.480000   0.124984   0.082025
 0.485000   0.123708   -0.598742
 0.490000   0.118996   -1.116540
 0.495000   0.112543   -1.468626
 0.500000   0.104310   -1.818055
 0.505000   0.094362   -2.037788
 0.510000   0.083932   -2.186753
 0.515000   0.072495   -2.003858
 0.520000   0.063894   -1.553741
 0.525000   0.056957   -1.190069
 0.530000   0.051993   -0.870568
 0.535000   0.048251   -0.564112
 0.540000   0.046352   -0.155616
 0.545000   0.046695   0.143863
 0.550000   0.047791   0.250737
 0.555000   0.049203   0.319687
 0.560000   0.050987   0.394093
 0.565000   0.053144   0.463369
 0.570000   0.055621   0.543827
 0.575000   0.058582   0.631355
 0.580000   0.061935   0.720642
 0.585000   0.065788   0.814639
 0.590000   0.070081   0.911194
 0.595000   0.074900   1.067105
 0.600000   0.080752   1.196874
 0.605000   0.086869   1.274907
 0.610000   0.093501   1.384944
 0.615000   0.100718   1.462554
 0.620000   0.108127   1.499690
 0.625000   0.115715   1.505811
 0.630000   0.123185   1.447107
 0.635000   0.130186   1.283374
 0.640000   0.136019   1.112746
 0.645000   0.141314   1.025191
 0.650000   0.146270   0.865069
 0.655000   0.149965   0.667776
 0.660000   0.152948   0.545276
 0.665000   0.155417   0.499807
 0.670000   0.157946   0.574659
 0.675000   0.161164   0.826354
 0.680000   0.166210   1.037433
 0.685000   0.171538   1.056436
 0.690000   0.176774   1.058593
 0.695000   0.182124   0.950852
 0.700000   0.186283   0.617625
 0.705000   0.188300   0.425708
 0.710000   0.190540   -0.067717
 0.715000   0.187623   -0.805050
 0.720000   0.182489   -0.995159
 0.725000   0.177672   -1.110868
 0.730000   0.171381   -1.319458
 0.735000   0.164477   -1.420491
 0.740000   0.157176   -1.718660
 0.745000   0.147290   -1.969386
 0.750000   0.137482   -1.942912
 0.755000   0.127861   -1.961768
 0.760000   0.117864   -1.944594
 0.765000   0.108415   -2.013071
 0.770000   0.097733   -2.011514
 0.775000   0.088300   -1.396272
 0.780000   0.083771   -0.930722
 0.785000   0.078993   -0.751703
 0.790000   0.076254   -0.387035
 0.795000   0.075123   -0.088314
 0.800000   0.075371   0.510307
 0.805000   0.080226   1.487616
 0.810000   0.090247   2.016603
 0.815000   0.100392   2.274460
 0.820000   0.112991   2.705179
 0.825000   0.127444   3.111170
 0.830000   0.144103   3.697251
 0.835000   0.164416   3.932750
 0.840000   0.183431   3.943509
 0.845000   0.203851   4.095522
 0.850000   0.224386   3.977728
 0.855000   0.243628   3.676385
 0.860000   0.261150   3.588382
 0.865000   0.279512   3.166787
 0.870000   0.292817   2.932786
 0.875000   0.308840   3.470222
 0.880000   0.327520   4.008771
 0.885000   0.348928   4.485249
 0.890000   0.372372   5.859651
 0.895000   0.407524   4.963638
 0.900000   0.422009   3.342314
 0.905000   0.440948   2.938228
 0.910000   0.451391   0.927444
 0.915000   0.450222   -1.703456
 0.920000   0.434356   -2.295977
 0.925000   0.427262   -7.211145
 0.930000   0.362245   -13.213983
 0.935000   0.295122   -14.754583
 0.940000   0.214699   -16.973081
 0.945000   0.125392   -17.305057
 0.950000   0.041648   -9.869712
 0.955000   0.026694   0.321224
 0.960000   0.044861   17.754796
 0.965000   0.204242   45.592062
 0.970000   0.500781   60.816828
 0.975000   0.812411   33.198143
 0.980000   0.832763   -63.376995
 0.985000   0.178641   -213.775901
 0.990000   -1.304996   -287.680438
 0.995000   -2.698164   -144.217191
 1.000000   -2.747168   124.615377
201 psinorm nz1(10^20/m^3) dnz1/dpsiN
 0.000000   0.013743   0.000002
 0.005000   0.013742   -0.000348
 0.010000   0.013739   -0.000701
 0.015000   0.013735   -0.001061
 0.020000   0.013729   -0.001425
 0.025000   0.013721   -0.001794
 0.030000   0.013711   -0.002166
 0.035000   0.013699   -0.002539
 0.040000   0.013685   -0.002911
 0.045000   0.013670   -0.003283
 0.050000   0.013653   -0.003650
 0.055000   0.013633   -0.004013
 0.060000   0.013613   -0.004367
 0.065000   0.013590   -0.004713
 0.070000   0.013565   -0.005046
 0.075000   0.013539   -0.005367
 0.080000   0.013512   -0.005674
 0.085000   0.013483   -0.005968
 0.090000   0.013452   -0.006244
 0.095000   0.013420   -0.006504
 0.100000   0.013387   -0.006744
 0.105000   0.013353   -0.006967
 0.110000   0.013317   -0.007178
 0.115000   0.013281   -0.007374
 0.120000   0.013244   -0.007556
 0.125000   0.013205   -0.007721
 0.130000   0.013166   -0.007869
 0.135000   0.013127   -0.008002
 0.140000   0.013086   -0.008122
 0.145000   0.013045   -0.008230
 0.150000   0.013004   -0.008325
 0.155000   0.012962   -0.008408
 0.160000   0.012920   -0.008479
 0.165000   0.012877   -0.008536
 0.170000   0.012835   -0.008577
 0.175000   0.012792   -0.008603
 0.180000   0.012749   -0.008613
 0.185000   0.012706   -0.008607
 0.190000   0.012663   -0.008584
 0.195000   0.012620   -0.008545
 0.200000   0.012577   -0.008489
 0.205000   0.012535   -0.008416
 0.210000   0.012493   -0.008326
 0.215000   0.012452   -0.008221
 0.220000   0.012411   -0.008099
 0.225000   0.012371   -0.007962
 0.230000   0.012331   -0.007813
 0.235000   0.012292   -0.007656
 0.240000   0.012255   -0.007490
 0.245000   0.012218   -0.007319
 0.250000   0.012181   -0.007140
 0.255000   0.012146   -0.006957
 0.260000   0.012112   -0.006766
 0.265000   0.012078   -0.006563
 0.270000   0.012046   -0.006350
 0.275000   0.012015   -0.006125
 0.280000   0.011985   -0.005890
 0.285000   0.011956   -0.005645
 0.290000   0.011928   -0.005387
 0.295000   0.011902   -0.005116
 0.300000   0.011877   -0.004833
 0.305000   0.011854   -0.004538
 0.310000   0.011832   -0.004232
 0.315000   0.011812   -0.003916
 0.320000   0.011793   -0.003592
 0.325000   0.011776   -0.003263
 0.330000   0.011760   -0.002931
 0.335000   0.011746   -0.002598
 0.340000   0.011734   -0.002267
 0.345000   0.011724   -0.001938
 0.350000   0.011715   -0.001615
 0.355000   0.011707   -0.001299
 0.360000   0.011702   -0.000989
 0.365000   0.011698   -0.000687
 0.370000   0.011695   -0.000391
 0.375000   0.011694   -0.000101
 0.380000   0.011694   0.000182
 0.385000   0.011696   0.000458
 0.390000   0.011698   0.000727
 0.395000   0.011703   0.000987
 0.400000   0.011708   0.001238
 0.405000   0.011715   0.001478
 0.410000   0.011723   0.001708
 0.415000   0.011732   0.001928
 0.420000   0.011742   0.002136
 0.425000   0.011754   0.002332
 0.430000   0.011766   0.002515
 0.435000   0.011779   0.002685
 0.440000   0.011793   0.002841
 0.445000   0.011807   0.002984
 0.450000   0.011822   0.003116
 0.455000   0.011838   0.003235
 0.460000   0.011855   0.003343
 0.465000   0.011872   0.003439
 0.470000   0.011889   0.003523
 0.475000   0.011907   0.003593
 0.480000   0.011925   0.003645
 0.485000   0.011943   0.003679
 0.490000   0.011962   0.003693
 0.495000   0.011980   0.003686
 0.500000   0.011999   0.003655
 0.505000   0.012017   0.003597
 0.510000   0.012035   0.003513
 0.515000   0.012052   0.003403
 0.520000   0.012069   0.003267
 0.525000   0.012085   0.003106
 0.530000   0.012100   0.002919
 0.535000   0.012114   0.002712
 0.540000   0.012127   0.002486
 0.545000   0.012139   0.002243
 0.550000   0.012149   0.001984
 0.555000   0.012159   0.001709
 0.560000   0.012166   0.001419
 0.565000   0.012173   0.001115
 0.570000   0.012178   0.000797
 0.575000   0.012181   0.000463
 0.580000   0.012182   0.000115
 0.585000   0.012182   -0.000250
 0.590000   0.012180   -0.000629
 0.595000   0.012176   -0.001023
 0.600000   0.012169   -0.001429
 0.605000   0.012161   -0.001845
 0.610000   0.012151   -0.002268
 0.615000   0.012139   -0.002697
 0.620000   0.012124   -0.003129
 0.625000   0.012107   -0.003566
 0.630000   0.012088   -0.004012
 0.635000   0.012067   -0.004469
 0.640000   0.012044   -0.004937
 0.645000   0.012018   -0.005418
 0.650000   0.011990   -0.005919
 0.655000   0.011959   -0.006435
 0.660000   0.011925   -0.006960
 0.665000   0.011889   -0.007492
 0.670000   0.011850   -0.008028
 0.675000   0.011809   -0.008566
 0.680000   0.011765   -0.009120
 0.685000   0.011718   -0.009717
 0.690000   0.011667   -0.010377
 0.695000   0.011614   -0.011114
 0.700000   0.011556   -0.011932
 0.705000   0.011494   -0.012828
 0.710000   0.011428   -0.013829
 0.715000   0.011356   -0.014900
 0.720000   0.011279   -0.015946
 0.725000   0.011197   -0.016944
 0.730000   0.011110   -0.017889
 0.735000   0.011018   -0.018751
 0.740000   0.010922   -0.019517
 0.745000   0.010823   -0.020133
 0.750000   0.010721   -0.020547
 0.755000   0.010617   -0.020766
 0.760000   0.010513   -0.020798
 0.765000   0.010409   -0.020644
 0.770000   0.010307   -0.020276
 0.775000   0.010206   -0.019679
 0.780000   0.010110   -0.018956
 0.785000   0.010017   -0.018188
 0.790000   0.009928   -0.017391
 0.795000   0.009843   -0.016599
 0.800000   0.009762   -0.015830
 0.805000   0.009685   -0.015115
 0.810000   0.009611   -0.014534
 0.815000   0.009539   -0.014096
 0.820000   0.009470   -0.013750
 0.825000   0.009402   -0.013474
 0.830000   0.009335   -0.013236
 0.835000   0.009270   -0.012994
 0.840000   0.009205   -0.012722
 0.845000   0.009142   -0.012422
 0.850000   0.009081   -0.012103
 0.855000   0.009021   -0.011772
 0.860000   0.008963   -0.011432
 0.865000   0.008907   -0.011086
 0.870000   0.008852   -0.010775
 0.875000   0.008799   -0.010543
 0.880000   0.008747   -0.010400
 0.885000   0.008695   -0.010349
 0.890000   0.008643   -0.010390
 0.895000   0.008591   -0.010573
 0.900000   0.008538   -0.010885
 0.905000   0.008482   -0.011316
 0.910000   0.008425   -0.011926
 0.915000   0.008363   -0.012740
 0.920000   0.008297   -0.013800
 0.925000   0.008225   -0.015390
 0.930000   0.008143   -0.017547
 0.935000   0.008050   -0.020210
 0.940000   0.007941   -0.023688
 0.945000   0.007813   -0.028325
 0.950000   0.007658   -0.034570
 0.955000   0.007467   -0.043552
 0.960000   0.007222   -0.055627
 0.965000   0.006911   -0.070339
 0.970000   0.006519   -0.087351
 0.975000   0.006037   -0.105199
 0.980000   0.005467   -0.121250
 0.985000   0.004825   -0.132846
 0.990000   0.004139   -0.136674
 0.995000   0.003458   -0.130881
 1.000000   0.002830   -0.120463
201 psinorm vtor1(km/s) dvtor1/dpsiN
 0.000000   97.003606   499.412305
 0.005000   98.939908   275.108329
 0.010000   99.754689   143.208674
 0.015000   100.371994   112.429557
 0.020000   100.878985   94.072985
 0.025000   101.312724   81.641539
 0.030000   101.695400   72.094075
 0.035000   102.033665   63.386853
 0.040000   102.329269   55.455529
 0.045000   102.588220   48.349667
 0.050000   102.812766   41.547286
 0.055000   103.003693   34.889956
 0.060000   103.161665   28.603943
 0.065000   103.289733   22.799373
 0.070000   103.389659   17.439203
 0.075000   103.464125   12.518342
 0.080000   103.514842   7.958739
 0.085000   103.543712   3.644785
 0.090000   103.551290   -0.567454
 0.095000   103.538038   -4.669963
 0.100000   103.504591   -8.636874
 0.105000   103.451669   -12.612685
 0.110000   103.378464   -16.629363
 0.115000   103.285375   -20.547955
 0.120000   103.172984   -24.346314
 0.125000   103.041912   -28.173078
 0.130000   102.891253   -31.986905
 0.135000   102.722043   -35.712691
 0.140000   102.534126   -39.483722
 0.145000   102.327206   -43.255385
 0.150000   102.101573   -46.932464
 0.155000   101.857881   -50.524606
 0.160000   101.596327   -54.114694
 0.165000   101.316734   -57.705094
 0.170000   101.019276   -61.262295
 0.175000   100.704111   -64.771133
 0.180000   100.371564   -68.211695
 0.185000   100.021994   -71.530417
 0.190000   99.656260   -74.690330
 0.195000   99.275091   -77.711144
 0.200000   98.879149   -80.566968
 0.205000   98.469421   -83.218287
 0.210000   98.046966   -85.644139
 0.215000   97.612980   -87.810769
 0.220000   97.168858   -89.597031
 0.225000   96.717010   -90.838719
 0.230000   96.260471   -91.613815
 0.235000   95.800871   -92.010844
 0.240000   95.340362   -91.983375
 0.245000   94.881038   -91.560385
 0.250000   94.424759   -90.765023
 0.255000   93.973387   -89.499215
 0.260000   93.529766   -87.994126
 0.265000   93.093446   -86.424407
 0.270000   92.665522   -84.644479
 0.275000   92.247001   -82.672857
 0.280000   91.838794   -80.538694
 0.285000   91.441614   -78.195244
 0.290000   91.056841   -75.903190
 0.295000   90.682583   -73.844279
 0.300000   90.318399   -71.887800
 0.305000   89.963705   -70.057923
 0.310000   89.617819   -68.350586
 0.315000   89.280199   -66.703425
 0.320000   88.950785   -65.056216
 0.325000   88.629637   -63.355948
 0.330000   88.317226   -61.569868
 0.335000   88.013938   -59.722939
 0.340000   87.719996   -57.842922
 0.345000   87.435509   -55.931698
 0.350000   87.160679   -53.997414
 0.355000   86.895534   -52.055330
 0.360000   86.640126   -50.100936
 0.365000   86.394525   -48.134909
 0.370000   86.158777   -46.155784
 0.375000   85.932967   -44.179345
 0.380000   85.716983   -42.199560
 0.385000   85.510972   -40.196537
 0.390000   85.315018   -38.169441
 0.395000   85.129277   -36.108372
 0.400000   84.953934   -34.009798
 0.405000   84.789179   -31.873780
 0.410000   84.635197   -29.693759
 0.415000   84.492242   -27.477703
 0.420000   84.360420   -25.264823
 0.425000   84.239593   -23.088999
 0.430000   84.129530   -20.975095
 0.435000   84.029843   -18.959216
 0.440000   83.939937   -17.052810
 0.445000   83.859314   -15.221182
 0.450000   83.787726   -13.442830
 0.455000   83.724886   -11.716117
 0.460000   83.670564   -10.028053
 0.465000   83.624606   -8.393887
 0.470000   83.586625   -6.814536
 0.475000   83.556460   -5.243178
 0.480000   83.534194   -3.687818
 0.485000   83.519582   -2.186443
 0.490000   83.512329   -0.742053
 0.495000   83.512162   0.625962
 0.500000   83.518589   1.891389
 0.505000   83.531075   3.056655
 0.510000   83.549155   4.087642
 0.515000   83.571952   4.926393
 0.520000   83.598419   5.546490
 0.525000   83.627417   5.911777
 0.530000   83.657537   5.967284
 0.535000   83.687090   5.710657
 0.540000   83.714644   5.116163
 0.545000   83.738251   4.090772
 0.550000   83.755551   2.537102
 0.555000   83.763622   0.311899
 0.560000   83.758670   -2.798327
 0.565000   83.735639   -6.862895
 0.570000   83.690041   -11.961698
 0.575000   83.616022   -18.280493
 0.580000   83.507237   -25.910892
 0.585000   83.356913   -34.906039
 0.590000   83.158176   -45.310359
 0.595000   82.903809   -56.820361
 0.600000   82.589973   -69.115561
 0.605000   82.212654   -82.086705
 0.610000   81.769106   -95.468527
 0.615000   81.257969   -108.966085
 0.620000   80.679445   -122.035133
 0.625000   80.037617   -134.421010
 0.630000   79.335235   -146.072276
 0.635000   78.576895   -156.703814
 0.640000   77.768196   -166.146043
 0.645000   76.915434   -174.297730
 0.650000   76.025219   -180.672243
 0.655000   75.108712   -185.729467
 0.660000   74.167924   -190.275774
 0.665000   73.205954   -194.280500
 0.670000   72.225119   -197.985384
 0.675000   71.226100   -201.702115
 0.680000   70.208098   -205.838719
 0.685000   69.167713   -210.761117
 0.690000   68.100487   -216.009047
 0.695000   67.007622   -220.639434
 0.700000   65.894093   -223.973034
 0.705000   64.767892   -225.480943
 0.710000   63.639283   -224.802029
 0.715000   62.519872   -221.875201
 0.720000   61.420531   -217.103328
 0.725000   60.348838   -210.906021
 0.730000   59.311471   -203.462460
 0.735000   58.314214   -194.957602
 0.740000   57.361895   -185.455065
 0.745000   56.459663   -175.197414
 0.750000   55.609921   -164.670829
 0.755000   54.812955   -154.096308
 0.760000   54.068958   -143.648752
 0.765000   53.376467   -133.641942
 0.770000   52.732538   -124.467124
 0.775000   52.131796   -116.501888
 0.780000   51.567520   -109.353234
 0.785000   51.038264   -102.397728
 0.790000   50.543542   -95.495567
 0.795000   50.083308   -88.647229
 0.800000   49.657070   -82.107701
 0.805000   49.262231   -76.218686
 0.810000   48.894883   -71.132147
 0.815000   48.550910   -67.364298
 0.820000   48.221240   -65.703941
 0.825000   47.893870   -66.740604
 0.830000   47.553834   -71.121501
 0.835000   47.182655   -79.560363
 0.840000   46.758231   -92.287114
 0.845000   46.259784   -109.440791
 0.850000   45.663823   -131.330910
 0.855000   44.946475   -157.979284
 0.860000   44.084030   -189.427422
 0.865000   43.052201   -226.190281
 0.870000   41.822127   -267.581147
 0.875000   40.376389   -312.257547
 0.880000   38.699551   -359.274627
 0.885000   36.783643   -406.871696
 0.890000   34.630835   -452.779239
 0.895000   32.255851   -495.149513
 0.900000   29.679339   -529.021462
 0.905000   26.965636   -549.778005
 0.910000   24.181559   -556.007476
 0.915000   21.405561   -545.858937
 0.920000   18.722970   -518.572724
 0.925000   16.219834   -474.674130
 0.930000   13.976229   -415.993981
 0.935000   12.059894   -346.180911
 0.940000   10.514420   -269.949384
 0.945000   9.360400   -192.151322
 0.950000   8.592906   -117.951592
 0.955000   8.180884   -52.341396
 0.960000   8.069492   0.311703
 0.965000   8.184002   37.506587
 0.970000   8.444558   59.006160
 0.975000   8.774063   66.043402
 0.980000   9.104992   60.995036
 0.985000   9.384013   46.797130
 0.990000   9.572964   26.888510
 0.995000   9.652899   4.394740
 1.000000   9.616911   -18.789782
201 psinorm vpol1(km/s) dvpol1/dpsiN
 0.000000   -0.000188   6.686719
 0.005000   0.036586   8.022656
 0.010000   0.080039   9.345313
 0.015000   0.130039   10.572656
 0.020000   0.185766   11.601562
 0.025000   0.246055   12.367188
 0.030000   0.309438   12.803906
 0.035000   0.374094   12.989062
 0.040000   0.439328   13.017969
 0.045000   0.504273   12.952344
 0.050000   0.568852   12.877344
 0.055000   0.633047   12.846875
 0.060000   0.697320   12.939844
 0.065000   0.762445   13.130469
 0.070000   0.828625   13.338281
 0.075000   0.895828   13.528125
 0.080000   0.963906   13.679688
 0.085000   1.032625   13.757031
 0.090000   1.101477   13.726562
 0.095000   1.169891   13.577344
 0.100000   1.237250   13.314844
 0.105000   1.303039   12.962500
 0.110000   1.366875   12.521094
 0.115000   1.428250   12.003906
 0.120000   1.486914   11.489062
 0.125000   1.543141   11.042969
 0.130000   1.597344   10.682812
 0.135000   1.649969   10.396094
 0.140000   1.701305   10.177344
 0.145000   1.751742   10.011719
 0.150000   1.801422   9.845313
 0.155000   1.850195   9.610156
 0.160000   1.897523   9.275781
 0.165000   1.942953   8.871875
 0.170000   1.986242   8.367188
 0.175000   2.026625   7.765625
 0.180000   2.063898   7.093750
 0.185000   2.097562   6.349219
 0.190000   2.127391   5.569531
 0.195000   2.153258   4.783594
 0.200000   2.175227   3.999219
 0.205000   2.193250   3.207813
 0.210000   2.207305   2.465625
 0.215000   2.217906   1.793750
 0.220000   2.225242   1.147656
 0.225000   2.229383   0.534375
 0.230000   2.230586   -0.078906
 0.235000   2.228594   -0.717969
 0.240000   2.223406   -1.388281
 0.245000   2.214711   -2.114844
 0.250000   2.202258   -2.881250
 0.255000   2.185898   -3.678125
 0.260000   2.165477   -4.512500
 0.265000   2.140773   -5.361719
 0.270000   2.111859   -6.194531
 0.275000   2.078828   -7.008594
 0.280000   2.041773   -7.789844
 0.285000   2.000930   -8.527344
 0.290000   1.956500   -9.235156
 0.295000   1.908578   -9.907031
 0.300000   1.857430   -10.574219
 0.305000   1.802836   -11.247656
 0.310000   1.744953   -11.915625
 0.315000   1.683680   -12.596094
 0.320000   1.618992   -13.310937
 0.325000   1.550570   -14.073437
 0.330000   1.478258   -14.850000
 0.335000   1.402070   -15.629687
 0.340000   1.321961   -16.378125
 0.345000   1.238289   -17.054688
 0.350000   1.151414   -17.604688
 0.355000   1.062242   -18.032813
 0.360000   0.971086   -18.378906
 0.365000   0.878453   -18.628906
 0.370000   0.784797   -18.807031
 0.375000   0.690383   -18.926562
 0.380000   0.595531   -18.977344
 0.385000   0.500609   -19.032812
 0.390000   0.405203   -19.154687
 0.395000   0.309063   -19.333594
 0.400000   0.211867   -19.540625
 0.405000   0.113656   -19.784375
 0.410000   0.014023   -20.035937
 0.415000   -0.086703   -20.267969
 0.420000   -0.188656   -20.600781
 0.425000   -0.292711   -21.210156
 0.430000   -0.400758   -22.253125
 0.435000   -0.515242   -23.939062
 0.440000   -0.640148   -26.583594
 0.445000   -0.781078   -29.794531
 0.450000   -0.938094   -33.097656
 0.455000   -1.112055   -36.500000
 0.460000   -1.303094   -39.803906
 0.465000   -1.510094   -42.883594
 0.470000   -1.731930   -45.438281
 0.475000   -1.964477   -46.842969
 0.480000   -2.200359   -46.976563
 0.485000   -2.434242   -46.031250
 0.490000   -2.660672   -44.055469
 0.495000   -2.874797   -41.051562
 0.500000   -3.071188   -37.110937
 0.505000   -3.245906   -32.840625
 0.510000   -3.399594   -28.669531
 0.515000   -3.532602   -24.692187
 0.520000   -3.646516   -21.059375
 0.525000   -3.743195   -17.772656
 0.530000   -3.824242   -15.146094
 0.535000   -3.894656   -13.431250
 0.540000   -3.958555   -12.385156
 0.545000   -4.018508   -11.775000
 0.550000   -4.076305   -11.429688
 0.555000   -4.132805   -11.218750
 0.560000   -4.188492   -10.979687
 0.565000   -4.242602   -10.563281
 0.570000   -4.294125   -9.975000
 0.575000   -4.342352   -9.217969
 0.580000   -4.386305   -8.288281
 0.585000   -4.425234   -7.222656
 0.590000   -4.458531   -6.023437
 0.595000   -4.485469   -4.736719
 0.600000   -4.505898   -3.469531
 0.605000   -4.520164   -2.275000
 0.610000   -4.528648   -1.190625
 0.615000   -4.532070   -0.273438
 0.620000   -4.531383   0.492969
 0.625000   -4.527141   1.114844
 0.630000   -4.520234   1.574219
 0.635000   -4.511398   1.926563
 0.640000   -4.500969   2.197656
 0.645000   -4.489422   2.407812
 0.650000   -4.476891   2.608594
 0.655000   -4.463336   2.804688
 0.660000   -4.448844   2.984375
 0.665000   -4.433492   3.135938
 0.670000   -4.417484   3.254687
 0.675000   -4.400945   3.356250
 0.680000   -4.383922   3.437500
 0.685000   -4.366570   3.524219
 0.690000   -4.348680   3.633594
 0.695000   -4.330234   3.760937
 0.700000   -4.311070   3.934375
 0.705000   -4.290891   4.110937
 0.710000   -4.269961   4.225781
 0.715000   -4.248633   4.227344
 0.720000   -4.227688   4.065625
 0.725000   -4.207977   3.718750
 0.730000   -4.190500   3.166406
 0.735000   -4.176312   2.395313
 0.740000   -4.166547   1.408594
 0.745000   -4.162227   0.266406
 0.750000   -4.163883   -0.945312
 0.755000   -4.171680   -2.154688
 0.760000   -4.185430   -3.271875
 0.765000   -4.204398   -4.219531
 0.770000   -4.227625   -4.973437
 0.775000   -4.254133   -5.561719
 0.780000   -4.283242   -6.028125
 0.785000   -4.314414   -6.453906
 0.790000   -4.347781   -7.080469
 0.795000   -4.385219   -8.157031
 0.800000   -4.429352   -9.725781
 0.805000   -4.482477   -11.781250
 0.810000   -4.547164   -14.300000
 0.815000   -4.625477   -17.221875
 0.820000   -4.719383   -20.669531
 0.825000   -4.832172   -24.325000
 0.830000   -4.962633   -27.876563
 0.835000   -5.110938   -31.282031
 0.840000   -5.275453   -34.138281
 0.845000   -5.452320   -35.985156
 0.850000   -5.635305   -36.241406
 0.855000   -5.814734   -34.125000
 0.860000   -5.976555   -29.356250
 0.865000   -6.108297   -22.223438
 0.870000   -6.198789   -13.167188
 0.875000   -6.239969   -2.943750
 0.880000   -6.228227   7.403906
 0.885000   -6.165930   16.925781
 0.890000   -6.058969   25.041406
 0.895000   -5.915516   31.450781
 0.900000   -5.744461   36.116406
 0.905000   -5.554352   39.028125
 0.910000   -5.354180   40.634375
 0.915000   -5.148008   41.812500
 0.920000   -4.936055   43.117187
 0.925000   -4.716836   45.052344
 0.930000   -4.485531   48.316406
 0.935000   -4.233672   55.018750
 0.940000   -3.935344   67.050000
 0.945000   -3.563172   82.315625
 0.950000   -3.112188   96.242187
 0.955000   -2.600750   101.802344
 0.960000   -2.094164   87.375000
 0.965000   -1.727000   38.976562
 0.970000   -1.704398   -48.474219
 0.975000   -2.211742   -135.837500
 0.980000   -3.062773   -121.826953
 0.985000   -3.430012   103.174609
 0.990000   -2.031027   524.825781
 0.995000   1.818246   891.904687
 1.000000   6.888020   1136.004687
3 N Z A of ION SPECIES
 6.000000   6.000000   12.010700
 1.000000   1.000000   2.000000
 1.000000   1.000000   2.000000
