201 psinorm ne(10^20/m^3) dne/dpsiN
 0.000000   0.439763   -0.247715
 0.005000   0.438526   -0.247323
 0.010000   0.437290   -0.246930
 0.015000   0.436057   -0.246536
 0.020000   0.434825   -0.246142
 0.025000   0.433595   -0.245748
 0.030000   0.432367   -0.245352
 0.035000   0.431142   -0.244956
 0.040000   0.429918   -0.244560
 0.045000   0.428696   -0.244163
 0.050000   0.427476   -0.243765
 0.055000   0.426258   -0.243367
 0.060000   0.425043   -0.242968
 0.065000   0.423829   -0.242569
 0.070000   0.422617   -0.242169
 0.075000   0.421407   -0.241769
 0.080000   0.420199   -0.241368
 0.085000   0.418993   -0.240967
 0.090000   0.417789   -0.240565
 0.095000   0.416588   -0.240162
 0.100000   0.415388   -0.239760
 0.105000   0.414190   -0.239356
 0.110000   0.412994   -0.238952
 0.115000   0.411801   -0.238548
 0.120000   0.410609   -0.238143
 0.125000   0.409419   -0.237737
 0.130000   0.408231   -0.237332
 0.135000   0.407046   -0.236925
 0.140000   0.405862   -0.236518
 0.145000   0.404681   -0.236111
 0.150000   0.403501   -0.235703
 0.155000   0.402324   -0.235295
 0.160000   0.401148   -0.234887
 0.165000   0.399975   -0.234478
 0.170000   0.398803   -0.234068
 0.175000   0.397634   -0.233658
 0.180000   0.396467   -0.233248
 0.185000   0.395302   -0.232837
 0.190000   0.394138   -0.232426
 0.195000   0.392977   -0.232015
 0.200000   0.391818   -0.231603
 0.205000   0.390661   -0.231190
 0.210000   0.389506   -0.230778
 0.215000   0.388353   -0.230365
 0.220000   0.387203   -0.229951
 0.225000   0.386054   -0.229537
 0.230000   0.384907   -0.229123
 0.235000   0.383763   -0.228708
 0.240000   0.382620   -0.228294
 0.245000   0.381480   -0.227878
 0.250000   0.380341   -0.227463
 0.255000   0.379205   -0.227047
 0.260000   0.378071   -0.226630
 0.265000   0.376939   -0.226214
 0.270000   0.375809   -0.225797
 0.275000   0.374681   -0.225380
 0.280000   0.373555   -0.224962
 0.285000   0.372431   -0.224544
 0.290000   0.371310   -0.224126
 0.295000   0.370190   -0.223708
 0.300000   0.369073   -0.223289
 0.305000   0.367957   -0.222870
 0.310000   0.366844   -0.222451
 0.315000   0.365733   -0.222031
 0.320000   0.364624   -0.221611
 0.325000   0.363517   -0.221191
 0.330000   0.362412   -0.220771
 0.335000   0.361309   -0.220350
 0.340000   0.360208   -0.219929
 0.345000   0.359110   -0.219508
 0.350000   0.358013   -0.219087
 0.355000   0.356919   -0.218665
 0.360000   0.355826   -0.218243
 0.365000   0.354736   -0.217821
 0.370000   0.353648   -0.217399
 0.375000   0.352562   -0.216976
 0.380000   0.351478   -0.216554
 0.385000   0.350397   -0.216131
 0.390000   0.349317   -0.215708
 0.395000   0.348240   -0.215284
 0.400000   0.347164   -0.214861
 0.405000   0.346091   -0.214437
 0.410000   0.345020   -0.214014
 0.415000   0.343951   -0.213590
 0.420000   0.342884   -0.213165
 0.425000   0.341819   -0.212741
 0.430000   0.340757   -0.212317
 0.435000   0.339696   -0.211892
 0.440000   0.338638   -0.211467
 0.445000   0.337581   -0.211042
 0.450000   0.336527   -0.210617
 0.455000   0.335475   -0.210192
 0.460000   0.334425   -0.209767
 0.465000   0.333378   -0.209341
 0.470000   0.332332   -0.208915
 0.475000   0.331288   -0.208490
 0.480000   0.330247   -0.208064
 0.485000   0.329208   -0.207638
 0.490000   0.328171   -0.207212
 0.495000   0.327136   -0.206786
 0.500000   0.326103   -0.206360
 0.505000   0.325072   -0.205933
 0.510000   0.324043   -0.205507
 0.515000   0.323017   -0.205081
 0.520000   0.321993   -0.204654
 0.525000   0.320970   -0.204228
 0.530000   0.319950   -0.203801
 0.535000   0.318932   -0.203374
 0.540000   0.317917   -0.202947
 0.545000   0.316903   -0.202521
 0.550000   0.315891   -0.202094
 0.555000   0.314882   -0.201667
 0.560000   0.313875   -0.201240
 0.565000   0.312870   -0.200813
 0.570000   0.311867   -0.200386
 0.575000   0.310866   -0.199959
 0.580000   0.309867   -0.199532
 0.585000   0.308870   -0.199105
 0.590000   0.307876   -0.198678
 0.595000   0.306884   -0.198251
 0.600000   0.305893   -0.197824
 0.605000   0.304905   -0.197397
 0.610000   0.303919   -0.196970
 0.615000   0.302936   -0.196543
 0.620000   0.301954   -0.196116
 0.625000   0.300975   -0.195689
 0.630000   0.299997   -0.195262
 0.635000   0.299022   -0.194835
 0.640000   0.298049   -0.194407
 0.645000   0.297078   -0.193980
 0.650000   0.296109   -0.193553
 0.655000   0.295142   -0.193126
 0.660000   0.294178   -0.192699
 0.665000   0.293215   -0.192272
 0.670000   0.292255   -0.191844
 0.675000   0.291297   -0.191416
 0.680000   0.290341   -0.190988
 0.685000   0.289387   -0.190560
 0.690000   0.288435   -0.190131
 0.695000   0.287486   -0.189702
 0.700000   0.286538   -0.189271
 0.705000   0.285593   -0.188839
 0.710000   0.284650   -0.188406
 0.715000   0.283709   -0.187971
 0.720000   0.282770   -0.187532
 0.725000   0.281834   -0.187091
 0.730000   0.280899   -0.186644
 0.735000   0.279967   -0.186191
 0.740000   0.279037   -0.185731
 0.745000   0.278110   -0.185260
 0.750000   0.277185   -0.184776
 0.755000   0.276262   -0.184274
 0.760000   0.275342   -0.183751
 0.765000   0.274425   -0.183198
 0.770000   0.273510   -0.182609
 0.775000   0.272598   -0.181971
 0.780000   0.271690   -0.181273
 0.785000   0.270786   -0.180496
 0.790000   0.269885   -0.179618
 0.795000   0.268990   -0.178611
 0.800000   0.268099   -0.177439
 0.805000   0.267215   -0.176057
 0.810000   0.266339   -0.174409
 0.815000   0.265471   -0.172422
 0.820000   0.264614   -0.170007
 0.825000   0.263771   -0.167054
 0.830000   0.262944   -0.163425
 0.835000   0.262137   -0.158952
 0.840000   0.261354   -0.153432
 0.845000   0.260602   -0.146619
 0.850000   0.259888   -0.138225
 0.855000   0.259220   -0.127916
 0.860000   0.258609   -0.115317
 0.865000   0.258067   -0.100028
 0.870000   0.257609   -0.081646
 0.875000   0.257251   -0.059829
 0.880000   0.257010   -0.034382
 0.885000   0.256907   -0.005425
 0.890000   0.256956   0.026354
 0.895000   0.257170   0.059295
 0.900000   0.257549   0.090150
 0.905000   0.258072   0.113204
 0.910000   0.258681   0.119095
 0.915000   0.259263   0.093419
 0.920000   0.259615   0.015535
 0.925000   0.259418   -0.141482
 0.930000   0.258201   -0.407886
 0.935000   0.255339   -0.808886
 0.940000   0.250112   -1.349497
 0.945000   0.241844   -1.996039
 0.950000   0.230151   -2.665790
 0.955000   0.215186   -3.240288
 0.960000   0.197748   -3.606414
 0.965000   0.179122   -3.704618
 0.970000   0.160702   -3.550990
 0.975000   0.143612   -3.219183
 0.980000   0.128510   -2.800396
 0.985000   0.115608   -2.370074
 0.990000   0.104810   -1.974767
 0.995000   0.095861   -1.634970
 1.000000   0.088460   -1.325310
201 psinorm te(KeV) dte/dpsiN
 0.000000   3.936937   -3.460105
 0.005000   3.919621   -3.466309
 0.010000   3.902274   -3.472405
 0.015000   3.884897   -3.478283
 0.020000   3.867491   -3.483944
 0.025000   3.850058   -3.489389
 0.030000   3.832597   -3.494618
 0.035000   3.815112   -3.499632
 0.040000   3.797601   -3.504431
 0.045000   3.780067   -3.509015
 0.050000   3.762511   -3.513387
 0.055000   3.744933   -3.517545
 0.060000   3.727336   -3.521491
 0.065000   3.709718   -3.525225
 0.070000   3.692083   -3.528749
 0.075000   3.674431   -3.532062
 0.080000   3.656763   -3.535166
 0.085000   3.639079   -3.538062
 0.090000   3.621382   -3.540749
 0.095000   3.603672   -3.543229
 0.100000   3.585950   -3.545503
 0.105000   3.568217   -3.547571
 0.110000   3.550474   -3.549435
 0.115000   3.532722   -3.551095
 0.120000   3.514963   -3.552552
 0.125000   3.497197   -3.553807
 0.130000   3.479425   -3.554861
 0.135000   3.461648   -3.555715
 0.140000   3.443868   -3.556370
 0.145000   3.426085   -3.556826
 0.150000   3.408300   -3.557085
 0.155000   3.390514   -3.557148
 0.160000   3.372728   -3.557016
 0.165000   3.354944   -3.556689
 0.170000   3.337161   -3.556170
 0.175000   3.319382   -3.555458
 0.180000   3.301607   -3.554555
 0.185000   3.283836   -3.553463
 0.190000   3.266072   -3.552181
 0.195000   3.248315   -3.550712
 0.200000   3.230565   -3.549057
 0.205000   3.212824   -3.547216
 0.210000   3.195093   -3.545191
 0.215000   3.177372   -3.542983
 0.220000   3.159663   -3.540593
 0.225000   3.141966   -3.538023
 0.230000   3.124283   -3.535273
 0.235000   3.106613   -3.532345
 0.240000   3.088959   -3.529240
 0.245000   3.071321   -3.525959
 0.250000   3.053700   -3.522505
 0.255000   3.036096   -3.518877
 0.260000   3.018511   -3.515077
 0.265000   3.000945   -3.511107
 0.270000   2.983400   -3.506968
 0.275000   2.965876   -3.502660
 0.280000   2.948373   -3.498187
 0.285000   2.930894   -3.493548
 0.290000   2.913438   -3.488746
 0.295000   2.896006   -3.483781
 0.300000   2.878600   -3.478655
 0.305000   2.861220   -3.473369
 0.310000   2.843866   -3.467925
 0.315000   2.826540   -3.462325
 0.320000   2.809243   -3.456569
 0.325000   2.791975   -3.450659
 0.330000   2.774736   -3.444596
 0.335000   2.757529   -3.438382
 0.340000   2.740353   -3.432019
 0.345000   2.723209   -3.425507
 0.350000   2.706098   -3.418849
 0.355000   2.689020   -3.412045
 0.360000   2.671977   -3.405098
 0.365000   2.654969   -3.398008
 0.370000   2.637997   -3.390777
 0.375000   2.621061   -3.383407
 0.380000   2.604163   -3.375899
 0.385000   2.587302   -3.368255
 0.390000   2.570480   -3.360476
 0.395000   2.553698   -3.352564
 0.400000   2.536955   -3.344520
 0.405000   2.520252   -3.336345
 0.410000   2.503591   -3.328042
 0.415000   2.486972   -3.319612
 0.420000   2.470395   -3.311056
 0.425000   2.453861   -3.302376
 0.430000   2.437371   -3.293573
 0.435000   2.420926   -3.284650
 0.440000   2.404525   -3.275606
 0.445000   2.388170   -3.266445
 0.450000   2.371860   -3.257168
 0.455000   2.355598   -3.247775
 0.460000   2.339383   -3.238270
 0.465000   2.323215   -3.228652
 0.470000   2.307096   -3.218925
 0.475000   2.291026   -3.209089
 0.480000   2.275005   -3.199146
 0.485000   2.259035   -3.189097
 0.490000   2.243114   -3.178945
 0.495000   2.227245   -3.168690
 0.500000   2.211427   -3.158334
 0.505000   2.195662   -3.147879
 0.510000   2.179949   -3.137327
 0.515000   2.164288   -3.126679
 0.520000   2.148682   -3.115936
 0.525000   2.133129   -3.105100
 0.530000   2.117631   -3.094173
 0.535000   2.102187   -3.083156
 0.540000   2.086799   -3.072051
 0.545000   2.071467   -3.060859
 0.550000   2.056191   -3.049581
 0.555000   2.040971   -3.038221
 0.560000   2.025808   -3.026778
 0.565000   2.010703   -3.015255
 0.570000   1.995656   -3.003653
 0.575000   1.980667   -2.991973
 0.580000   1.965736   -2.980218
 0.585000   1.950865   -2.968388
 0.590000   1.936052   -2.956486
 0.595000   1.921300   -2.944512
 0.600000   1.906607   -2.932468
 0.605000   1.891975   -2.920357
 0.610000   1.877404   -2.908178
 0.615000   1.862893   -2.895935
 0.620000   1.848444   -2.883628
 0.625000   1.834057   -2.871258
 0.630000   1.819732   -2.858828
 0.635000   1.805469   -2.846339
 0.640000   1.791268   -2.833792
 0.645000   1.777131   -2.821189
 0.650000   1.763056   -2.808531
 0.655000   1.749045   -2.795820
 0.660000   1.735098   -2.783057
 0.665000   1.721215   -2.770244
 0.670000   1.707396   -2.757382
 0.675000   1.693641   -2.744473
 0.680000   1.679951   -2.731517
 0.685000   1.666326   -2.718517
 0.690000   1.652766   -2.705474
 0.695000   1.639271   -2.692389
 0.700000   1.625842   -2.679264
 0.705000   1.612479   -2.666100
 0.710000   1.599181   -2.652899
 0.715000   1.585950   -2.639661
 0.720000   1.572784   -2.626389
 0.725000   1.559686   -2.613083
 0.730000   1.546654   -2.599745
 0.735000   1.533688   -2.586377
 0.740000   1.520790   -2.572979
 0.745000   1.507958   -2.559553
 0.750000   1.495194   -2.546100
 0.755000   1.482497   -2.532621
 0.760000   1.469868   -2.519118
 0.765000   1.457306   -2.505591
 0.770000   1.444812   -2.492042
 0.775000   1.432386   -2.478470
 0.780000   1.420027   -2.464877
 0.785000   1.407737   -2.451263
 0.790000   1.395515   -2.437628
 0.795000   1.383361   -2.423970
 0.800000   1.371275   -2.410289
 0.805000   1.359258   -2.396581
 0.810000   1.347309   -2.382843
 0.815000   1.335429   -2.369069
 0.820000   1.323619   -2.355252
 0.825000   1.311877   -2.341381
 0.830000   1.300205   -2.327442
 0.835000   1.288603   -2.313417
 0.840000   1.277071   -2.299284
 0.845000   1.265610   -2.285020
 0.850000   1.254220   -2.270597
 0.855000   1.242904   -2.255995
 0.860000   1.231660   -2.241206
 0.865000   1.220492   -2.226258
 0.870000   1.209398   -2.211250
 0.875000   1.198379   -2.196412
 0.880000   1.187434   -2.182221
 0.885000   1.176557   -2.169575
 0.890000   1.165738   -2.160106
 0.895000   1.154956   -2.156683
 0.900000   1.144171   -2.164230
 0.905000   1.133314   -2.191055
 0.910000   1.122261   -2.250964
 0.915000   1.110804   -2.366550
 0.920000   1.098595   -2.574212
 0.925000   1.085062   -2.931412
 0.930000   1.069281   -3.526338
 0.935000   1.049798   -4.488532
 0.940000   1.024396   -5.994726
 0.945000   0.989851   -8.254664
 0.950000   0.941849   -11.446338
 0.955000   0.875388   -15.559899
 0.960000   0.786250   -20.147203
 0.965000   0.673916   -24.126565
 0.970000   0.544984   -26.003508
 0.975000   0.413881   -24.730255
 0.980000   0.297682   -20.621770
 0.985000   0.207663   -15.245697
 0.990000   0.145225   -10.272572
 0.995000   0.104937   -6.545814
 1.000000   0.079767   -3.522390
201 psinorm ni(10^20/m^3) dni/dpsiN
 0.000000   0.242954   -0.316234
 0.005000   0.241729   -0.173549
 0.010000   0.241218   -0.061797
 0.015000   0.241111   0.008639
 0.020000   0.241305   0.063633
 0.025000   0.241748   0.108819
 0.030000   0.242393   0.145090
 0.035000   0.243199   0.173317
 0.040000   0.244126   0.194872
 0.045000   0.245147   0.211427
 0.050000   0.246240   0.223103
 0.055000   0.247378   0.230362
 0.060000   0.248544   0.234390
 0.065000   0.249722   0.235556
 0.070000   0.250899   0.233971
 0.075000   0.252062   0.230627
 0.080000   0.253206   0.225554
 0.085000   0.254317   0.218470
 0.090000   0.255390   0.210472
 0.095000   0.256422   0.201588
 0.100000   0.257406   0.191086
 0.105000   0.258333   0.179934
 0.110000   0.259206   0.168929
 0.115000   0.260022   0.157600
 0.120000   0.260782   0.146007
 0.125000   0.261482   0.134194
 0.130000   0.262124   0.121794
 0.135000   0.262700   0.109434
 0.140000   0.263218   0.097669
 0.145000   0.263677   0.086034
 0.150000   0.264078   0.074568
 0.155000   0.264423   0.063325
 0.160000   0.264711   0.052343
 0.165000   0.264946   0.041666
 0.170000   0.265128   0.031315
 0.175000   0.265259   0.021305
 0.180000   0.265341   0.011665
 0.185000   0.265376   0.002397
 0.190000   0.265365   -0.006501
 0.195000   0.265311   -0.015428
 0.200000   0.265211   -0.024007
 0.205000   0.265071   -0.031809
 0.210000   0.264893   -0.039210
 0.215000   0.264679   -0.046232
 0.220000   0.264430   -0.052886
 0.225000   0.264150   -0.059184
 0.230000   0.263839   -0.065124
 0.235000   0.263499   -0.070711
 0.240000   0.263132   -0.076467
 0.245000   0.262734   -0.081846
 0.250000   0.262313   -0.086346
 0.255000   0.261871   -0.090535
 0.260000   0.261408   -0.094454
 0.265000   0.260926   -0.098132
 0.270000   0.260426   -0.101966
 0.275000   0.259906   -0.105594
 0.280000   0.259370   -0.108588
 0.285000   0.258820   -0.111352
 0.290000   0.258257   -0.113978
 0.295000   0.257681   -0.116698
 0.300000   0.257090   -0.119432
 0.305000   0.256486   -0.121796
 0.310000   0.255872   -0.123887
 0.315000   0.255247   -0.125906
 0.320000   0.254613   -0.128091
 0.325000   0.253967   -0.130240
 0.330000   0.253311   -0.132063
 0.335000   0.252646   -0.133763
 0.340000   0.251973   -0.135465
 0.345000   0.251291   -0.137239
 0.350000   0.250601   -0.138834
 0.355000   0.249903   -0.140182
 0.360000   0.249199   -0.141488
 0.365000   0.248488   -0.142897
 0.370000   0.247770   -0.144207
 0.375000   0.247046   -0.145281
 0.380000   0.246317   -0.146321
 0.385000   0.245583   -0.147476
 0.390000   0.244842   -0.148578
 0.395000   0.244097   -0.149483
 0.400000   0.243347   -0.150367
 0.405000   0.242593   -0.151347
 0.410000   0.241834   -0.152276
 0.415000   0.241071   -0.153031
 0.420000   0.240304   -0.153777
 0.425000   0.239533   -0.154590
 0.430000   0.238758   -0.155339
 0.435000   0.237979   -0.155944
 0.440000   0.237198   -0.156560
 0.445000   0.236414   -0.157212
 0.450000   0.235626   -0.157763
 0.455000   0.234836   -0.158184
 0.460000   0.234044   -0.158631
 0.465000   0.233250   -0.159077
 0.470000   0.232454   -0.159394
 0.475000   0.231656   -0.159607
 0.480000   0.230857   -0.159871
 0.485000   0.230057   -0.160083
 0.490000   0.229257   -0.160118
 0.495000   0.228456   -0.160097
 0.500000   0.227656   -0.160097
 0.505000   0.226855   -0.159998
 0.510000   0.226056   -0.159730
 0.515000   0.225258   -0.159436
 0.520000   0.224461   -0.159116
 0.525000   0.223667   -0.158665
 0.530000   0.222875   -0.158084
 0.535000   0.222086   -0.157495
 0.540000   0.221300   -0.156838
 0.545000   0.220517   -0.156024
 0.550000   0.219739   -0.155109
 0.555000   0.218966   -0.154189
 0.560000   0.218198   -0.153173
 0.565000   0.217435   -0.151988
 0.570000   0.216678   -0.150736
 0.575000   0.215927   -0.149437
 0.580000   0.215183   -0.148023
 0.585000   0.214447   -0.146479
 0.590000   0.213719   -0.144872
 0.595000   0.212998   -0.143195
 0.600000   0.212287   -0.141413
 0.605000   0.211584   -0.139538
 0.610000   0.210891   -0.137602
 0.615000   0.210208   -0.135592
 0.620000   0.209535   -0.133486
 0.625000   0.208873   -0.131274
 0.630000   0.208223   -0.128938
 0.635000   0.207584   -0.126456
 0.640000   0.206958   -0.123821
 0.645000   0.206346   -0.121038
 0.650000   0.205748   -0.118044
 0.655000   0.205165   -0.114873
 0.660000   0.204599   -0.111622
 0.665000   0.204049   -0.108292
 0.670000   0.203516   -0.104875
 0.675000   0.203000   -0.101378
 0.680000   0.202502   -0.097747
 0.685000   0.202023   -0.093814
 0.690000   0.201564   -0.089424
 0.695000   0.201129   -0.084465
 0.700000   0.200719   -0.078943
 0.705000   0.200339   -0.072897
 0.710000   0.199990   -0.066104
 0.715000   0.199678   -0.058726
 0.720000   0.199403   -0.051351
 0.725000   0.199165   -0.044146
 0.730000   0.198962   -0.037137
 0.735000   0.198793   -0.030487
 0.740000   0.198657   -0.024269
 0.745000   0.198551   -0.018893
 0.750000   0.198468   -0.014761
 0.755000   0.198403   -0.011801
 0.760000   0.198350   -0.009988
 0.765000   0.198303   -0.009331
 0.770000   0.198257   -0.010089
 0.775000   0.198202   -0.012425
 0.780000   0.198132   -0.015608
 0.785000   0.198046   -0.019067
 0.790000   0.197942   -0.022682
 0.795000   0.197819   -0.026184
 0.800000   0.197680   -0.029449
 0.805000   0.197525   -0.032180
 0.810000   0.197358   -0.033754
 0.815000   0.197187   -0.034065
 0.820000   0.197017   -0.033356
 0.825000   0.196854   -0.031687
 0.830000   0.196701   -0.029165
 0.835000   0.196562   -0.025889
 0.840000   0.196442   -0.021885
 0.845000   0.196343   -0.016939
 0.850000   0.196272   -0.010683
 0.855000   0.196236   -0.002765
 0.860000   0.196245   0.007210
 0.865000   0.196308   0.019749
 0.870000   0.196442   0.035609
 0.875000   0.196664   0.055478
 0.880000   0.196997   0.079642
 0.885000   0.197461   0.107969
 0.890000   0.198077   0.139683
 0.895000   0.198858   0.173434
 0.900000   0.199811   0.205684
 0.905000   0.200915   0.230400
 0.910000   0.202115   0.238530
 0.915000   0.203300   0.215575
 0.920000   0.204271   0.140904
 0.925000   0.204709   -0.010830
 0.930000   0.204162   -0.269389
 0.935000   0.202015   -0.659555
 0.940000   0.197567   -1.183474
 0.945000   0.190180   -1.803860
 0.950000   0.179528   -2.432766
 0.955000   0.165853   -2.941419
 0.960000   0.150114   -3.210220
 0.965000   0.133750   -3.179712
 0.970000   0.118317   -2.871590
 0.975000   0.105035   -2.381422
 0.980000   0.094503   -1.836479
 0.985000   0.086670   -1.346679
 0.990000   0.081036   -0.982173
 0.995000   0.076848   -0.756633
 1.000000   0.073470   -0.594756
201 psinorm ti(KeV) dti/dpsiN
 0.000000   5.615254   0.002329
 0.005000   5.614534   -0.290276
 0.010000   5.612351   -0.586189
 0.015000   5.608672   -0.888305
 0.020000   5.603468   -1.195711
 0.025000   5.596715   -1.507298
 0.030000   5.588395   -1.821796
 0.035000   5.578497   -2.137852
 0.040000   5.567016   -2.453733
 0.045000   5.553959   -2.768530
 0.050000   5.539331   -3.081743
 0.055000   5.523142   -3.392288
 0.060000   5.505408   -3.699293
 0.065000   5.486149   -4.001893
 0.070000   5.465389   -4.298436
 0.075000   5.443165   -4.588337
 0.080000   5.419506   -4.871975
 0.085000   5.394445   -5.149082
 0.090000   5.368015   -5.419815
 0.095000   5.340247   -5.684570
 0.100000   5.311169   -5.943892
 0.105000   5.280808   -6.197991
 0.110000   5.249189   -6.446112
 0.115000   5.216347   -6.687543
 0.120000   5.182314   -6.922061
 0.125000   5.147126   -7.149380
 0.130000   5.110820   -7.369941
 0.135000   5.073427   -7.582651
 0.140000   5.034994   -7.784767
 0.145000   4.995579   -7.975369
 0.150000   4.955240   -8.154148
 0.155000   4.914038   -8.320236
 0.160000   4.872038   -8.472847
 0.165000   4.829309   -8.610486
 0.170000   4.785933   -8.731916
 0.175000   4.741990   -8.836991
 0.180000   4.697563   -8.925440
 0.185000   4.652736   -8.996915
 0.190000   4.607594   -9.050285
 0.195000   4.562233   -9.084506
 0.200000   4.516749   -9.102553
 0.205000   4.471207   -9.106667
 0.210000   4.425682   -9.096980
 0.215000   4.380237   -9.075538
 0.220000   4.334927   -9.044534
 0.225000   4.289792   -9.007674
 0.230000   4.244850   -8.969619
 0.235000   4.200096   -8.930969
 0.240000   4.155540   -8.890623
 0.245000   4.111190   -8.849074
 0.250000   4.067049   -8.807374
 0.255000   4.023116   -8.769091
 0.260000   3.979358   -8.728734
 0.265000   3.935829   -8.679222
 0.270000   3.892566   -8.620570
 0.275000   3.849623   -8.550892
 0.280000   3.807057   -8.469123
 0.285000   3.764932   -8.374809
 0.290000   3.723309   -8.264928
 0.295000   3.682282   -8.139501
 0.300000   3.641914   -8.001785
 0.305000   3.602264   -7.852493
 0.310000   3.563389   -7.692211
 0.315000   3.525342   -7.515041
 0.320000   3.488239   -7.325272
 0.325000   3.452090   -7.134305
 0.330000   3.416896   -6.945504
 0.335000   3.382635   -6.762946
 0.340000   3.349266   -6.589230
 0.345000   3.316742   -6.425807
 0.350000   3.285008   -6.276117
 0.355000   3.253981   -6.140219
 0.360000   3.223606   -6.014821
 0.365000   3.193833   -5.899144
 0.370000   3.164615   -5.792442
 0.375000   3.135909   -5.698654
 0.380000   3.107628   -5.614252
 0.385000   3.079766   -5.530695
 0.390000   3.052321   -5.446811
 0.395000   3.025298   -5.360376
 0.400000   2.998717   -5.268134
 0.405000   2.972617   -5.167978
 0.410000   2.947038   -5.055509
 0.415000   2.922061   -4.930430
 0.420000   2.897733   -4.798481
 0.425000   2.874077   -4.663321
 0.430000   2.851100   -4.527789
 0.435000   2.828799   -4.391959
 0.440000   2.807181   -4.258102
 0.445000   2.786218   -4.131979
 0.450000   2.765861   -4.014270
 0.455000   2.746075   -3.903750
 0.460000   2.726823   -3.800921
 0.465000   2.708066   -3.704996
 0.470000   2.689773   -3.617212
 0.475000   2.671894   -3.541100
 0.480000   2.654362   -3.476179
 0.485000   2.637132   -3.420662
 0.490000   2.620156   -3.374450
 0.495000   2.603387   -3.337802
 0.500000   2.586778   -3.310365
 0.505000   2.570284   -3.287592
 0.510000   2.553902   -3.265325
 0.515000   2.537631   -3.243366
 0.520000   2.521468   -3.222106
 0.525000   2.505409   -3.202091
 0.530000   2.489447   -3.183366
 0.535000   2.473576   -3.166348
 0.540000   2.457784   -3.151325
 0.545000   2.442063   -3.137892
 0.550000   2.426405   -3.125918
 0.555000   2.410803   -3.115160
 0.560000   2.395253   -3.105027
 0.565000   2.379753   -3.096275
 0.570000   2.364290   -3.089377
 0.575000   2.348859   -3.083588
 0.580000   2.333455   -3.078812
 0.585000   2.318071   -3.074942
 0.590000   2.302705   -3.071817
 0.595000   2.287353   -3.069713
 0.600000   2.272008   -3.068443
 0.605000   2.256669   -3.067346
 0.610000   2.241335   -3.066268
 0.615000   2.226006   -3.065131
 0.620000   2.210683   -3.064350
 0.625000   2.195362   -3.063573
 0.630000   2.180047   -3.062079
 0.635000   2.164742   -3.059851
 0.640000   2.149449   -3.056709
 0.645000   2.134175   -3.052457
 0.650000   2.118924   -3.047508
 0.655000   2.103699   -3.041196
 0.660000   2.088512   -3.033067
 0.665000   2.073369   -3.024417
 0.670000   2.058268   -3.016146
 0.675000   2.043207   -3.008792
 0.680000   2.028180   -3.004287
 0.685000   2.013164   -3.001479
 0.690000   1.998166   -2.996541
 0.695000   1.983199   -2.988075
 0.700000   1.968285   -2.974974
 0.705000   1.953449   -2.956151
 0.710000   1.938723   -2.930836
 0.715000   1.924141   -2.899090
 0.720000   1.909732   -2.863073
 0.725000   1.895510   -2.824864
 0.730000   1.881484   -2.785093
 0.735000   1.867659   -2.744298
 0.740000   1.854041   -2.702121
 0.745000   1.840638   -2.659192
 0.750000   1.827449   -2.617835
 0.755000   1.814460   -2.578881
 0.760000   1.801660   -2.542829
 0.765000   1.789031   -2.511316
 0.770000   1.776547   -2.486774
 0.775000   1.764164   -2.472562
 0.780000   1.751821   -2.468018
 0.785000   1.739484   -2.469667
 0.790000   1.727125   -2.475870
 0.795000   1.714725   -2.485551
 0.800000   1.702269   -2.498697
 0.805000   1.689738   -2.515416
 0.810000   1.677115   -2.534373
 0.815000   1.664394   -2.557014
 0.820000   1.651545   -2.586548
 0.825000   1.638529   -2.624250
 0.830000   1.625302   -2.671709
 0.835000   1.611812   -2.731375
 0.840000   1.597989   -2.798697
 0.845000   1.583825   -2.870167
 0.850000   1.569287   -2.949556
 0.855000   1.554329   -3.040270
 0.860000   1.538884   -3.148497
 0.865000   1.522844   -3.288845
 0.870000   1.505996   -3.456976
 0.875000   1.488274   -3.643670
 0.880000   1.469559   -3.855141
 0.885000   1.449723   -4.092625
 0.890000   1.428633   -4.357843
 0.895000   1.406144   -4.670238
 0.900000   1.381930   -5.010621
 0.905000   1.356038   -5.362338
 0.910000   1.328307   -5.749115
 0.915000   1.298547   -6.175373
 0.920000   1.266553   -6.642587
 0.925000   1.232121   -7.186383
 0.930000   1.194689   -7.767967
 0.935000   1.154442   -8.332145
 0.940000   1.111368   -8.891752
 0.945000   1.065524   -9.427928
 0.950000   1.017089   -9.913761
 0.955000   0.966386   -10.350354
 0.960000   0.913585   -10.676354
 0.965000   0.859623   -10.836800
 0.970000   0.805217   -10.859550
 0.975000   0.751027   -10.750251
 0.980000   0.697715   -10.510904
 0.985000   0.645918   -10.156009
 0.990000   0.596155   -9.681931
 0.995000   0.549099   -9.093654
 1.000000   0.505218   -8.458749
201 psinorm nb(10^20/m^3) dnb/dpsiN
 0.000000   0.112070   0.068514
 0.005000   0.112058   -0.073083
 0.010000   0.111339   -0.183743
 0.015000   0.110221   -0.253075
 0.020000   0.108808   -0.306958
 0.025000   0.107151   -0.351027
 0.030000   0.105298   -0.386176
 0.035000   0.103290   -0.413282
 0.040000   0.101165   -0.433716
 0.045000   0.098953   -0.449157
 0.050000   0.096674   -0.459723
 0.055000   0.094355   -0.465880
 0.060000   0.092015   -0.468817
 0.065000   0.089667   -0.468899
 0.070000   0.087326   -0.466243
 0.075000   0.085005   -0.461835
 0.080000   0.082708   -0.455702
 0.085000   0.080448   -0.447567
 0.090000   0.078232   -0.438528
 0.095000   0.076062   -0.428612
 0.100000   0.073946   -0.417089
 0.105000   0.071892   -0.404925
 0.110000   0.069896   -0.392915
 0.115000   0.067962   -0.380590
 0.120000   0.066091   -0.368011
 0.125000   0.064282   -0.355222
 0.130000   0.062538   -0.341860
 0.135000   0.060864   -0.328550
 0.140000   0.059253   -0.315852
 0.145000   0.057705   -0.303301
 0.150000   0.056220   -0.290940
 0.155000   0.054796   -0.278822
 0.160000   0.053432   -0.266988
 0.165000   0.052126   -0.255486
 0.170000   0.050877   -0.244335
 0.175000   0.049683   -0.233554
 0.180000   0.048541   -0.223172
 0.185000   0.047451   -0.213190
 0.190000   0.046409   -0.203611
 0.195000   0.045415   -0.194036
 0.200000   0.044469   -0.184841
 0.205000   0.043566   -0.176455
 0.210000   0.042704   -0.168501
 0.215000   0.041881   -0.160959
 0.220000   0.041095   -0.153818
 0.225000   0.040343   -0.147061
 0.230000   0.039624   -0.140682
 0.235000   0.038936   -0.134666
 0.240000   0.038278   -0.128487
 0.245000   0.037651   -0.122692
 0.250000   0.037051   -0.117778
 0.255000   0.036474   -0.113171
 0.260000   0.035919   -0.108851
 0.265000   0.035385   -0.104805
 0.270000   0.034871   -0.100632
 0.275000   0.034379   -0.096701
 0.280000   0.033904   -0.093443
 0.285000   0.033444   -0.090449
 0.290000   0.032999   -0.087643
 0.295000   0.032568   -0.084807
 0.300000   0.032151   -0.082009
 0.305000   0.031748   -0.079635
 0.310000   0.031355   -0.077591
 0.315000   0.030972   -0.075678
 0.320000   0.030598   -0.073657
 0.325000   0.030235   -0.071721
 0.330000   0.029881   -0.070152
 0.335000   0.029534   -0.068741
 0.340000   0.029194   -0.067355
 0.345000   0.028860   -0.065927
 0.350000   0.028534   -0.064688
 0.355000   0.028213   -0.063685
 0.360000   0.027897   -0.062721
 0.365000   0.027586   -0.061648
 0.370000   0.027281   -0.060666
 0.375000   0.026980   -0.059912
 0.380000   0.026682   -0.059190
 0.385000   0.026388   -0.058350
 0.390000   0.026098   -0.057560
 0.395000   0.025812   -0.056961
 0.400000   0.025529   -0.056372
 0.405000   0.025248   -0.055675
 0.410000   0.024972   -0.055012
 0.415000   0.024698   -0.054499
 0.420000   0.024427   -0.053973
 0.425000   0.024158   -0.053353
 0.430000   0.023893   -0.052769
 0.435000   0.023631   -0.052299
 0.440000   0.023370   -0.051782
 0.445000   0.023113   -0.051193
 0.450000   0.022859   -0.050663
 0.455000   0.022606   -0.050219
 0.460000   0.022356   -0.049703
 0.465000   0.022109   -0.049141
 0.470000   0.021865   -0.048657
 0.475000   0.021623   -0.048224
 0.480000   0.021383   -0.047686
 0.485000   0.021146   -0.047143
 0.490000   0.020911   -0.046719
 0.495000   0.020679   -0.046290
 0.500000   0.020448   -0.045775
 0.505000   0.020221   -0.045294
 0.510000   0.019995   -0.044916
 0.515000   0.019772   -0.044494
 0.520000   0.019550   -0.044028
 0.525000   0.019331   -0.043621
 0.530000   0.019114   -0.043271
 0.535000   0.018899   -0.042857
 0.540000   0.018686   -0.042437
 0.545000   0.018474   -0.042101
 0.550000   0.018265   -0.041790
 0.555000   0.018056   -0.041411
 0.560000   0.017851   -0.041055
 0.565000   0.017646   -0.040794
 0.570000   0.017443   -0.040525
 0.575000   0.017241   -0.040232
 0.580000   0.017040   -0.039981
 0.585000   0.016841   -0.039791
 0.590000   0.016642   -0.039596
 0.595000   0.016445   -0.039405
 0.600000   0.016248   -0.039258
 0.605000   0.016052   -0.039146
 0.610000   0.015857   -0.039039
 0.615000   0.015662   -0.038953
 0.620000   0.015467   -0.038900
 0.625000   0.015273   -0.038868
 0.630000   0.015079   -0.038852
 0.635000   0.014884   -0.038862
 0.640000   0.014690   -0.038894
 0.645000   0.014495   -0.038939
 0.650000   0.014301   -0.039014
 0.655000   0.014105   -0.039120
 0.660000   0.013909   -0.039236
 0.665000   0.013713   -0.039357
 0.670000   0.013516   -0.039508
 0.675000   0.013318   -0.039697
 0.680000   0.013119   -0.039887
 0.685000   0.012919   -0.040069
 0.690000   0.012718   -0.040266
 0.695000   0.012516   -0.040506
 0.700000   0.012313   -0.040748
 0.705000   0.012109   -0.040966
 0.710000   0.011903   -0.041192
 0.715000   0.011697   -0.041463
 0.720000   0.011489   -0.041759
 0.725000   0.011279   -0.042031
 0.730000   0.011069   -0.042299
 0.735000   0.010856   -0.042577
 0.740000   0.010643   -0.042911
 0.745000   0.010427   -0.043249
 0.750000   0.010210   -0.043538
 0.755000   0.009992   -0.043827
 0.760000   0.009772   -0.044114
 0.765000   0.009551   -0.044433
 0.770000   0.009328   -0.044737
 0.775000   0.009103   -0.044987
 0.780000   0.008878   -0.045224
 0.785000   0.008651   -0.045450
 0.790000   0.008423   -0.045676
 0.795000   0.008194   -0.045896
 0.800000   0.007964   -0.046083
 0.805000   0.007734   -0.046245
 0.810000   0.007502   -0.046391
 0.815000   0.007270   -0.046519
 0.820000   0.007037   -0.046630
 0.825000   0.006803   -0.046717
 0.830000   0.006570   -0.046765
 0.835000   0.006336   -0.046777
 0.840000   0.006102   -0.046758
 0.845000   0.005868   -0.046702
 0.850000   0.005635   -0.046606
 0.855000   0.005402   -0.046462
 0.860000   0.005170   -0.046269
 0.865000   0.004939   -0.046093
 0.870000   0.004709   -0.045996
 0.875000   0.004479   -0.045964
 0.880000   0.004250   -0.045988
 0.885000   0.004020   -0.046052
 0.890000   0.003789   -0.046133
 0.895000   0.003558   -0.046208
 0.900000   0.003327   -0.046254
 0.905000   0.003096   -0.046242
 0.910000   0.002865   -0.046136
 0.915000   0.002634   -0.045816
 0.920000   0.002406   -0.045163
 0.925000   0.002183   -0.044165
 0.930000   0.001965   -0.042872
 0.935000   0.001754   -0.041375
 0.940000   0.001551   -0.039773
 0.945000   0.001356   -0.038112
 0.950000   0.001170   -0.036276
 0.955000   0.000993   -0.033914
 0.960000   0.000831   -0.030722
 0.965000   0.000686   -0.026779
 0.970000   0.000563   -0.022500
 0.975000   0.000461   -0.018316
 0.980000   0.000380   -0.014825
 0.985000   0.000313   -0.012668
 0.990000   0.000253   -0.011673
 0.995000   0.000196   -0.011636
 1.000000   0.000137   -0.012165
201 psinorm pb(KPa) dpb/dpsiN
 0.000000   46.014626   1.237440
 0.005000   45.885331   -52.955447
 0.010000   45.485071   -95.859861
 0.015000   44.926732   -122.700292
 0.020000   44.258069   -142.949239
 0.025000   43.497240   -159.446657
 0.030000   42.663602   -172.207661
 0.035000   41.775163   -181.705334
 0.040000   40.846549   -188.636507
 0.045000   39.888798   -193.582538
 0.050000   38.910723   -196.721189
 0.055000   37.921586   -198.193941
 0.060000   36.928784   -198.318894
 0.065000   35.938397   -197.369421
 0.070000   34.955090   -195.411195
 0.075000   33.984285   -192.839557
 0.080000   33.026694   -189.659605
 0.085000   32.087689   -185.712877
 0.090000   31.169565   -181.475569
 0.095000   30.272934   -176.949617
 0.100000   29.400069   -171.821521
 0.105000   28.554719   -166.466472
 0.110000   27.735404   -161.223099
 0.115000   26.942488   -155.924630
 0.120000   26.176158   -150.577432
 0.125000   25.436713   -145.181289
 0.130000   24.724345   -139.590157
 0.135000   24.040812   -134.043980
 0.140000   23.383905   -128.781297
 0.145000   22.752999   -123.610326
 0.150000   22.147802   -118.515724
 0.155000   21.567841   -113.528263
 0.160000   21.012520   -108.671108
 0.165000   20.481130   -103.957138
 0.170000   19.972948   -99.395886
 0.175000   19.487171   -94.995465
 0.180000   19.022994   -90.751360
 0.185000   18.579658   -86.674719
 0.190000   18.156246   -82.779855
 0.195000   17.751859   -78.902772
 0.200000   17.367219   -75.184405
 0.205000   17.000015   -71.790388
 0.210000   16.649315   -68.573349
 0.215000   16.314282   -65.524110
 0.220000   15.994074   -62.639825
 0.225000   15.687884   -59.913851
 0.230000   15.394935   -57.342038
 0.235000   15.114463   -54.917582
 0.240000   14.845759   -52.436882
 0.245000   14.590094   -50.111602
 0.250000   14.344643   -48.133262
 0.255000   14.108762   -46.278986
 0.260000   13.881853   -44.540686
 0.265000   13.663355   -42.912567
 0.270000   13.452728   -41.240983
 0.275000   13.250945   -39.677109
 0.280000   13.055957   -38.377215
 0.285000   12.867173   -37.171621
 0.290000   12.684240   -36.039100
 0.295000   12.506782   -34.898760
 0.300000   12.335253   -33.776008
 0.305000   12.169022   -32.817378
 0.310000   12.007079   -31.986827
 0.315000   11.849154   -31.208612
 0.320000   11.694993   -30.392768
 0.325000   11.545226   -29.610704
 0.330000   11.398886   -28.967132
 0.335000   11.255555   -28.384478
 0.340000   11.115041   -27.816768
 0.345000   10.977387   -27.238891
 0.350000   10.842652   -26.732768
 0.355000   10.710059   -26.316042
 0.360000   10.579492   -25.915479
 0.365000   10.450904   -25.477026
 0.370000   10.324722   -25.073907
 0.375000   10.200165   -24.755167
 0.380000   10.077170   -24.448287
 0.385000   9.955682   -24.100110
 0.390000   9.836169   -23.769153
 0.395000   9.717991   -23.507102
 0.400000   9.601098   -23.252195
 0.405000   9.485469   -22.961411
 0.410000   9.371484   -22.684254
 0.415000   9.258626   -22.460716
 0.420000   9.146876   -22.232638
 0.425000   9.036300   -21.972283
 0.430000   8.927154   -21.724786
 0.435000   8.819052   -21.516567
 0.440000   8.711988   -21.292362
 0.445000   8.606129   -21.042384
 0.450000   8.501564   -20.813089
 0.455000   8.397998   -20.614629
 0.460000   8.295418   -20.391451
 0.465000   8.194083   -20.151704
 0.470000   8.093901   -19.938895
 0.475000   7.994694   -19.744584
 0.480000   7.896455   -19.513996
 0.485000   7.799554   -19.282880
 0.490000   7.703626   -19.093760
 0.495000   7.608617   -18.903615
 0.500000   7.514590   -18.685132
 0.505000   7.421765   -18.479570
 0.510000   7.329794   -18.310145
 0.515000   7.238664   -18.126759
 0.520000   7.148527   -17.930219
 0.525000   7.059362   -17.754494
 0.530000   6.970982   -17.598033
 0.535000   6.883381   -17.418534
 0.540000   6.796796   -17.234847
 0.545000   6.711033   -17.079187
 0.550000   6.626005   -16.932131
 0.555000   6.541712   -16.760931
 0.560000   6.458395   -16.597477
 0.565000   6.375737   -16.467511
 0.570000   6.293720   -16.334940
 0.575000   6.212387   -16.195203
 0.580000   6.131768   -16.070580
 0.585000   6.051682   -15.966568
 0.590000   5.972102   -15.863259
 0.595000   5.893049   -15.761892
 0.600000   5.814484   -15.673621
 0.605000   5.736313   -15.596828
 0.610000   5.658515   -15.522853
 0.615000   5.581084   -15.456593
 0.620000   5.503949   -15.402260
 0.625000   5.427062   -15.354757
 0.630000   5.350402   -15.311888
 0.635000   5.273943   -15.278473
 0.640000   5.197617   -15.252585
 0.645000   5.121417   -15.229441
 0.650000   5.045323   -15.217969
 0.655000   4.969237   -15.216845
 0.660000   4.893154   -15.216991
 0.665000   4.817067   -15.220034
 0.670000   4.740954   -15.233479
 0.675000   4.664733   -15.259202
 0.680000   4.588362   -15.284153
 0.685000   4.511891   -15.304842
 0.690000   4.435313   -15.329200
 0.695000   4.358599   -15.365108
 0.700000   4.281662   -15.400511
 0.705000   4.204594   -15.428320
 0.710000   4.127379   -15.459159
 0.715000   4.050002   -15.504364
 0.720000   3.972335   -15.558259
 0.725000   3.894420   -15.605078
 0.730000   3.816285   -15.650259
 0.735000   3.737917   -15.698492
 0.740000   3.659300   -15.764378
 0.745000   3.580273   -15.830580
 0.750000   3.500994   -15.880756
 0.755000   3.421466   -15.929904
 0.760000   3.341695   -15.977791
 0.765000   3.261688   -16.031660
 0.770000   3.181378   -16.077775
 0.775000   3.100910   -16.106542
 0.780000   3.020313   -16.129806
 0.785000   2.939612   -16.148230
 0.790000   2.858831   -16.164649
 0.795000   2.777966   -16.176788
 0.800000   2.697063   -16.179579
 0.805000   2.616170   -16.175235
 0.810000   2.535310   -16.165811
 0.815000   2.454512   -16.150472
 0.820000   2.373806   -16.127740
 0.825000   2.293234   -16.094544
 0.830000   2.212860   -16.050139
 0.835000   2.132733   -15.996076
 0.840000   2.052899   -15.931894
 0.845000   1.973414   -15.856067
 0.850000   1.894339   -15.767228
 0.855000   1.815742   -15.663058
 0.860000   1.737708   -15.537634
 0.865000   1.660365   -15.411359
 0.870000   1.583595   -15.302913
 0.875000   1.507336   -15.205193
 0.880000   1.431543   -15.116086
 0.885000   1.356175   -15.031867
 0.890000   1.281224   -14.946796
 0.895000   1.206707   -14.856340
 0.900000   1.132661   -14.754714
 0.905000   1.059160   -14.634206
 0.910000   0.986319   -14.483694
 0.915000   0.914323   -14.262895
 0.920000   0.843690   -13.954036
 0.925000   0.774783   -13.568702
 0.930000   0.708003   -13.116505
 0.935000   0.643618   -12.636043
 0.940000   0.581642   -12.191090
 0.945000   0.521707   -11.849356
 0.950000   0.463149   -11.634066
 0.955000   0.405366   -11.466325
 0.960000   0.348485   -11.196660
 0.965000   0.293400   -10.704613
 0.970000   0.241439   -9.950704
 0.975000   0.193893   -8.933089
 0.980000   0.152108   -7.737597
 0.985000   0.116517   -6.505954
 0.990000   0.087049   -5.256362
 0.995000   0.063953   -4.263032
 1.000000   0.044418   -3.550835
201 psinorm ptot(KPa) dptot/dpsiN
 0.000000   96.881713   -67.209950
 0.005000   96.439556   -109.652700
 0.010000   95.785186   -143.603302
 0.015000   95.003523   -165.236015
 0.020000   94.132825   -181.698463
 0.025000   93.186538   -195.324146
 0.030000   92.179584   -206.045801
 0.035000   91.126080   -214.253794
 0.040000   90.037046   -220.515089
 0.045000   88.920929   -225.256727
 0.050000   87.784479   -228.642012
 0.055000   86.634509   -230.764149
 0.060000   85.476837   -231.829341
 0.065000   84.316216   -232.071786
 0.070000   83.156119   -231.536486
 0.075000   82.000851   -230.525986
 0.080000   80.850859   -229.040686
 0.085000   79.710444   -226.941734
 0.090000   78.581442   -224.607197
 0.095000   77.464372   -222.035248
 0.100000   76.361090   -218.973672
 0.105000   75.274635   -215.712804
 0.110000   74.203962   -212.517777
 0.115000   73.149458   -209.256751
 0.120000   72.111394   -205.927691
 0.125000   71.090181   -202.523363
 0.130000   70.086160   -198.927354
 0.135000   69.100907   -195.321507
 0.140000   68.132945   -191.885672
 0.145000   67.182050   -188.461145
 0.150000   66.248334   -185.027006
 0.155000   65.331780   -181.605164
 0.160000   64.432282   -178.211742
 0.165000   63.549663   -174.849092
 0.170000   62.683791   -171.519716
 0.175000   61.834466   -168.229974
 0.180000   61.001492   -164.972359
 0.185000   60.184742   -161.756950
 0.190000   59.383922   -158.593795
 0.195000   58.598804   -155.344046
 0.200000   57.830482   -152.135090
 0.205000   57.077453   -149.112702
 0.210000   56.339355   -146.159250
 0.215000   55.615861   -143.277486
 0.220000   54.906580   -140.476499
 0.225000   54.211096   -137.768432
 0.230000   53.528896   -135.171037
 0.235000   52.859386   -132.681814
 0.240000   52.202077   -130.127918
 0.245000   51.558106   -127.687579
 0.250000   50.925202   -125.525218
 0.255000   50.302854   -123.472928
 0.260000   49.690472   -121.501738
 0.265000   49.087837   -119.577287
 0.270000   48.494699   -117.571673
 0.275000   47.912120   -115.605931
 0.280000   47.338640   -113.806363
 0.285000   46.774056   -112.028074
 0.290000   46.218359   -110.243286
 0.295000   45.671624   -108.385606
 0.300000   45.134503   -106.490810
 0.305000   44.606715   -104.687059
 0.310000   44.087633   -102.947781
 0.315000   43.577238   -101.184607
 0.320000   43.075787   -99.340116
 0.325000   42.583836   -97.524036
 0.330000   42.100546   -95.839888
 0.335000   41.625438   -94.239295
 0.340000   41.158153   -92.694263
 0.345000   40.698495   -91.189191
 0.350000   40.246261   -89.807231
 0.355000   39.800423   -88.562702
 0.360000   39.360634   -87.378970
 0.365000   38.926633   -86.205845
 0.370000   38.498576   -85.102760
 0.375000   38.075605   -84.128069
 0.380000   37.657295   -83.204471
 0.385000   37.243561   -82.250470
 0.390000   36.834791   -81.311469
 0.395000   36.430446   -80.423106
 0.400000   36.030560   -79.519312
 0.405000   35.635253   -78.554340
 0.410000   35.245016   -77.553196
 0.415000   34.859721   -76.549707
 0.420000   34.479519   -75.517478
 0.425000   34.104546   -74.447543
 0.430000   33.735044   -73.390604
 0.435000   33.370640   -72.369989
 0.440000   33.011344   -71.346735
 0.445000   32.657173   -70.335052
 0.450000   32.307993   -69.377801
 0.455000   31.963395   -68.478659
 0.460000   31.623207   -67.590739
 0.465000   31.287487   -66.717524
 0.470000   30.956031   -65.901574
 0.475000   30.628472   -65.149092
 0.480000   30.304540   -64.409560
 0.485000   29.984376   -63.706833
 0.490000   29.667472   -63.077412
 0.495000   29.353602   -62.484036
 0.500000   29.042632   -61.900837
 0.505000   28.734593   -61.346226
 0.510000   28.429170   -60.824474
 0.515000   28.126349   -60.290761
 0.520000   27.826262   -59.747336
 0.525000   27.528875   -59.226098
 0.530000   27.234001   -58.725741
 0.535000   26.941618   -58.210350
 0.540000   26.651897   -57.697547
 0.545000   26.364642   -57.214421
 0.550000   26.079753   -56.743404
 0.555000   25.797208   -56.254468
 0.560000   25.517209   -55.773833
 0.565000   25.239470   -55.327270
 0.570000   24.963936   -54.884425
 0.575000   24.690626   -54.438677
 0.580000   24.419549   -54.009462
 0.585000   24.150531   -53.601280
 0.590000   23.883536   -53.196253
 0.595000   23.618569   -52.796375
 0.600000   23.355573   -52.410808
 0.605000   23.094461   -52.036052
 0.610000   22.835212   -51.664087
 0.615000   22.577820   -51.299173
 0.620000   22.322220   -50.946297
 0.625000   22.068357   -50.598997
 0.630000   21.816230   -50.252129
 0.635000   21.565836   -49.909878
 0.640000   21.317132   -49.569707
 0.645000   21.070138   -49.226482
 0.650000   20.824867   -48.888883
 0.655000   20.581250   -48.554400
 0.660000   20.339323   -48.215426
 0.665000   20.099095   -47.878245
 0.670000   19.860540   -47.553164
 0.675000   19.623564   -47.244179
 0.680000   19.388098   -46.943602
 0.685000   19.154128   -46.639618
 0.690000   18.921702   -46.322960
 0.695000   18.690898   -45.994057
 0.700000   18.461762   -45.637985
 0.705000   18.234518   -45.245702
 0.710000   18.009305   -44.819782
 0.715000   17.786320   -44.376413
 0.720000   17.565541   -43.932760
 0.725000   17.346993   -43.484536
 0.730000   17.130695   -43.039618
 0.735000   16.916597   -42.608254
 0.740000   16.704613   -42.205002
 0.745000   16.494547   -41.824433
 0.750000   16.286368   -41.467376
 0.755000   16.079873   -41.148537
 0.760000   15.874883   -40.867780
 0.765000   15.671195   -40.636863
 0.770000   15.468514   -40.455532
 0.775000   15.266640   -40.328159
 0.780000   15.065233   -40.245726
 0.785000   14.864182   -40.182938
 0.790000   14.663403   -40.133571
 0.795000   14.462847   -40.084819
 0.800000   14.262555   -40.028051
 0.805000   14.062566   -39.958179
 0.810000   13.862973   -39.857879
 0.815000   13.663987   -39.727820
 0.820000   13.465695   -39.581284
 0.825000   13.268175   -39.418914
 0.830000   13.071506   -39.245137
 0.835000   12.875723   -39.068551
 0.840000   12.680821   -38.870331
 0.845000   12.487020   -38.628278
 0.850000   12.294538   -38.340694
 0.855000   12.103613   -38.003687
 0.860000   11.914501   -37.618037
 0.865000   11.727433   -37.236617
 0.870000   11.542135   -36.844881
 0.875000   11.358984   -36.391880
 0.880000   11.178216   -35.896787
 0.885000   11.000016   -35.379284
 0.890000   10.824423   -34.887514
 0.895000   10.651141   -34.567072
 0.900000   10.478752   -34.513986
 0.905000   10.306001   -34.933915
 0.910000   10.129413   -36.299298
 0.915000   9.943008   -39.193340
 0.920000   9.737480   -44.441492
 0.925000   9.498593   -53.204233
 0.930000   9.205437   -66.478009
 0.935000   8.833813   -84.958148
 0.940000   8.355856   -108.684161
 0.945000   7.746971   -135.988107
 0.950000   6.995975   -163.088421
 0.955000   6.116087   -184.499443
 0.960000   5.150981   -194.397228
 0.965000   4.172115   -189.001992
 0.970000   3.260961   -168.561501
 0.975000   2.486500   -137.687414
 0.980000   1.884086   -103.904223
 0.985000   1.447458   -74.171796
 0.990000   1.142369   -51.867286
 0.995000   0.928785   -37.016084
 1.000000   0.772208   -25.614737
201 psinorm omeg(kRad/s) domeg/dpsiN
 0.000000   54.077324   0.013020
 0.005000   54.076963   -0.157755
 0.010000   54.075747   -0.349314
 0.015000   54.073469   -0.584709
 0.020000   54.069900   -0.867595
 0.025000   54.064793   -1.200080
 0.030000   54.057899   -1.582771
 0.035000   54.048966   -2.014617
 0.040000   54.037753   -2.490729
 0.045000   54.024058   -3.008206
 0.050000   54.007671   -3.566036
 0.055000   53.988398   -4.160215
 0.060000   53.966069   -4.786710
 0.065000   53.940531   -5.440828
 0.070000   53.911660   -6.108007
 0.075000   53.879451   -6.785399
 0.080000   53.843806   -7.481039
 0.085000   53.804641   -8.193424
 0.090000   53.761872   -8.924097
 0.095000   53.715400   -9.677198
 0.100000   53.665100   -10.449989
 0.105000   53.610900   -11.246097
 0.110000   53.552639   -12.071073
 0.115000   53.490189   -12.920059
 0.120000   53.423439   -13.792884
 0.125000   53.352260   -14.693629
 0.130000   53.276502   -15.625527
 0.135000   53.196005   -16.591378
 0.140000   53.110588   -17.589177
 0.145000   53.020113   -18.613443
 0.150000   52.924454   -19.662941
 0.155000   52.823484   -20.738677
 0.160000   52.717067   -21.843295
 0.165000   52.605051   -22.980949
 0.170000   52.487258   -24.148166
 0.175000   52.363569   -25.334133
 0.180000   52.233916   -26.528674
 0.185000   52.098282   -27.721859
 0.190000   51.956698   -28.902146
 0.195000   51.809261   -30.057027
 0.200000   51.656128   -31.188138
 0.205000   51.497380   -32.295852
 0.210000   51.333169   -33.363943
 0.215000   51.163740   -34.371122
 0.220000   50.989458   -35.275711
 0.225000   50.810983   -36.012138
 0.230000   50.629336   -36.607793
 0.235000   50.444905   -37.101888
 0.240000   50.258318   -37.472861
 0.245000   50.070176   -37.727988
 0.250000   49.881038   -37.862910
 0.255000   49.691547   -37.840049
 0.260000   49.502637   -37.764907
 0.265000   49.313898   -37.697631
 0.270000   49.125661   -37.566070
 0.275000   48.938238   -37.377032
 0.280000   48.751891   -37.138675
 0.285000   48.566851   -36.822213
 0.290000   48.383668   -36.545439
 0.295000   48.201396   -36.391900
 0.300000   48.019749   -36.305269
 0.305000   47.838344   -36.300684
 0.310000   47.656743   -36.383147
 0.315000   47.474512   -36.532806
 0.320000   47.291415   -36.690841
 0.325000   47.107604   -36.812524
 0.330000   46.923289   -36.894663
 0.335000   46.738657   -36.941208
 0.340000   46.553877   -36.954887
 0.345000   46.369108   -36.928388
 0.350000   46.184593   -36.870275
 0.355000   46.000406   -36.794177
 0.360000   45.816652   -36.696754
 0.365000   45.633438   -36.579343
 0.370000   45.450858   -36.444601
 0.375000   45.268992   -36.289582
 0.380000   45.087962   -36.124474
 0.385000   44.907747   -35.959106
 0.390000   44.728371   -35.783579
 0.395000   44.549912   -35.588692
 0.400000   44.372484   -35.366534
 0.405000   44.196246   -35.101005
 0.410000   44.021474   -34.790968
 0.415000   43.848336   -34.458267
 0.420000   43.676892   -34.126452
 0.425000   43.507072   -33.827489
 0.430000   43.338617   -33.600051
 0.435000   43.171071   -33.505636
 0.440000   43.003560   -33.582270
 0.445000   42.835249   -33.775697
 0.450000   42.665803   -34.038882
 0.455000   42.494860   -34.366479
 0.460000   42.322139   -34.741361
 0.465000   42.147446   -35.189301
 0.470000   41.970246   -35.695514
 0.475000   41.790491   -36.136181
 0.480000   41.608884   -36.477379
 0.485000   41.425717   -36.751642
 0.490000   41.241367   -36.943444
 0.495000   41.056283   -37.054974
 0.500000   40.870818   -37.059594
 0.505000   40.685687   -36.895753
 0.510000   40.501860   -36.623603
 0.515000   40.319451   -36.384753
 0.520000   40.138013   -36.284263
 0.525000   39.956608   -36.442744
 0.530000   39.773585   -37.012675
 0.535000   39.586482   -37.845051
 0.540000   39.395135   -38.763748
 0.545000   39.198844   -39.801126
 0.550000   38.997123   -40.915467
 0.555000   38.789689   -42.104506
 0.560000   38.576078   -43.487975
 0.565000   38.354810   -44.775163
 0.570000   38.128327   -45.770621
 0.575000   37.897104   -46.673845
 0.580000   37.661588   -47.495271
 0.585000   37.422151   -48.260486
 0.590000   37.178983   -49.054393
 0.595000   36.931607   -49.747603
 0.600000   36.681507   -50.310309
 0.605000   36.428504   -50.932576
 0.610000   36.172182   -51.653345
 0.615000   35.911970   -52.495987
 0.620000   35.647222   -53.376981
 0.625000   35.378201   -54.308768
 0.630000   35.104134   -55.359703
 0.635000   34.824603   -56.475992
 0.640000   34.539374   -57.624232
 0.645000   34.248361   -58.776627
 0.650000   33.951608   -59.764357
 0.655000   33.650718   -60.715932
 0.660000   33.344449   -61.865421
 0.665000   33.032063   -63.181618
 0.670000   32.712632   -64.732170
 0.675000   32.384742   -66.615247
 0.680000   32.046480   -68.997937
 0.685000   31.694762   -72.027077
 0.690000   31.326209   -75.544380
 0.695000   30.939319   -79.232730
 0.700000   30.533882   -82.839279
 0.705000   30.110926   -86.129546
 0.710000   29.672586   -88.909547
 0.715000   29.221830   -91.043497
 0.720000   28.762151   -92.570842
 0.725000   28.296122   -93.588516
 0.730000   27.826266   -94.099875
 0.735000   27.355123   -94.106387
 0.740000   26.885202   -93.540753
 0.745000   26.419716   -92.433760
 0.750000   25.960865   -90.991978
 0.755000   25.509796   -89.309485
 0.760000   25.067770   -87.463644
 0.765000   24.635159   -85.646585
 0.770000   24.211304   -84.148215
 0.775000   23.793677   -83.329602
 0.780000   23.378008   -83.022523
 0.785000   22.963452   -82.759120
 0.790000   22.550417   -82.308266
 0.795000   22.140369   -81.485295
 0.800000   21.735564   -80.257451
 0.805000   21.337795   -78.619057
 0.810000   20.949373   -76.297928
 0.815000   20.574815   -73.340907
 0.820000   20.215964   -70.082191
 0.825000   19.873994   -66.660918
 0.830000   19.549355   -63.276843
 0.835000   19.241225   -60.191801
 0.840000   18.947437   -57.403859
 0.845000   18.667187   -55.104224
 0.850000   18.396395   -53.824928
 0.855000   18.128937   -53.977188
 0.860000   17.856623   -55.998137
 0.865000   17.568956   -60.456729
 0.870000   17.252056   -67.577672
 0.875000   16.893179   -77.471306
 0.880000   16.477343   -90.414220
 0.885000   15.989037   -106.410580
 0.890000   15.413237   -125.232719
 0.895000   14.736710   -146.709700
 0.900000   13.946140   -169.290930
 0.905000   13.043800   -191.020554
 0.910000   12.035934   -210.591277
 0.915000   10.937888   -226.143089
 0.920000   9.774503   -235.840862
 0.925000   8.579479   -238.196640
 0.930000   7.392537   -231.852451
 0.935000   6.260955   -216.381602
 0.940000   5.228721   -192.507227
 0.945000   4.335882   -161.436536
 0.950000   3.614356   -125.219930
 0.955000   3.083683   -86.561298
 0.960000   2.748743   -48.922597
 0.965000   2.594457   -15.594432
 0.970000   2.592798   11.287918
 0.975000   2.707336   30.506438
 0.980000   2.897863   41.753172
 0.985000   3.124868   45.379939
 0.990000   3.351662   42.584262
 0.995000   3.550711   34.974088
 1.000000   3.701403   25.302859
201 psinorm omegp(kRad/s) domegp/dpsiN
 0.000000   -0.049437   170.880165
 0.005000   0.623852   98.435526
 0.010000   0.934918   58.989381
 0.015000   1.213746   54.428022
 0.020000   1.479198   51.568652
 0.025000   1.729432   48.797322
 0.030000   1.967172   45.483590
 0.035000   2.184268   42.289148
 0.040000   2.390063   39.393696
 0.045000   2.578205   36.439736
 0.050000   2.754460   34.302799
 0.055000   2.921233   32.882194
 0.060000   3.083282   32.039922
 0.065000   3.241633   31.268257
 0.070000   3.395965   30.557867
 0.075000   3.547211   30.001338
 0.080000   3.695978   29.268286
 0.085000   3.839894   27.887251
 0.090000   3.974851   26.177969
 0.095000   4.101674   24.303403
 0.100000   4.217885   22.133616
 0.105000   4.323010   19.788431
 0.110000   4.415769   17.451650
 0.115000   4.497526   15.089495
 0.120000   4.566664   12.948882
 0.125000   4.627015   11.383661
 0.130000   4.680501   10.237040
 0.135000   4.729386   9.383636
 0.140000   4.774337   8.607754
 0.145000   4.815463   8.061450
 0.150000   4.854952   7.618796
 0.155000   4.891651   6.838273
 0.160000   4.923334   6.060927
 0.165000   4.952260   4.981976
 0.170000   4.973154   3.545941
 0.175000   4.987720   2.173194
 0.180000   4.994886   0.520939
 0.185000   4.992929   -1.245267
 0.190000   4.982433   -2.933044
 0.195000   4.963599   -4.608096
 0.200000   4.936352   -6.239276
 0.205000   4.901206   -7.744745
 0.210000   4.858905   -9.157429
 0.215000   4.809632   -10.415524
 0.220000   4.754750   -11.464084
 0.225000   4.694991   -12.502914
 0.230000   4.629721   -13.630787
 0.235000   4.558683   -14.750345
 0.240000   4.482217   -15.984965
 0.245000   4.398833   -17.333167
 0.250000   4.308885   -18.734725
 0.255000   4.211486   -20.133744
 0.260000   4.107548   -21.534326
 0.265000   3.996143   -23.032083
 0.270000   3.877227   -24.407818
 0.275000   3.752065   -25.527675
 0.280000   3.621950   -26.650855
 0.285000   3.485556   -27.660279
 0.290000   3.345348   -28.400052
 0.295000   3.201556   -29.131526
 0.300000   3.054032   -29.749458
 0.305000   2.904061   -30.248182
 0.310000   2.751551   -30.795083
 0.315000   2.596110   -31.317056
 0.320000   2.438380   -31.866542
 0.325000   2.277445   -32.487664
 0.330000   2.113503   -33.134203
 0.335000   1.946103   -33.851685
 0.340000   1.774986   -34.513015
 0.345000   1.600973   -35.066161
 0.350000   1.424325   -35.505365
 0.355000   1.245919   -35.732412
 0.360000   1.067001   -35.979040
 0.365000   0.886129   -36.161581
 0.370000   0.705385   -36.256440
 0.375000   0.523564   -36.419116
 0.380000   0.341194   -36.646301
 0.385000   0.157101   -36.861572
 0.390000   -0.027422   -37.115028
 0.395000   -0.214049   -37.452981
 0.400000   -0.401952   -37.730185
 0.405000   -0.591351   -38.038168
 0.410000   -0.782333   -38.247245
 0.415000   -0.973823   -38.223311
 0.420000   -1.164567   -38.264741
 0.425000   -1.356471   -38.627699
 0.430000   -1.550844   -39.473328
 0.435000   -1.751204   -41.019086
 0.440000   -1.961034   -43.774121
 0.445000   -2.188945   -47.251907
 0.450000   -2.433553   -50.693628
 0.455000   -2.695882   -54.172327
 0.460000   -2.975277   -57.448403
 0.465000   -3.270366   -60.321804
 0.470000   -3.578495   -62.536635
 0.475000   -3.895732   -63.324035
 0.480000   -4.211735   -62.401087
 0.485000   -4.519743   -60.212161
 0.490000   -4.813857   -56.882359
 0.495000   -5.088566   -52.328652
 0.500000   -5.337143   -46.711021
 0.505000   -5.555677   -40.863907
 0.510000   -5.745782   -35.293227
 0.515000   -5.908609   -29.950359
 0.520000   -6.045286   -25.139869
 0.525000   -6.160008   -20.926160
 0.530000   -6.254548   -17.450177
 0.535000   -6.334509   -15.174688
 0.540000   -6.406294   -13.811243
 0.545000   -6.472622   -12.998371
 0.550000   -6.536278   -12.434379
 0.555000   -6.596966   -12.062064
 0.560000   -6.656899   -11.696755
 0.565000   -6.713933   -10.910915
 0.570000   -6.766008   -9.784970
 0.575000   -6.811783   -8.360046
 0.580000   -6.849608   -6.679016
 0.585000   -6.878573   -4.735620
 0.590000   -6.896965   -2.604129
 0.595000   -6.904614   -0.483905
 0.600000   -6.901804   1.555109
 0.605000   -6.889063   3.473158
 0.610000   -6.867072   5.028000
 0.615000   -6.838783   6.132031
 0.620000   -6.805752   7.031619
 0.625000   -6.768467   7.622162
 0.630000   -6.729530   7.938373
 0.635000   -6.689083   8.120038
 0.640000   -6.648330   8.190835
 0.645000   -6.607175   8.183915
 0.650000   -6.566491   8.164772
 0.655000   -6.525527   8.273953
 0.660000   -6.483751   8.350165
 0.665000   -6.442026   8.349244
 0.670000   -6.400259   8.373917
 0.675000   -6.358286   8.349039
 0.680000   -6.316768   8.227258
 0.685000   -6.276014   8.129000
 0.690000   -6.235478   8.153055
 0.695000   -6.194483   8.235195
 0.700000   -6.153126   8.213153
 0.705000   -6.112352   8.205854
 0.710000   -6.071068   8.128547
 0.715000   -6.031066   7.719605
 0.720000   -5.993872   6.983962
 0.725000   -5.961227   5.934126
 0.730000   -5.934530   4.530069
 0.735000   -5.915926   2.717875
 0.740000   -5.907352   0.612230
 0.745000   -5.909804   -1.663621
 0.750000   -5.923988   -3.990618
 0.755000   -5.949710   -6.126527
 0.760000   -5.985253   -7.888332
 0.765000   -6.028593   -9.263220
 0.770000   -6.077885   -10.333391
 0.775000   -6.131927   -11.213204
 0.780000   -6.190017   -12.108470
 0.785000   -6.253012   -13.208312
 0.790000   -6.322100   -14.934467
 0.795000   -6.402356   -17.458198
 0.800000   -6.496682   -20.548862
 0.805000   -6.607845   -24.104491
 0.810000   -6.737727   -27.962858
 0.815000   -6.887474   -31.786706
 0.820000   -7.055594   -35.371552
 0.825000   -7.241189   -38.389384
 0.830000   -7.439488   -40.590215
 0.835000   -7.647091   -41.917641
 0.840000   -7.858665   -42.051313
 0.845000   -8.067604   -40.760758
 0.850000   -8.266272   -37.703186
 0.855000   -8.444636   -32.422415
 0.860000   -8.590496   -24.933953
 0.865000   -8.693976   -15.681253
 0.870000   -8.747309   -4.992586
 0.875000   -8.743902   6.574373
 0.880000   -8.681565   18.292559
 0.885000   -8.560976   29.632937
 0.890000   -8.385236   40.139531
 0.895000   -8.159581   49.354173
 0.900000   -7.891694   56.742661
 0.905000   -7.592154   61.809714
 0.910000   -7.273597   64.825605
 0.915000   -6.943898   66.811020
 0.920000   -6.605487   69.059092
 0.925000   -6.253307   71.490649
 0.930000   -5.890580   74.309373
 0.935000   -5.510213   80.863127
 0.940000   -5.081949   93.325396
 0.945000   -4.576960   106.728711
 0.950000   -4.014662   113.405223
 0.955000   -3.442907   104.112663
 0.960000   -2.973535   64.550010
 0.965000   -2.797407   -19.950906
 0.970000   -3.173044   -142.026748
 0.975000   -4.217675   -229.837434
 0.980000   -5.471419   -136.250899
 0.985000   -5.580184   276.888043
 0.990000   -2.702538   943.186424
 0.995000   3.851681   1450.108780
 1.000000   11.798550   1728.638827
201 psinorm omgvb(kRad/s) domgvb/dpsiN
 0.000000   54.027887   170.893185
 0.005000   54.700815   98.277770
 0.010000   55.010665   58.640067
 0.015000   55.287215   53.843313
 0.020000   55.549098   50.701057
 0.025000   55.794226   47.597242
 0.030000   56.025071   43.900819
 0.035000   56.233234   40.274531
 0.040000   56.427816   36.902967
 0.045000   56.602264   33.431531
 0.050000   56.762131   30.736763
 0.055000   56.909631   28.721979
 0.060000   57.049351   27.253212
 0.065000   57.182164   25.827429
 0.070000   57.307625   24.449861
 0.075000   57.426662   23.215938
 0.080000   57.539785   21.787247
 0.085000   57.644535   19.693828
 0.090000   57.736723   17.253872
 0.095000   57.817073   14.626205
 0.100000   57.882985   11.683627
 0.105000   57.933910   8.542333
 0.110000   57.968408   5.380577
 0.115000   57.987715   2.169435
 0.120000   57.990103   -0.844002
 0.125000   57.979275   -3.309967
 0.130000   57.957003   -5.388487
 0.135000   57.925391   -7.207743
 0.140000   57.884926   -8.981423
 0.145000   57.835576   -10.551993
 0.150000   57.779406   -12.044146
 0.155000   57.715135   -13.900404
 0.160000   57.640402   -15.782368
 0.165000   57.557311   -17.998973
 0.170000   57.460412   -20.602225
 0.175000   57.351289   -23.160939
 0.180000   57.228803   -26.007735
 0.185000   57.091212   -28.967127
 0.190000   56.939131   -31.835190
 0.195000   56.772860   -34.665124
 0.200000   56.592480   -37.427414
 0.205000   56.398586   -40.040597
 0.210000   56.192074   -42.521372
 0.215000   55.973372   -44.786646
 0.220000   55.744208   -46.739795
 0.225000   55.505974   -48.515052
 0.230000   55.259057   -50.238580
 0.235000   55.003588   -51.852232
 0.240000   54.740535   -53.457825
 0.245000   54.469010   -55.061156
 0.250000   54.189923   -56.597634
 0.255000   53.903033   -57.973793
 0.260000   53.610185   -59.299233
 0.265000   53.310041   -60.729714
 0.270000   53.002888   -61.973888
 0.275000   52.690302   -62.904708
 0.280000   52.373841   -63.789529
 0.285000   52.052407   -64.482492
 0.290000   51.729016   -64.945491
 0.295000   51.402952   -65.523426
 0.300000   51.073782   -66.054727
 0.305000   50.742405   -66.548866
 0.310000   50.408293   -67.178229
 0.315000   50.070622   -67.849862
 0.320000   49.729795   -68.557383
 0.325000   49.385049   -69.300189
 0.330000   49.036793   -70.028867
 0.335000   48.684760   -70.792893
 0.340000   48.328864   -71.467901
 0.345000   47.970081   -71.994549
 0.350000   47.608918   -72.375640
 0.355000   47.246325   -72.526589
 0.360000   46.883652   -72.675794
 0.365000   46.519567   -72.740924
 0.370000   46.156243   -72.701041
 0.375000   45.792556   -72.708698
 0.380000   45.429156   -72.770775
 0.385000   45.064848   -72.820678
 0.390000   44.700949   -72.898608
 0.395000   44.335862   -73.041673
 0.400000   43.970533   -73.096719
 0.405000   43.604895   -73.139173
 0.410000   43.239141   -73.038213
 0.415000   42.874513   -72.681579
 0.420000   42.512325   -72.391193
 0.425000   42.150601   -72.455188
 0.430000   41.787773   -73.073379
 0.435000   41.419867   -74.524722
 0.440000   41.042526   -77.356391
 0.445000   40.646303   -81.027604
 0.450000   40.232250   -84.732511
 0.455000   39.798978   -88.538806
 0.460000   39.346862   -92.189764
 0.465000   38.877081   -95.511105
 0.470000   38.391751   -98.232149
 0.475000   37.894759   -99.460215
 0.480000   37.397149   -98.878466
 0.485000   36.905975   -96.963803
 0.490000   36.427511   -93.825803
 0.495000   35.967717   -89.383626
 0.500000   35.533674   -83.770615
 0.505000   35.130010   -77.759660
 0.510000   34.756078   -71.916830
 0.515000   34.410842   -66.335112
 0.520000   34.092727   -61.424132
 0.525000   33.796601   -57.368903
 0.530000   33.519038   -54.462852
 0.535000   33.251972   -53.019739
 0.540000   32.988840   -52.574991
 0.545000   32.726222   -52.799497
 0.550000   32.460845   -53.349846
 0.555000   32.192724   -54.166570
 0.560000   31.919180   -55.184729
 0.565000   31.640877   -55.686078
 0.570000   31.362319   -55.555591
 0.575000   31.085321   -55.033891
 0.580000   30.811980   -54.174287
 0.585000   30.543578   -52.996106
 0.590000   30.282019   -51.658522
 0.595000   30.026993   -50.231508
 0.600000   29.779704   -48.755200
 0.605000   29.539441   -47.459418
 0.610000   29.305110   -46.625344
 0.615000   29.073187   -46.363956
 0.620000   28.841470   -46.345361
 0.625000   28.609734   -46.686606
 0.630000   28.374604   -47.421330
 0.635000   28.135520   -48.355953
 0.640000   27.891044   -49.433397
 0.645000   27.641186   -50.592712
 0.650000   27.385117   -51.599585
 0.655000   27.125190   -52.441979
 0.660000   26.860698   -53.515255
 0.665000   26.590038   -54.832373
 0.670000   26.312374   -56.358253
 0.675000   26.026455   -58.266208
 0.680000   25.729712   -60.770679
 0.685000   25.418749   -63.898076
 0.690000   25.090731   -67.391326
 0.695000   24.744835   -70.997535
 0.700000   24.380756   -74.626126
 0.705000   23.998574   -77.923692
 0.710000   23.601519   -80.781001
 0.715000   23.190764   -83.323892
 0.720000   22.768280   -85.586880
 0.725000   22.334895   -87.654390
 0.730000   21.891736   -89.569806
 0.735000   21.439197   -91.388512
 0.740000   20.977851   -92.928523
 0.745000   20.509912   -94.097382
 0.750000   20.036877   -94.982596
 0.755000   19.560086   -95.436012
 0.760000   19.082517   -95.351977
 0.765000   18.606566   -94.909805
 0.770000   18.133419   -94.481606
 0.775000   17.661750   -94.542806
 0.780000   17.187991   -95.130994
 0.785000   16.710440   -95.967432
 0.790000   16.228316   -97.242733
 0.795000   15.738013   -98.943493
 0.800000   15.238881   -100.806313
 0.805000   14.729950   -102.723547
 0.810000   14.211646   -104.260786
 0.815000   13.687342   -105.127613
 0.820000   13.160370   -105.453743
 0.825000   12.632804   -105.050301
 0.830000   12.109867   -103.867059
 0.835000   11.594134   -102.109443
 0.840000   11.088772   -99.455172
 0.845000   10.599582   -95.864981
 0.850000   10.130123   -91.528114
 0.855000   9.684301   -86.399603
 0.860000   9.266127   -80.932090
 0.865000   8.874980   -76.137982
 0.870000   8.504747   -72.570258
 0.875000   8.149277   -70.896933
 0.880000   7.795777   -72.121660
 0.885000   7.428061   -76.777644
 0.890000   7.028001   -85.093189
 0.895000   6.577129   -97.355527
 0.900000   6.054446   -112.548270
 0.905000   5.451646   -129.210839
 0.910000   4.762337   -145.765672
 0.915000   3.993990   -159.332069
 0.920000   3.169017   -166.781769
 0.925000   2.326172   -166.705991
 0.930000   1.501957   -157.543078
 0.935000   0.750741   -135.518476
 0.940000   0.146772   -99.181830
 0.945000   -0.241077   -54.707824
 0.950000   -0.400306   -11.814706
 0.955000   -0.359224   17.551366
 0.960000   -0.224793   15.627413
 0.965000   -0.202950   -35.545338
 0.970000   -0.580246   -130.738830
 0.975000   -1.510338   -199.330996
 0.980000   -2.573556   -94.497727
 0.985000   -2.455316   322.267982
 0.990000   0.649124   985.770686
 0.995000   7.402391   1485.082868
 1.000000   15.499953   1753.941686
201 psinorm omgpp(kRad/s) domgpp/dpsiN
 0.000000   -0.042328   -21.112799
 0.005000   -0.170901   -30.316216
 0.010000   -0.345490   -35.266607
 0.015000   -0.523567   -35.911348
 0.020000   -0.704604   -36.430697
 0.025000   -0.887874   -36.790137
 0.030000   -1.072505   -37.000284
 0.035000   -1.257877   -37.068926
 0.040000   -1.443195   -36.989205
 0.045000   -1.627769   -36.778375
 0.050000   -1.810978   -36.425714
 0.055000   -1.992026   -35.951776
 0.060000   -2.170496   -35.462635
 0.065000   -2.346652   -34.899959
 0.070000   -2.519496   -34.193161
 0.075000   -2.688584   -33.410164
 0.080000   -2.853597   -32.566060
 0.085000   -3.014245   -31.740733
 0.090000   -3.171005   -31.073574
 0.095000   -3.324980   -30.440848
 0.100000   -3.475413   -29.723643
 0.105000   -3.622217   -28.984272
 0.110000   -3.765256   -28.227933
 0.115000   -3.904496   -27.538481
 0.120000   -4.040641   -26.727906
 0.125000   -4.171775   -25.755090
 0.130000   -4.298192   -24.764476
 0.135000   -4.419420   -23.674017
 0.140000   -4.534932   -22.478002
 0.145000   -4.644200   -21.253555
 0.150000   -4.747467   -19.759094
 0.155000   -4.841791   -18.064522
 0.160000   -4.928113   -16.421862
 0.165000   -5.006009   -14.697399
 0.170000   -5.075087   -12.897118
 0.175000   -5.134981   -10.867431
 0.180000   -5.183761   -8.804842
 0.185000   -5.223029   -6.885986
 0.190000   -5.252621   -4.956560
 0.195000   -5.272595   -3.055592
 0.200000   -5.283177   -1.210774
 0.205000   -5.284702   0.844887
 0.210000   -5.274728   2.428276
 0.215000   -5.260420   3.282319
 0.220000   -5.241905   4.063333
 0.225000   -5.219786   4.683187
 0.230000   -5.195073   5.120026
 0.235000   -5.168586   5.214043
 0.240000   -5.142932   5.065980
 0.245000   -5.117926   5.110121
 0.250000   -5.091831   5.326967
 0.255000   -5.064657   5.613568
 0.260000   -5.035695   6.075131
 0.265000   -5.003905   6.513517
 0.270000   -4.970560   7.582830
 0.275000   -4.928077   9.452989
 0.280000   -4.876030   11.172701
 0.285000   -4.816350   12.700252
 0.290000   -4.749028   14.217818
 0.295000   -4.674172   15.800018
 0.300000   -4.591028   17.515886
 0.305000   -4.499013   19.051547
 0.310000   -4.400512   20.379007
 0.315000   -4.295223   21.648267
 0.320000   -4.184029   22.660725
 0.325000   -4.068616   23.416739
 0.330000   -3.949862   23.372917
 0.335000   -3.834886   22.147495
 0.340000   -3.728387   20.771900
 0.345000   -3.627167   19.684528
 0.350000   -3.531542   18.548508
 0.355000   -3.441682   17.294891
 0.360000   -3.358593   15.753537
 0.365000   -3.284147   14.513900
 0.370000   -3.213454   13.724661
 0.375000   -3.146900   12.960905
 0.380000   -3.083845   12.333057
 0.385000   -3.023570   11.721265
 0.390000   -2.966632   11.170743
 0.395000   -2.911862   11.876191
 0.400000   -2.847870   13.230692
 0.405000   -2.779555   14.074323
 0.410000   -2.707127   14.849732
 0.415000   -2.631058   15.546540
 0.420000   -2.551662   16.400879
 0.425000   -2.467049   16.640204
 0.430000   -2.385260   16.110335
 0.435000   -2.305946   15.553238
 0.440000   -2.229727   14.885728
 0.445000   -2.157089   14.136423
 0.450000   -2.088363   13.689443
 0.455000   -2.020194   12.686424
 0.460000   -1.961499   11.208081
 0.465000   -1.908113   10.129773
 0.470000   -1.860201   9.023379
 0.475000   -1.817880   7.895898
 0.480000   -1.781242   6.777525
 0.485000   -1.750104   5.461293
 0.490000   -1.726629   4.120421
 0.495000   -1.708900   3.063182
 0.500000   -1.695997   2.217552
 0.505000   -1.686725   1.635694
 0.510000   -1.679640   1.341864
 0.515000   -1.673306   1.179115
 0.520000   -1.667849   0.885966
 0.525000   -1.664446   0.473310
 0.530000   -1.663116   0.065484
 0.535000   -1.663792   -0.326940
 0.540000   -1.666386   -0.647688
 0.545000   -1.670268   -0.976406
 0.550000   -1.676150   -1.372147
 0.555000   -1.683990   -1.734971
 0.560000   -1.693499   -2.061556
 0.565000   -1.704605   -2.373075
 0.570000   -1.717230   -2.636676
 0.575000   -1.730972   -2.919243
 0.580000   -1.746422   -3.252607
 0.585000   -1.763498   -3.541222
 0.590000   -1.781835   -3.779654
 0.595000   -1.801295   -3.987927
 0.600000   -1.821714   -4.162963
 0.605000   -1.842924   -4.315523
 0.610000   -1.864869   -4.445470
 0.615000   -1.887379   -4.563308
 0.620000   -1.910502   -4.698131
 0.625000   -1.934360   -4.864101
 0.630000   -1.959143   -5.130882
 0.635000   -1.985669   -5.506481
 0.640000   -2.014208   -5.743012
 0.645000   -2.043099   -5.867256
 0.650000   -2.072881   -6.029899
 0.655000   -2.103398   -6.164225
 0.660000   -2.134523   -6.360703
 0.665000   -2.167005   -6.720160
 0.670000   -2.201725   -6.861208
 0.675000   -2.235617   -6.959707
 0.680000   -2.271322   -7.479234
 0.685000   -2.310410   -8.318313
 0.690000   -2.354505   -9.622079
 0.695000   -2.406631   -11.659103
 0.700000   -2.471096   -12.663205
 0.705000   -2.533263   -12.736658
 0.710000   -2.598462   -13.282339
 0.715000   -2.666086   -13.668723
 0.720000   -2.735150   -13.887163
 0.725000   -2.804958   -14.219298
 0.730000   -2.877343   -13.085387
 0.735000   -2.935812   -10.940393
 0.740000   -2.986746   -9.232380
 0.745000   -3.028135   -7.128247
 0.750000   -3.058029   -4.659817
 0.755000   -3.074734   -1.161645
 0.760000   -3.069645   2.233133
 0.765000   -3.052402   4.734171
 0.770000   -3.022304   7.181489
 0.775000   -2.980587   9.301201
 0.780000   -2.929292   10.931542
 0.785000   -2.871272   12.926769
 0.790000   -2.800024   13.039977
 0.795000   -2.740872   11.211000
 0.800000   -2.687914   9.896751
 0.805000   -2.641905   8.304008
 0.810000   -2.604874   6.325239
 0.815000   -2.578652   3.630486
 0.820000   -2.568569   0.651004
 0.825000   -2.572142   -1.132598
 0.830000   -2.579895   -1.741405
 0.835000   -2.589556   -1.980946
 0.840000   -2.599704   -2.017406
 0.845000   -2.609730   -2.221006
 0.850000   -2.621915   -2.524423
 0.855000   -2.634975   -3.215654
 0.860000   -2.654071   -4.836157
 0.865000   -2.683336   -7.183185
 0.870000   -2.725903   -10.161343
 0.875000   -2.784950   -15.015371
 0.880000   -2.876057   -20.822142
 0.885000   -2.993171   -24.696601
 0.890000   -3.123023   -27.722096
 0.895000   -3.270392   -31.214366
 0.900000   -3.435166   -34.821925
 0.905000   -3.618611   -41.201049
 0.910000   -3.847177   -49.735172
 0.915000   -4.115963   -54.545302
 0.920000   -4.392630   -58.484015
 0.925000   -4.700803   -65.181229
 0.930000   -5.044442   -73.002941
 0.935000   -5.430832   -86.479187
 0.940000   -5.909234   -107.078973
 0.945000   -6.501622   -124.104237
 0.950000   -7.150276   -145.966923
 0.955000   -7.961291   -184.824252
 0.960000   -8.998519   -235.306818
 0.965000   -10.314360   -295.580581
 0.970000   -11.954325   -353.371460
 0.975000   -13.848074   -362.306423
 0.980000   -15.577389   -311.048359
 0.985000   -16.958558   -213.082111
 0.990000   -17.708210   -64.519756
 0.995000   -17.603755   111.692547
 1.000000   -16.591285   293.295785
201 psinorm omgeb(kRad/s) domgeb/dpsiN
 0.000000   53.985559   149.780385
 0.005000   54.529914   67.961554
 0.010000   54.665175   23.373460
 0.015000   54.763648   17.931965
 0.020000   54.844494   14.270359
 0.025000   54.906352   10.807105
 0.030000   54.952565   6.900536
 0.035000   54.975357   3.205605
 0.040000   54.984621   -0.086239
 0.045000   54.974495   -3.346844
 0.050000   54.951153   -5.688952
 0.055000   54.917606   -7.229797
 0.060000   54.878855   -8.209423
 0.065000   54.835511   -9.072531
 0.070000   54.788130   -9.743300
 0.075000   54.738078   -10.194225
 0.080000   54.686187   -10.778813
 0.085000   54.630290   -12.046905
 0.090000   54.565718   -13.819701
 0.095000   54.492093   -15.814644
 0.100000   54.407572   -18.040016
 0.105000   54.311693   -20.441938
 0.110000   54.203152   -22.847355
 0.115000   54.083219   -25.369046
 0.120000   53.949462   -27.571908
 0.125000   53.807500   -29.065057
 0.130000   53.658811   -30.152963
 0.135000   53.505971   -30.881760
 0.140000   53.349994   -31.459425
 0.145000   53.191376   -31.805548
 0.150000   53.031938   -31.803239
 0.155000   52.873344   -31.964926
 0.160000   52.712289   -32.204230
 0.165000   52.551302   -32.696372
 0.170000   52.385325   -33.499343
 0.175000   52.216308   -34.028370
 0.180000   52.045042   -34.812577
 0.185000   51.868183   -35.853113
 0.190000   51.686511   -36.791751
 0.195000   51.500265   -37.720716
 0.200000   51.309303   -38.638188
 0.205000   51.113883   -39.195710
 0.210000   50.917346   -40.093096
 0.215000   50.712952   -41.504328
 0.220000   50.502303   -42.676463
 0.225000   50.286188   -43.831865
 0.230000   50.063984   -45.118554
 0.235000   49.835002   -46.638190
 0.240000   49.597602   -48.391846
 0.245000   49.351084   -49.951035
 0.250000   49.098092   -51.270668
 0.255000   48.838377   -52.360225
 0.260000   48.574490   -53.224102
 0.265000   48.306136   -54.216197
 0.270000   48.032328   -54.391058
 0.275000   47.762225   -53.451718
 0.280000   47.497811   -52.616828
 0.285000   47.236057   -51.782240
 0.290000   46.979988   -50.727673
 0.295000   46.728780   -49.723408
 0.300000   46.482754   -48.538841
 0.305000   46.243392   -47.497319
 0.310000   46.007781   -46.799222
 0.315000   45.775400   -46.201595
 0.320000   45.545765   -45.896658
 0.325000   45.316433   -45.883450
 0.330000   45.086931   -46.655950
 0.335000   44.849874   -48.645398
 0.340000   44.600477   -50.696001
 0.345000   44.342914   -52.310021
 0.350000   44.077376   -53.827132
 0.355000   43.804642   -55.231698
 0.360000   43.525059   -56.922257
 0.365000   43.235420   -58.227024
 0.370000   42.942789   -58.976380
 0.375000   42.645656   -59.747793
 0.380000   42.345311   -60.437717
 0.385000   42.041279   -61.099413
 0.390000   41.734317   -61.727865
 0.395000   41.424000   -61.165482
 0.400000   41.122662   -59.866027
 0.405000   40.825340   -59.064849
 0.410000   40.532014   -58.188481
 0.415000   40.243455   -57.135039
 0.420000   39.960663   -55.990314
 0.425000   39.683552   -55.814984
 0.430000   39.402514   -56.963044
 0.435000   39.113921   -58.971483
 0.440000   38.812799   -62.470664
 0.445000   38.489215   -66.891180
 0.450000   38.143887   -71.043068
 0.455000   37.778784   -75.852382
 0.460000   37.385363   -80.981683
 0.465000   36.968967   -85.381332
 0.470000   36.531550   -89.208770
 0.475000   36.076880   -91.564318
 0.480000   35.615907   -92.100941
 0.485000   35.155870   -91.502510
 0.490000   34.700882   -89.705383
 0.495000   34.258816   -86.320444
 0.500000   33.837677   -81.553063
 0.505000   33.443286   -76.123966
 0.510000   33.076437   -70.574965
 0.515000   32.737536   -65.155997
 0.520000   32.424877   -60.538166
 0.525000   32.132154   -56.895593
 0.530000   31.855922   -54.397368
 0.535000   31.588181   -53.346679
 0.540000   31.322455   -53.222680
 0.545000   31.055954   -53.775903
 0.550000   30.784696   -54.721993
 0.555000   30.508734   -55.901541
 0.560000   30.225680   -57.246285
 0.565000   29.936271   -58.059153
 0.570000   29.645089   -58.192267
 0.575000   29.354348   -57.953134
 0.580000   29.065557   -57.426894
 0.585000   28.780080   -56.537328
 0.590000   28.500184   -55.438176
 0.595000   28.225698   -54.219435
 0.600000   27.957990   -52.918163
 0.605000   27.696516   -51.774941
 0.610000   27.440240   -51.070815
 0.615000   27.185808   -50.927265
 0.620000   26.930968   -51.043492
 0.625000   26.675373   -51.550707
 0.630000   26.415461   -52.552212
 0.635000   26.149851   -53.862434
 0.640000   25.876836   -55.176409
 0.645000   25.598087   -56.459968
 0.650000   25.312237   -57.629484
 0.655000   25.021792   -58.606203
 0.660000   24.726175   -59.875959
 0.665000   24.423032   -61.552533
 0.670000   24.110649   -63.219461
 0.675000   23.790838   -65.225915
 0.680000   23.458390   -68.249914
 0.685000   23.108339   -72.216389
 0.690000   22.736226   -77.013405
 0.695000   22.338205   -82.656638
 0.700000   21.909660   -87.289331
 0.705000   21.465311   -90.660350
 0.710000   21.003056   -94.063340
 0.715000   20.524678   -96.992615
 0.720000   20.033130   -99.474043
 0.725000   19.529937   -101.873689
 0.730000   19.014393   -102.655193
 0.735000   18.503386   -102.328905
 0.740000   17.991104   -102.160903
 0.745000   17.481777   -101.225628
 0.750000   16.978848   -99.642413
 0.755000   16.485352   -96.597656
 0.760000   16.012871   -93.118844
 0.765000   15.554164   -90.175634
 0.770000   15.111115   -87.300117
 0.775000   14.681163   -85.241605
 0.780000   14.258699   -84.199452
 0.785000   13.839168   -83.040663
 0.790000   13.428292   -84.202756
 0.795000   12.997141   -87.732493
 0.800000   12.550967   -90.909563
 0.805000   12.088045   -94.419539
 0.810000   11.606772   -97.935547
 0.815000   11.108690   -101.497127
 0.820000   10.591801   -104.802739
 0.825000   10.060662   -106.182899
 0.830000   9.529972   -105.608464
 0.835000   9.004578   -104.090388
 0.840000   8.489068   -101.472578
 0.845000   7.989852   -98.085987
 0.850000   7.508208   -94.052537
 0.855000   7.049326   -89.615257
 0.860000   6.612056   -85.768247
 0.865000   6.191644   -83.321167
 0.870000   5.778844   -82.731602
 0.875000   5.364328   -85.912304
 0.880000   4.919721   -92.943802
 0.885000   4.434890   -101.474245
 0.890000   3.904978   -112.815285
 0.895000   3.306737   -128.569892
 0.900000   2.619279   -147.370195
 0.905000   1.833035   -170.411888
 0.910000   0.915161   -195.500843
 0.915000   -0.121973   -213.877371
 0.920000   -1.223613   -225.265784
 0.925000   -2.374631   -231.887219
 0.930000   -3.542485   -230.546018
 0.935000   -4.680091   -221.997663
 0.940000   -5.762462   -206.260804
 0.945000   -6.742699   -178.812061
 0.950000   -7.550583   -157.781629
 0.955000   -8.320516   -167.272886
 0.960000   -9.223311   -219.679406
 0.965000   -10.517310   -331.125919
 0.970000   -12.534571   -484.110290
 0.975000   -15.358413   -561.637419
 0.980000   -18.150945   -405.546086
 0.985000   -19.413873   109.185871
 0.990000   -17.059086   921.250930
 0.995000   -10.201364   1596.775414
 1.000000   -1.091332   2047.237472
201 psinorm er(kV/m) der/dpsiN
 0.000000   0.785361   1040.101623
 0.005000   4.968304   633.075323
 0.010000   7.116114   380.076312
 0.015000   8.769067   307.191484
 0.020000   10.188029   266.222896
 0.025000   11.431296   237.245570
 0.030000   12.560485   216.856529
 0.035000   13.599861   200.663437
 0.040000   14.567119   187.344569
 0.045000   15.473307   176.244605
 0.050000   16.329565   166.306863
 0.055000   17.136375   157.387815
 0.060000   17.903443   149.030686
 0.065000   18.626682   143.334480
 0.070000   19.336788   138.853662
 0.075000   20.015219   131.623702
 0.080000   20.653025   126.787459
 0.085000   21.283093   123.943705
 0.090000   21.892462   116.304605
 0.095000   22.446139   112.681658
 0.100000   23.019279   109.275015
 0.105000   23.538889   103.364956
 0.110000   24.052929   100.254502
 0.115000   24.541434   94.363949
 0.120000   24.996568   91.595002
 0.125000   25.457385   86.873667
 0.130000   25.865305   84.218233
 0.135000   26.299567   80.703700
 0.140000   26.672342   77.845396
 0.145000   27.078021   75.416507
 0.150000   27.426507   72.316026
 0.155000   27.801181   70.931028
 0.160000   28.135817   67.144950
 0.165000   28.472631   66.354764
 0.170000   28.799365   61.815921
 0.175000   29.090790   61.412941
 0.180000   29.413494   56.751284
 0.185000   29.658303   55.232865
 0.190000   29.965823   53.108081
 0.195000   30.189383   48.676300
 0.200000   30.452586   50.090711
 0.205000   30.690291   44.049993
 0.210000   30.893086   44.799594
 0.215000   31.138286   39.595909
 0.220000   31.289045   36.128770
 0.225000   31.499574   38.659629
 0.230000   31.675641   31.321171
 0.235000   31.812786   31.394700
 0.240000   31.989588   27.714843
 0.245000   32.089934   22.902046
 0.250000   32.218608   25.648160
 0.255000   32.346416   18.364240
 0.260000   32.402251   16.626711
 0.265000   32.512683   18.551998
 0.270000   32.587771   12.128969
 0.275000   32.633973   13.574024
 0.280000   32.723511   13.488712
 0.285000   32.768860   9.408542
 0.290000   32.817597   12.479838
 0.295000   32.893658   10.119745
 0.300000   32.918794   7.590458
 0.305000   32.969563   11.636668
 0.310000   33.035161   7.690718
 0.315000   33.046470   5.562537
 0.320000   33.090786   9.397253
 0.325000   33.140442   4.569914
 0.330000   33.136485   1.840740
 0.335000   33.158850   3.761545
 0.340000   33.174101   -2.287826
 0.345000   33.135972   -5.579186
 0.350000   33.118309   -3.887800
 0.355000   33.097094   -8.707784
 0.360000   33.031231   -12.191746
 0.365000   32.975176   -11.068510
 0.370000   32.920546   -14.350547
 0.375000   32.831671   -17.375009
 0.380000   32.746796   -16.578710
 0.385000   32.665884   -18.569194
 0.390000   32.561104   -21.784016
 0.395000   32.448043   -20.843889
 0.400000   32.352665   -20.072787
 0.405000   32.247316   -22.354061
 0.410000   32.129124   -21.899486
 0.415000   32.028321   -20.302292
 0.420000   31.926101   -22.317558
 0.425000   31.805145   -23.018868
 0.430000   31.695913   -22.638139
 0.435000   31.578764   -26.746673
 0.440000   31.428446   -30.958699
 0.445000   31.269177   -33.617809
 0.450000   31.092268   -38.262225
 0.455000   30.886554   -44.030098
 0.460000   30.651967   -48.332461
 0.465000   30.403230   -52.053658
 0.470000   30.131430   -57.227046
 0.475000   29.830959   -59.939028
 0.480000   29.532040   -59.910141
 0.485000   29.231858   -61.174222
 0.490000   28.920298   -60.855862
 0.495000   28.623299   -57.682611
 0.500000   28.343472   -54.428146
 0.505000   28.079018   -51.347637
 0.510000   27.829995   -47.007708
 0.515000   27.608941   -42.176767
 0.520000   27.408228   -39.763546
 0.525000   27.211305   -37.356801
 0.530000   27.034660   -34.693306
 0.535000   26.864372   -34.604431
 0.540000   26.688615   -35.518050
 0.545000   26.509192   -35.999659
 0.550000   26.328619   -36.715842
 0.555000   26.142033   -38.923564
 0.560000   25.939383   -40.542974
 0.565000   25.736604   -40.782574
 0.570000   25.531557   -41.642498
 0.575000   25.320179   -42.261999
 0.580000   25.108937   -41.730486
 0.585000   24.902874   -40.898812
 0.590000   24.699949   -40.984615
 0.595000   24.493028   -40.273657
 0.600000   24.297213   -38.676612
 0.605000   24.106262   -38.285677
 0.610000   23.914356   -38.372388
 0.615000   23.722538   -38.133479
 0.620000   23.533021   -38.054801
 0.625000   23.341990   -39.453585
 0.630000   23.138485   -40.627377
 0.635000   22.935716   -41.251911
 0.640000   22.725966   -42.864475
 0.645000   22.507071   -44.677378
 0.650000   22.279192   -45.641412
 0.655000   22.050657   -46.213272
 0.660000   21.817060   -48.177254
 0.665000   21.568885   -49.996542
 0.670000   21.317094   -50.990853
 0.675000   21.058976   -53.025239
 0.680000   20.786842   -56.449150
 0.685000   20.494484   -59.984769
 0.690000   20.186994   -63.858165
 0.695000   19.855903   -69.559377
 0.700000   19.491400   -74.158325
 0.705000   19.114320   -76.838096
 0.710000   18.723019   -79.832302
 0.715000   18.315997   -83.414203
 0.720000   17.888877   -85.814291
 0.725000   17.457854   -87.377235
 0.730000   17.015105   -88.598927
 0.735000   16.571864   -89.023482
 0.740000   16.124870   -88.728266
 0.745000   15.684582   -87.557052
 0.750000   15.249300   -87.000053
 0.755000   14.814581   -84.657460
 0.760000   14.402725   -81.028008
 0.765000   14.004301   -78.463458
 0.770000   13.618091   -76.758378
 0.775000   13.236717   -74.971508
 0.780000   12.868375   -73.471895
 0.785000   12.501998   -72.911895
 0.790000   12.139256   -74.541289
 0.795000   11.756585   -77.573246
 0.800000   11.363524   -80.194366
 0.805000   10.954642   -84.037421
 0.810000   10.523150   -87.552054
 0.815000   10.079121   -90.447124
 0.820000   9.618679   -93.509959
 0.825000   9.144022   -95.472083
 0.830000   8.663958   -95.084397
 0.835000   8.193178   -93.320437
 0.840000   7.730753   -91.283142
 0.845000   7.280346   -88.704421
 0.850000   6.843709   -84.974924
 0.855000   6.430597   -80.696700
 0.860000   6.036742   -77.639864
 0.865000   5.654198   -75.714285
 0.870000   5.279599   -74.960116
 0.875000   4.904597   -77.783796
 0.880000   4.501761   -84.770429
 0.885000   4.056893   -92.716970
 0.890000   3.574592   -102.735196
 0.895000   3.029541   -117.351187
 0.900000   2.401080   -134.999986
 0.905000   1.679541   -156.109338
 0.910000   0.839986   -178.881072
 0.915000   -0.109270   -196.208105
 0.920000   -1.122095   -206.978878
 0.925000   -2.179058   -212.845994
 0.930000   -3.250555   -211.730419
 0.935000   -4.296363   -207.670212
 0.940000   -5.327257   -194.634920
 0.945000   -6.242712   -166.232056
 0.950000   -6.989577   -146.121594
 0.955000   -7.703928   -169.014441
 0.960000   -8.679722   -219.660227
 0.965000   -9.900530   -312.405048
 0.970000   -11.803772   -458.928282
 0.975000   -14.489813   -541.750887
 0.980000   -17.221281   -393.787881
 0.985000   -18.427692   100.396675
 0.990000   -16.217314   871.455482
 0.995000   -9.713137   1515.170181
 1.000000   -1.065612   1943.839534
201 psinorm ommvb() dommvb/dpsiN
 0.000000   60.988356   21678.533507
 0.005000   155.325520   16056.331881
 0.010000   221.551675   11301.542449
 0.015000   268.340944   8549.032203
 0.020000   307.041997   7138.359691
 0.025000   339.724541   6115.963197
 0.030000   368.201629   5175.575097
 0.035000   391.480292   4347.935525
 0.040000   411.680984   3755.940710
 0.045000   429.039699   3227.831028
 0.050000   443.959295   2737.474400
 0.055000   456.414443   2291.584914
 0.060000   466.875144   1891.972458
 0.065000   475.334168   1555.744206
 0.070000   482.432586   1287.289266
 0.075000   488.207060   1018.816963
 0.080000   492.620755   796.979437
 0.085000   496.176855   500.485063
 0.090000   497.625606   196.637801
 0.095000   498.143233   80.460272
 0.100000   498.430209   -60.216085
 0.105000   497.541072   -317.158970
 0.110000   495.258619   -606.467508
 0.115000   491.476397   -692.788945
 0.120000   488.330730   -704.412291
 0.125000   484.432274   -847.975750
 0.130000   479.850972   -983.626380
 0.135000   474.596010   -1099.423634
 0.140000   468.856736   -1198.650939
 0.145000   462.609501   -1301.682039
 0.150000   455.839915   -1396.948318
 0.155000   448.640018   -1472.857512
 0.160000   441.111340   -1534.898136
 0.165000   433.291036   -1586.581408
 0.170000   425.245526   -1625.193414
 0.175000   417.039102   -1660.071328
 0.180000   408.644813   -1685.252161
 0.185000   400.186581   -1690.742055
 0.190000   391.737392   -1687.807905
 0.195000   383.308501   -1684.606277
 0.200000   374.891330   -1674.677312
 0.205000   366.561728   -1652.735165
 0.210000   358.363978   -1627.327591
 0.215000   350.288452   -1660.876545
 0.220000   341.755213   -1750.451993
 0.225000   332.783933   -1642.035614
 0.230000   325.334856   -1462.203911
 0.235000   318.161893   -1407.930207
 0.240000   311.255554   -1358.008666
 0.245000   304.581807   -1307.129232
 0.250000   298.184262   -1305.395497
 0.255000   291.527852   -1397.394273
 0.260000   284.210319   -1269.949778
 0.265000   278.828354   -1048.532947
 0.270000   273.724990   -985.095514
 0.275000   268.977399   -910.858349
 0.280000   264.616406   -980.921371
 0.285000   259.168185   -1006.471082
 0.290000   254.551696   -819.888819
 0.295000   250.969297   -694.725637
 0.300000   247.604439   -651.534639
 0.305000   244.453951   -705.333022
 0.310000   240.551109   -706.142980
 0.315000   237.392521   -546.633242
 0.320000   235.084777   -447.209520
 0.325000   232.920426   -421.993614
 0.330000   230.864840   -529.174846
 0.335000   227.628677   -471.065985
 0.340000   226.154181   -283.279303
 0.345000   224.795884   -261.103863
 0.350000   223.543142   -310.305232
 0.355000   221.692832   -307.418726
 0.360000   220.468955   -202.366044
 0.365000   219.669171   -153.080724
 0.370000   218.938147   -184.850570
 0.375000   217.820666   -202.767334
 0.380000   216.910474   -133.747475
 0.385000   216.483191   -82.282597
 0.390000   216.087648   -117.518062
 0.395000   215.308010   -137.269725
 0.400000   214.714951   -76.742684
 0.405000   214.540583   -32.393222
 0.410000   214.391019   -70.492005
 0.415000   213.835663   -89.098942
 0.420000   213.500029   -37.444647
 0.425000   213.461217   -7.996157
 0.430000   213.420068   -65.204146
 0.435000   212.809175   -82.537469
 0.440000   212.594693   -29.388601
 0.445000   212.515289   -18.813263
 0.450000   212.406560   -94.645031
 0.455000   211.568839   -95.276616
 0.460000   211.453794   -27.715529
 0.465000   211.291684   -57.643256
 0.470000   210.877362   -120.008192
 0.475000   210.091602   -99.865626
 0.480000   209.878705   -42.844303
 0.485000   209.663159   -82.907796
 0.490000   209.049627   -111.162537
 0.495000   208.551534   -61.841377
 0.500000   208.431214   -21.089540
 0.505000   208.340638   -71.032940
 0.510000   207.720884   -68.015154
 0.515000   207.660487   3.065797
 0.520000   207.751542   12.728343
 0.525000   207.787770   -39.071057
 0.530000   207.360832   -24.245240
 0.535000   207.545318   37.280028
 0.540000   207.733632   12.676245
 0.545000   207.672080   -19.285683
 0.550000   207.540775   13.579093
 0.555000   207.807871   54.750869
 0.560000   208.088284   26.053447
 0.565000   208.068405   23.163210
 0.570000   208.319916   75.810957
 0.575000   208.826515   106.853035
 0.580000   209.388446   85.298803
 0.585000   209.679503   107.474082
 0.590000   210.463187   167.208376
 0.595000   211.351587   183.153720
 0.600000   212.294724   178.216611
 0.605000   213.133753   208.190197
 0.610000   214.376626   257.229247
 0.615000   215.706045   274.270830
 0.620000   217.119334   295.431220
 0.625000   218.660358   324.229693
 0.630000   220.361631   351.581685
 0.635000   222.176174   377.558158
 0.640000   224.137213   412.186133
 0.645000   226.298036   445.436888
 0.650000   228.591582   469.908387
 0.655000   230.997120   494.047419
 0.660000   233.532056   553.908997
 0.665000   236.536210   592.724332
 0.670000   239.459299   599.932296
 0.675000   242.535533   631.019146
 0.680000   245.769491   697.770206
 0.685000   249.513235   733.102687
 0.690000   253.100518   724.793467
 0.695000   256.761169   747.155652
 0.700000   260.572074   802.970331
 0.705000   264.790873   870.170732
 0.710000   269.273782   896.231986
 0.715000   273.753192   921.240461
 0.720000   278.486186   973.671122
 0.725000   283.489904   1079.179779
 0.730000   289.277984   1146.773608
 0.735000   294.957640   1160.979795
 0.740000   300.887782   1219.744668
 0.745000   307.155086   1291.502783
 0.750000   313.802810   1411.896788
 0.755000   321.274054   1475.988465
 0.760000   328.562694   1487.078432
 0.765000   336.144839   1552.901676
 0.770000   344.091711   1629.820784
 0.775000   352.443046   1734.167490
 0.780000   361.433386   1807.730355
 0.785000   370.520350   1857.004776
 0.790000   380.003434   1944.820308
 0.795000   389.968553   2046.288169
 0.800000   400.466315   2158.321193
 0.805000   411.551765   2281.721396
 0.810000   423.283529   2391.609770
 0.815000   435.467863   2503.460048
 0.820000   448.318130   2642.344366
 0.825000   461.891306   2792.397025
 0.830000   476.242100   2951.841634
 0.835000   491.409723   3105.530200
 0.840000   507.297402   3255.534097
 0.845000   523.965064   3441.817489
 0.850000   541.715577   3657.338727
 0.855000   560.538451   3889.209376
 0.860000   580.607671   4186.670797
 0.865000   602.405159   4605.923023
 0.870000   626.666901   5155.757181
 0.875000   653.962731   5791.163448
 0.880000   684.578536   6452.250822
 0.885000   718.485239   7240.237210
 0.890000   756.980908   8178.889583
 0.895000   800.274135   9189.883934
 0.900000   848.879747   10325.495709
 0.905000   903.529092   11610.220599
 0.910000   964.981953   12945.315137
 0.915000   1032.982243   14156.016861
 0.920000   1106.542122   15256.607971
 0.925000   1185.548323   16556.715444
 0.930000   1272.109276   18575.179878
 0.935000   1371.300122   22208.127209
 0.940000   1494.190548   28823.073922
 0.945000   1659.530861   39602.478919
 0.950000   1890.215337   54068.821584
 0.955000   2200.219077   68655.549988
 0.960000   2576.770837   78740.293040
 0.965000   2987.622007   80900.680285
 0.970000   3385.777640   71854.215339
 0.975000   3706.164161   50411.824537
 0.980000   3889.895885   26328.355399
 0.985000   3969.447715   9167.674527
 0.990000   3981.572631   -3301.331341
 0.995000   3936.434401   145901.524052
 1.000000   5440.587871   455759.863950
201 psinorm ommpp() dommpp/dpsiN
 0.000000   -7.002797   -21528.753121
 0.005000   -100.795606   -15988.370327
 0.010000   -166.886501   -11278.168989
 0.015000   -213.577296   -8531.100238
 0.020000   -252.197503   -7124.089331
 0.025000   -284.818189   -6105.156092
 0.030000   -313.249064   -5168.674562
 0.035000   -336.504935   -4344.729921
 0.040000   -356.696363   -3756.026948
 0.045000   -374.065204   -3231.177872
 0.050000   -389.008142   -2743.163351
 0.055000   -401.496838   -2298.814711
 0.060000   -411.996289   -1900.181881
 0.065000   -420.498657   -1564.816737
 0.070000   -427.644456   -1297.032567
 0.075000   -433.468982   -1029.011189
 0.080000   -437.934568   -807.758250
 0.085000   -441.546565   -512.531968
 0.090000   -443.059888   -210.457502
 0.095000   -443.651140   -96.274915
 0.100000   -444.022637   42.176069
 0.105000   -443.229379   296.717032
 0.110000   -441.055467   583.620153
 0.115000   -437.393178   667.419899
 0.120000   -434.381268   676.840383
 0.125000   -430.624774   818.910693
 0.130000   -426.192161   953.473417
 0.135000   -421.090040   1068.541874
 0.140000   -415.506742   1167.191514
 0.145000   -409.418124   1269.876491
 0.150000   -402.807977   1365.145078
 0.155000   -395.766674   1440.892586
 0.160000   -388.399051   1502.693906
 0.165000   -380.739735   1553.885036
 0.170000   -372.860201   1591.694071
 0.175000   -364.822794   1626.042958
 0.180000   -356.599771   1650.439585
 0.185000   -348.318398   1654.888943
 0.190000   -340.050882   1651.016154
 0.195000   -331.808236   1646.885561
 0.200000   -323.582026   1636.039124
 0.205000   -315.447845   1613.539455
 0.210000   -307.446632   1587.234495
 0.215000   -299.575500   1619.372217
 0.220000   -291.252910   1707.775530
 0.225000   -282.497745   1598.203749
 0.230000   -275.270872   1417.085357
 0.235000   -268.326891   1361.292017
 0.240000   -261.657952   1309.616821
 0.245000   -255.230723   1257.178198
 0.250000   -249.086170   1254.124830
 0.255000   -242.689475   1345.034047
 0.260000   -235.635829   1216.725676
 0.265000   -230.522218   994.316750
 0.270000   -225.692662   930.704456
 0.275000   -221.215174   857.406631
 0.280000   -217.118596   928.304543
 0.285000   -211.932128   954.688842
 0.290000   -207.571707   769.161146
 0.295000   -204.240517   645.002229
 0.300000   -201.121685   602.995799
 0.305000   -198.210559   657.835703
 0.310000   -194.543328   659.343757
 0.315000   -191.617121   500.431647
 0.320000   -189.539011   401.312862
 0.325000   -187.603992   376.110164
 0.330000   -185.777910   482.518896
 0.335000   -182.778803   422.420587
 0.340000   -181.553704   232.583302
 0.345000   -180.452970   208.793842
 0.350000   -179.465765   256.478100
 0.355000   -177.888189   252.187028
 0.360000   -176.943895   145.443787
 0.365000   -176.433752   94.853700
 0.370000   -175.995358   125.874190
 0.375000   -175.175010   143.019541
 0.380000   -174.565163   73.309757
 0.385000   -174.441912   21.183183
 0.390000   -174.353331   55.790197
 0.395000   -173.884010   76.104243
 0.400000   -173.592289   16.876658
 0.405000   -173.715244   -26.671628
 0.410000   -173.859005   12.303524
 0.415000   -173.592208   31.963903
 0.420000   -173.539366   -18.545666
 0.425000   -173.777665   -47.818827
 0.430000   -174.017554   8.241102
 0.435000   -173.695254   23.565986
 0.440000   -173.781894   -33.082063
 0.445000   -174.026075   -48.077917
 0.450000   -174.262673   23.601964
 0.455000   -173.790055   19.424234
 0.460000   -174.068431   -53.266154
 0.465000   -174.322717   -27.738076
 0.470000   -174.345812   30.799422
 0.475000   -174.014722   8.301308
 0.480000   -174.262799   -49.256638
 0.485000   -174.507289   -8.594714
 0.490000   -174.348746   21.457154
 0.495000   -174.292717   -24.479066
 0.500000   -174.593536   -60.463523
 0.505000   -174.897352   -5.091026
 0.510000   -174.644447   -2.559811
 0.515000   -174.922951   -68.221794
 0.520000   -175.326665   -73.266509
 0.525000   -175.655616   -17.824536
 0.530000   -175.504910   -30.152128
 0.535000   -175.957137   -90.626707
 0.540000   -176.411177   -65.898924
 0.545000   -176.616126   -34.490220
 0.550000   -176.756079   -68.301086
 0.555000   -177.299137   -110.652410
 0.560000   -177.862603   -83.299732
 0.565000   -178.132134   -81.222364
 0.570000   -178.674827   -134.003224
 0.575000   -179.472167   -164.806169
 0.580000   -180.322889   -142.725697
 0.585000   -180.899424   -164.011410
 0.590000   -181.963003   -222.646552
 0.595000   -183.125889   -237.373154
 0.600000   -184.336734   -231.134774
 0.605000   -185.437237   -259.965138
 0.610000   -186.936386   -308.300061
 0.615000   -188.520237   -325.198095
 0.620000   -190.188367   -346.474712
 0.625000   -191.984985   -375.780400
 0.630000   -193.946171   -404.133897
 0.635000   -196.026323   -431.420593
 0.640000   -198.260377   -467.362543
 0.645000   -200.699949   -501.896856
 0.650000   -203.279345   -527.537871
 0.655000   -205.975328   -552.653623
 0.660000   -208.805881   -613.784956
 0.665000   -212.113177   -654.276866
 0.670000   -215.348650   -663.151758
 0.675000   -218.744695   -696.245061
 0.680000   -222.311101   -766.020120
 0.685000   -226.404896   -805.319076
 0.690000   -230.364291   -801.806872
 0.695000   -234.422965   -829.812290
 0.700000   -238.662414   -890.259663
 0.705000   -243.325561   -960.831082
 0.710000   -248.270725   -990.295326
 0.715000   -253.228515   -1018.233076
 0.720000   -258.453056   -1073.145165
 0.725000   -263.959966   -1181.053468
 0.730000   -270.263591   -1249.428801
 0.735000   -276.454254   -1263.308700
 0.740000   -282.896678   -1321.905571
 0.745000   -289.673310   -1392.728412
 0.750000   -296.823962   -1511.539201
 0.755000   -304.788702   -1572.586121
 0.760000   -312.549823   -1580.197276
 0.765000   -320.590675   -1643.077309
 0.770000   -328.980596   -1717.120901
 0.775000   -337.761884   -1819.409095
 0.780000   -347.174687   -1891.929807
 0.785000   -356.681182   -1940.045439
 0.790000   -366.575141   -2029.023064
 0.795000   -376.971412   -2134.020662
 0.800000   -387.915348   -2249.230756
 0.805000   -399.463720   -2376.140935
 0.810000   -411.676757   -2489.545317
 0.815000   -424.359173   -2604.957175
 0.820000   -437.726329   -2747.147105
 0.825000   -451.830644   -2898.579924
 0.830000   -466.712128   -3057.450097
 0.835000   -482.405145   -3209.620589
 0.840000   -498.808334   -3357.006675
 0.845000   -515.975212   -3539.903476
 0.850000   -534.207369   -3751.391264
 0.855000   -553.489125   -3978.824633
 0.860000   -573.995615   -4272.439044
 0.865000   -596.213515   -4689.244190
 0.870000   -620.888057   -5238.488782
 0.875000   -648.598403   -5877.075752
 0.880000   -679.658815   -6545.194625
 0.885000   -714.050349   -7341.711454
 0.890000   -753.075929   -8291.704868
 0.895000   -796.967398   -9318.453826
 0.900000   -846.260468   -10472.865903
 0.905000   -901.696057   -11780.632487
 0.910000   -964.066792   -13140.815980
 0.915000   -1033.104217   -14369.894232
 0.920000   -1107.765735   -15481.873756
 0.925000   -1187.922954   -16788.602663
 0.930000   -1275.651761   -18805.725897
 0.935000   -1375.980213   -22430.124872
 0.940000   -1499.953010   -29029.334726
 0.945000   -1666.273560   -39781.290980
 0.950000   -1897.765920   -54226.603212
 0.955000   -2208.539592   -68822.822873
 0.960000   -2585.994149   -78959.972446
 0.965000   -2998.139317   -81231.806204
 0.970000   -3398.312211   -72338.325629
 0.975000   -3721.522573   -50973.461956
 0.980000   -3908.046830   -26733.901485
 0.985000   -3988.861588   -9058.488655
 0.990000   -3998.631717   4222.582271
 0.995000   -3946.635765   -144304.748638
 1.000000   -5441.679203   -453712.626479
201 psinorm omevb() domevb/dpsiN
 0.000000   36.609448   150.807773
 0.005000   37.158222   68.701998
 0.010000   37.296468   24.049512
 0.015000   37.398717   18.765859
 0.020000   37.484126   15.261453
 0.025000   37.551332   11.954743
 0.030000   37.603674   8.204048
 0.035000   37.633372   4.664307
 0.040000   37.650317   1.526957
 0.045000   37.648642   -1.579866
 0.050000   37.634518   -3.768916
 0.055000   37.610953   -5.157440
 0.060000   37.582944   -5.985497
 0.065000   37.551098   -6.697799
 0.070000   37.515966   -7.218539
 0.075000   37.478912   -7.520224
 0.080000   37.440764   -7.956372
 0.085000   37.399349   -9.076839
 0.090000   37.349995   -10.702836
 0.095000   37.292320   -12.551817
 0.100000   37.224477   -14.632077
 0.105000   37.145999   -16.889749
 0.110000   37.055579   -19.151789
 0.115000   36.954482   -21.530986
 0.120000   36.840270   -23.592250
 0.125000   36.718559   -24.944707
 0.130000   36.590823   -25.892838
 0.135000   36.459631   -26.482787
 0.140000   36.325995   -26.922543
 0.145000   36.190405   -27.131705
 0.150000   36.054678   -26.993394
 0.155000   35.920471   -27.020046
 0.160000   35.784477   -27.125294
 0.165000   35.649218   -27.484367
 0.170000   35.509633   -28.155266
 0.175000   35.367666   -28.553229
 0.180000   35.224101   -29.207385
 0.185000   35.075592   -30.118895
 0.190000   34.922912   -30.929540
 0.195000   34.766297   -31.731553
 0.200000   34.605597   -32.523123
 0.205000   34.441065   -32.955800
 0.210000   34.276039   -33.729407
 0.215000   34.103771   -35.017933
 0.220000   33.925859   -36.068443
 0.225000   33.743087   -37.103309
 0.230000   33.554826   -38.270558
 0.235000   33.360381   -39.671855
 0.240000   33.158108   -41.308282
 0.245000   32.947298   -42.751358
 0.250000   32.730594   -43.956001
 0.255000   32.507738   -44.931697
 0.260000   32.281277   -45.682847
 0.265000   32.050910   -46.563357
 0.270000   31.815644   -46.627779
 0.275000   31.584632   -45.579152
 0.280000   31.359852   -44.636132
 0.285000   31.138271   -43.694578
 0.290000   30.922906   -42.534212
 0.295000   30.712929   -41.425320
 0.300000   30.508653   -40.137304
 0.305000   30.311556   -38.993514
 0.310000   30.118718   -38.194336
 0.315000   29.929612   -37.496816
 0.320000   29.743750   -37.093181
 0.325000   29.558680   -36.982472
 0.330000   29.373925   -37.658673
 0.335000   29.182094   -39.553026
 0.340000   28.978395   -41.509742
 0.345000   28.766996   -43.031085
 0.350000   28.548084   -44.456733
 0.355000   28.322429   -45.771052
 0.360000   28.090373   -47.372582
 0.365000   27.848703   -48.589542
 0.370000   27.604478   -49.252313
 0.375000   27.356180   -49.938366
 0.380000   27.105094   -50.544158
 0.385000   26.850738   -51.122949
 0.390000   26.593865   -51.669725
 0.395000   26.334041   -51.026898
 0.400000   26.083596   -49.648231
 0.405000   25.837559   -48.769074
 0.410000   25.595905   -47.815961
 0.415000   25.359399   -46.687007
 0.420000   25.129035   -45.468005
 0.425000   24.904719   -45.219634
 0.430000   24.676839   -46.295886
 0.435000   24.441760   -48.233753
 0.440000   24.194501   -51.663596
 0.445000   23.925124   -56.016009
 0.450000   23.634341   -60.101026
 0.455000   23.324114   -64.844704
 0.460000   22.985894   -69.909599
 0.465000   22.625018   -74.246073
 0.470000   22.243433   -78.011566
 0.475000   21.844903   -80.306396
 0.480000   21.440369   -80.783529
 0.485000   21.037067   -80.126832
 0.490000   20.639101   -78.272663
 0.495000   20.254341   -74.831902
 0.500000   19.890782   -70.009920
 0.505000   19.554241   -64.527437
 0.510000   19.245508   -58.926265
 0.515000   18.964979   -53.456336
 0.520000   18.710944   -48.788754
 0.525000   18.477091   -45.097636
 0.530000   18.259968   -42.552069
 0.535000   18.051571   -41.455238
 0.540000   17.845416   -41.286292
 0.545000   17.638708   -41.795762
 0.550000   17.427458   -42.699289
 0.555000   17.211715   -43.837459
 0.560000   16.989083   -45.142006
 0.565000   16.760295   -45.915855
 0.570000   16.529925   -46.011122
 0.575000   16.300183   -45.735311
 0.580000   16.072572   -45.173557
 0.585000   15.848448   -44.249636
 0.590000   15.630075   -43.117282
 0.595000   15.417275   -41.866487
 0.600000   15.211411   -40.534303
 0.605000   15.011932   -39.361304
 0.610000   14.817797   -38.628530
 0.615000   14.625647   -38.457452
 0.620000   14.433223   -38.547264
 0.625000   14.240174   -39.029166
 0.630000   14.042931   -40.006448
 0.635000   13.840110   -41.293528
 0.640000   13.629996   -42.585423
 0.645000   13.414255   -43.847947
 0.650000   13.191517   -44.997453
 0.655000   12.964281   -45.955160
 0.660000   12.731965   -47.206870
 0.665000   12.492212   -48.866325
 0.670000   12.243302   -50.517010
 0.675000   11.987042   -52.508035
 0.680000   11.718221   -55.517341
 0.685000   11.431869   -59.469761
 0.690000   11.123524   -64.253231
 0.695000   10.789336   -69.883266
 0.700000   10.424691   -74.502904
 0.705000   10.044307   -77.860747
 0.710000   9.646084   -81.250104
 0.715000   9.231806   -84.164857
 0.720000   8.804435   -86.630321
 0.725000   8.365503   -89.011854
 0.730000   7.914317   -89.772192
 0.735000   7.467781   -89.420522
 0.740000   7.020111   -89.221441
 0.745000   6.575567   -88.247494
 0.750000   6.137636   -86.615593
 0.755000   5.709411   -83.509051
 0.760000   5.302546   -79.951420
 0.765000   4.909897   -76.907361
 0.770000   4.533472   -73.902620
 0.775000   4.170870   -71.678470
 0.780000   3.816688   -70.424111
 0.785000   3.466629   -68.993749
 0.790000   3.126750   -69.808830
 0.795000   2.768541   -72.895998
 0.800000   2.397790   -75.509883
 0.805000   2.013442   -78.304994
 0.810000   1.614740   -80.916197
 0.815000   1.204280   -83.336266
 0.820000   0.781377   -85.207036
 0.825000   0.352210   -84.791280
 0.830000   -0.066535   -81.980063
 0.835000   -0.467591   -77.692321
 0.840000   -0.843459   -71.668935
 0.845000   -1.184280   -64.130553
 0.850000   -1.484764   -55.089423
 0.855000   -1.735174   -44.694293
 0.860000   -1.931707   -33.886099
 0.865000   -2.074035   -23.505365
 0.870000   -2.166761   -14.194131
 0.875000   -2.215977   -8.313397
 0.880000   -2.249895   -6.826880
 0.885000   -2.284246   -8.961424
 0.890000   -2.339509   -18.690417
 0.895000   -2.471150   -41.920500
 0.900000   -2.758714   -83.999755
 0.905000   -3.311147   -156.238556
 0.910000   -4.321099   -271.057072
 0.915000   -6.021718   -439.678822
 0.920000   -8.717888   -687.003583
 0.925000   -12.891754   -1042.853619
 0.930000   -19.146424   -1526.364230
 0.935000   -28.155396   -2140.247955
 0.940000   -40.548903   -2842.938796
 0.945000   -56.584784   -3517.662645
 0.950000   -75.725530   -3979.501632
 0.955000   -96.379800   -3964.940322
 0.960000   -115.374933   -3182.745431
 0.965000   -128.207255   -1513.920830
 0.970000   -130.514141   749.526350
 0.975000   -120.711991   2891.983951
 0.980000   -101.594302   4187.917656
 0.985000   -78.832815   4530.034709
 0.990000   -56.293955   4365.636471
 0.995000   -35.176450   3932.916903
 1.000000   -16.964786   3351.748766
201 psinorm omepp() domepp/dpsiN
 0.000000   17.376111   -1.027387
 0.005000   17.371692   -0.740444
 0.010000   17.368707   -0.676052
 0.015000   17.364931   -0.833893
 0.020000   17.360368   -0.991093
 0.025000   17.355020   -1.147638
 0.030000   17.348892   -1.303512
 0.035000   17.341985   -1.458703
 0.040000   17.334305   -1.613196
 0.045000   17.325853   -1.766978
 0.050000   17.316635   -1.920036
 0.055000   17.306653   -2.072356
 0.060000   17.295911   -2.223926
 0.065000   17.284414   -2.374732
 0.070000   17.272164   -2.524761
 0.075000   17.259166   -2.674002
 0.080000   17.245424   -2.822441
 0.085000   17.230942   -2.970066
 0.090000   17.215723   -3.116865
 0.095000   17.199773   -3.262827
 0.100000   17.183095   -3.407938
 0.105000   17.165694   -3.552189
 0.110000   17.147573   -3.695566
 0.115000   17.128738   -3.838060
 0.120000   17.109192   -3.979658
 0.125000   17.088941   -4.120350
 0.130000   17.067989   -4.260125
 0.135000   17.046340   -4.398973
 0.140000   17.023999   -4.536882
 0.145000   17.000971   -4.673843
 0.150000   16.977261   -4.809846
 0.155000   16.952873   -4.944880
 0.160000   16.927812   -5.078936
 0.165000   16.902083   -5.212005
 0.170000   16.875692   -5.344076
 0.175000   16.848643   -5.475142
 0.180000   16.820940   -5.605192
 0.185000   16.792591   -5.734218
 0.190000   16.763598   -5.862211
 0.195000   16.733969   -5.989163
 0.200000   16.703707   -6.115065
 0.205000   16.672818   -6.239910
 0.210000   16.641308   -6.363689
 0.215000   16.609181   -6.486395
 0.220000   16.576444   -6.608019
 0.225000   16.543101   -6.728556
 0.230000   16.509158   -6.847997
 0.235000   16.474621   -6.966335
 0.240000   16.439495   -7.083564
 0.245000   16.403785   -7.199677
 0.250000   16.367498   -7.314667
 0.255000   16.330639   -7.428528
 0.260000   16.293213   -7.541255
 0.265000   16.255226   -7.652840
 0.270000   16.216684   -7.763279
 0.275000   16.177593   -7.872566
 0.280000   16.137959   -7.980696
 0.285000   16.097786   -8.087662
 0.290000   16.057082   -8.193461
 0.295000   16.015852   -8.298088
 0.300000   15.974101   -8.401537
 0.305000   15.931836   -8.503805
 0.310000   15.889063   -8.604887
 0.315000   15.845787   -8.704779
 0.320000   15.802015   -8.803477
 0.325000   15.757753   -8.900977
 0.330000   15.713006   -8.997277
 0.335000   15.667780   -9.092372
 0.340000   15.622082   -9.186259
 0.345000   15.575917   -9.278936
 0.350000   15.529292   -9.370399
 0.355000   15.482213   -9.460646
 0.360000   15.434686   -9.549675
 0.365000   15.386717   -9.637482
 0.370000   15.338311   -9.724067
 0.375000   15.289476   -9.809427
 0.380000   15.240217   -9.893560
 0.385000   15.190540   -9.976465
 0.390000   15.140452   -10.058140
 0.395000   15.089959   -10.138584
 0.400000   15.039066   -10.217796
 0.405000   14.987781   -10.295775
 0.410000   14.936109   -10.372521
 0.415000   14.884056   -10.448032
 0.420000   14.831628   -10.522309
 0.425000   14.778833   -10.595351
 0.430000   14.725675   -10.667158
 0.435000   14.672161   -10.737730
 0.440000   14.618298   -10.807068
 0.445000   14.564090   -10.875171
 0.450000   14.509546   -10.942041
 0.455000   14.454670   -11.007679
 0.460000   14.399469   -11.072084
 0.465000   14.343949   -11.135259
 0.470000   14.288116   -11.197204
 0.475000   14.231977   -11.257921
 0.480000   14.175537   -11.317412
 0.485000   14.118803   -11.375677
 0.490000   14.061780   -11.432720
 0.495000   14.004476   -11.488541
 0.500000   13.946895   -11.543144
 0.505000   13.889044   -11.596529
 0.510000   13.830930   -11.648701
 0.515000   13.772557   -11.699661
 0.520000   13.713933   -11.749412
 0.525000   13.655063   -11.797957
 0.530000   13.595954   -11.845299
 0.535000   13.536610   -11.891442
 0.540000   13.477039   -11.936388
 0.545000   13.417246   -11.980141
 0.550000   13.357238   -12.022704
 0.555000   13.297019   -12.064083
 0.560000   13.236597   -12.104279
 0.565000   13.175976   -12.143299
 0.570000   13.115164   -12.181145
 0.575000   13.054165   -12.217823
 0.580000   12.992986   -12.253337
 0.585000   12.931632   -12.287692
 0.590000   12.870109   -12.320894
 0.595000   12.808423   -12.352948
 0.600000   12.746579   -12.383860
 0.605000   12.684584   -12.413636
 0.610000   12.622443   -12.442285
 0.615000   12.560161   -12.469812
 0.620000   12.497745   -12.496228
 0.625000   12.435199   -12.521541
 0.630000   12.372529   -12.545763
 0.635000   12.309741   -12.568907
 0.640000   12.246840   -12.590987
 0.645000   12.183832   -12.612021
 0.650000   12.120720   -12.632031
 0.655000   12.057511   -12.651043
 0.660000   11.994210   -12.669089
 0.665000   11.930820   -12.686209
 0.670000   11.867348   -12.702451
 0.675000   11.803796   -12.717880
 0.680000   11.740169   -12.732572
 0.685000   11.676470   -12.746628
 0.690000   11.612703   -12.760174
 0.695000   11.548868   -12.773372
 0.700000   11.484969   -12.786427
 0.705000   11.421004   -12.799603
 0.710000   11.356973   -12.813236
 0.715000   11.292872   -12.827758
 0.720000   11.228695   -12.843722
 0.725000   11.164434   -12.861834
 0.730000   11.100077   -12.883001
 0.735000   11.035604   -12.908383
 0.740000   10.970993   -12.939462
 0.745000   10.906210   -12.978134
 0.750000   10.841212   -13.026820
 0.755000   10.775942   -13.088606
 0.760000   10.710326   -13.167424
 0.765000   10.644267   -13.268272
 0.770000   10.577643   -13.397497
 0.775000   10.510292   -13.563135
 0.780000   10.442012   -13.775341
 0.785000   10.372539   -14.046914
 0.790000   10.301542   -14.393926
 0.795000   10.228600   -14.836494
 0.800000   10.153177   -15.399680
 0.805000   10.074603   -16.114545
 0.810000   9.992032   -17.019350
 0.815000   9.904409   -18.160861
 0.820000   9.810423   -19.595703
 0.825000   9.708452   -21.391620
 0.830000   9.596507   -23.628401
 0.835000   9.472168   -26.398067
 0.840000   9.332527   -29.803643
 0.845000   9.174132   -33.955434
 0.850000   8.992972   -38.963115
 0.855000   8.784501   -44.920964
 0.860000   8.543763   -51.882147
 0.865000   8.265679   -59.815802
 0.870000   7.945605   -68.537471
 0.875000   7.580305   -77.598907
 0.880000   7.169615   -86.116922
 0.885000   6.719135   -92.512820
 0.890000   6.244487   -94.124868
 0.895000   5.777887   -86.649392
 0.900000   5.377993   -63.370439
 0.905000   5.144182   -14.173332
 0.910000   5.236260   75.556229
 0.915000   5.899745   225.801451
 0.920000   7.494275   461.737799
 0.925000   10.517123   810.966399
 0.930000   15.603939   1295.818212
 0.935000   23.475305   1918.250293
 0.940000   34.786441   2636.677992
 0.945000   49.842085   3338.850583
 0.950000   68.174947   3821.720004
 0.955000   88.059285   3797.667436
 0.960000   106.151622   2963.066025
 0.965000   117.689945   1182.794911
 0.970000   117.979571   -1233.636640
 0.975000   105.353579   -3453.621370
 0.980000   83.443357   -4593.463742
 0.985000   59.418941   -4420.848837
 0.990000   39.234869   -3444.385541
 0.995000   24.975086   -2336.141489
 1.000000   15.873454   -1304.511294
201 psinorm kpol(km/s/T) dkpol/dpsiN
 0.000000   -0.048343   171.751844
 0.005000   0.635084   101.619262
 0.010000   0.967849   63.747605
 0.015000   1.272560   59.938875
 0.020000   1.567238   57.657277
 0.025000   1.849133   55.345360
 0.030000   2.120692   52.342222
 0.035000   2.372555   49.343952
 0.040000   2.614131   46.570341
 0.045000   2.838259   43.679014
 0.050000   3.050921   41.619464
 0.055000   3.254453   40.299712
 0.060000   3.453918   39.602351
 0.065000   3.650477   38.976935
 0.070000   3.843688   38.391098
 0.075000   4.034388   37.961452
 0.080000   4.223302   37.328680
 0.085000   4.407675   35.934959
 0.090000   4.582652   34.130843
 0.095000   4.748983   32.110740
 0.100000   4.903759   29.726626
 0.105000   5.046249   27.100133
 0.110000   5.174761   24.448313
 0.115000   5.290733   21.740802
 0.120000   5.392169   19.268672
 0.125000   5.483419   17.447466
 0.130000   5.566643   16.105307
 0.135000   5.644472   15.106693
 0.140000   5.717710   14.192406
 0.145000   5.786396   13.542381
 0.150000   5.853134   13.012458
 0.155000   5.916521   12.074769
 0.160000   5.973882   11.130258
 0.165000   6.027824   9.809008
 0.170000   6.071972   8.045152
 0.175000   6.108275   6.341474
 0.180000   6.135386   4.279242
 0.185000   6.151068   2.061202
 0.190000   6.155999   -0.072088
 0.195000   6.150347   -2.210500
 0.200000   6.133894   -4.309166
 0.205000   6.107255   -6.264571
 0.210000   6.071248   -8.117736
 0.215000   6.026078   -9.788979
 0.220000   5.973358   -11.209566
 0.225000   5.913982   -12.621872
 0.230000   5.847139   -14.158036
 0.235000   5.772402   -15.694333
 0.240000   5.690196   -17.381582
 0.245000   5.598586   -19.225268
 0.250000   5.497943   -21.149588
 0.255000   5.387090   -23.081409
 0.260000   5.267129   -25.026141
 0.265000   5.136829   -27.104883
 0.270000   4.996080   -29.040847
 0.275000   4.846420   -30.656507
 0.280000   4.689515   -32.281368
 0.285000   4.523606   -33.770391
 0.290000   4.351811   -34.916385
 0.295000   4.174443   -36.052992
 0.300000   3.991281   -37.047556
 0.305000   3.803967   -37.889635
 0.310000   3.612385   -38.796265
 0.315000   3.416004   -39.674747
 0.320000   3.215638   -40.592763
 0.325000   3.010077   -41.607630
 0.330000   2.799561   -42.660776
 0.335000   2.583469   -43.811569
 0.340000   2.361446   -44.892666
 0.345000   2.134542   -45.834660
 0.350000   1.903099   -46.626095
 0.355000   1.668281   -47.135399
 0.360000   1.431745   -47.673193
 0.365000   1.191549   -48.124606
 0.370000   0.950499   -48.457903
 0.375000   0.706970   -48.882934
 0.380000   0.461670   -49.395821
 0.385000   0.213012   -49.892721
 0.390000   -0.037258   -50.442860
 0.395000   -0.291416   -51.108927
 0.400000   -0.548347   -51.694168
 0.405000   -0.808358   -52.322697
 0.410000   -1.071574   -52.817038
 0.415000   -1.336529   -52.992480
 0.420000   -1.601499   -53.257085
 0.425000   -1.869099   -53.964516
 0.430000   -2.141144   -55.341846
 0.435000   -2.422518   -57.694821
 0.440000   -2.718092   -61.737652
 0.445000   -3.039894   -66.805619
 0.450000   -3.386148   -71.851913
 0.455000   -3.758413   -76.975249
 0.460000   -4.155901   -81.842438
 0.465000   -4.576838   -86.172627
 0.470000   -5.017627   -89.599246
 0.475000   -5.472830   -91.034053
 0.480000   -5.927967   -90.067015
 0.485000   -6.373500   -87.305425
 0.490000   -6.801022   -82.910015
 0.495000   -7.202601   -76.754593
 0.500000   -7.568568   -69.055775
 0.505000   -7.893158   -60.981896
 0.510000   -8.178387   -53.255151
 0.515000   -8.425710   -45.814358
 0.520000   -8.636530   -39.089665
 0.525000   -8.816607   -33.179340
 0.530000   -8.968324   -28.298878
 0.535000   -9.099595   -25.118035
 0.540000   -9.219504   -23.227962
 0.545000   -9.331875   -22.122944
 0.550000   -9.440733   -21.375207
 0.555000   -9.545627   -20.898016
 0.560000   -9.649714   -20.425425
 0.565000   -9.749881   -19.342095
 0.570000   -9.843134   -17.759451
 0.575000   -9.927476   -15.726321
 0.580000   -10.000398   -13.308956
 0.585000   -10.060565   -10.499886
 0.590000   -10.105397   -7.395865
 0.595000   -10.134524   -4.290167
 0.600000   -10.148298   -1.291146
 0.605000   -10.147435   1.543806
 0.610000   -10.132860   3.861750
 0.615000   -10.108818   5.524790
 0.620000   -10.077612   6.887920
 0.625000   -10.039939   7.801913
 0.630000   -9.999593   8.315698
 0.635000   -9.956782   8.627694
 0.640000   -9.913316   8.773614
 0.645000   -9.869046   8.808809
 0.650000   -9.825228   8.825694
 0.655000   -9.780789   9.030087
 0.660000   -9.734927   9.187022
 0.665000   -9.688918   9.232012
 0.670000   -9.642607   9.313462
 0.675000   -9.595784   9.316681
 0.680000   -9.549440   9.177455
 0.685000   -9.504009   9.073814
 0.690000   -9.458702   9.151177
 0.695000   -9.412498   9.316792
 0.700000   -9.365534   9.328165
 0.705000   -9.319216   9.361413
 0.710000   -9.271920   9.282776
 0.715000   -9.226388   8.698864
 0.720000   -9.184931   7.612819
 0.725000   -9.150260   6.035400
 0.730000   -9.124577   3.902916
 0.735000   -9.111231   1.134527
 0.740000   -9.113232   -2.100356
 0.745000   -9.132234   -5.619108
 0.750000   -9.169423   -9.233621
 0.755000   -9.224571   -12.565853
 0.760000   -9.295082   -15.334742
 0.765000   -9.377918   -17.518101
 0.770000   -9.470263   -19.234193
 0.775000   -9.570260   -20.659482
 0.780000   -9.676858   -22.118868
 0.785000   -9.791449   -23.907781
 0.790000   -9.915935   -26.684099
 0.795000   -10.058290   -30.727542
 0.800000   -10.223211   -35.687858
 0.805000   -10.415168   -41.404467
 0.810000   -10.637256   -47.623167
 0.815000   -10.891400   -53.818018
 0.820000   -11.175436   -59.667783
 0.825000   -11.488078   -64.641243
 0.830000   -11.821848   -68.336755
 0.835000   -12.171445   -70.661034
 0.840000   -12.528458   -71.093344
 0.845000   -12.882379   -69.245572
 0.850000   -13.220914   -64.558259
 0.855000   -13.527961   -56.288381
 0.860000   -13.783798   -44.432543
 0.865000   -13.972287   -29.676137
 0.870000   -14.080559   -12.536167
 0.875000   -14.097648   6.097756
 0.880000   -14.019582   25.068037
 0.885000   -13.846968   43.520893
 0.890000   -13.584373   60.706458
 0.895000   -13.239903   75.871862
 0.900000   -12.825654   88.142618
 0.905000   -12.358477   96.690196
 0.910000   -11.858752   101.926932
 0.915000   -11.339208   105.502577
 0.920000   -10.803727   109.530193
 0.925000   -10.243906   113.875509
 0.930000   -9.664971   118.873427
 0.935000   -9.055172   130.041254
 0.940000   -8.364559   150.996389
 0.945000   -7.545208   173.594956
 0.950000   -6.628609   185.176344
 0.955000   -5.693444   170.373965
 0.960000   -4.924870   105.315580
 0.965000   -4.640289   -34.657525
 0.970000   -5.271445   -237.731925
 0.975000   -7.017608   -384.605121
 0.980000   -9.117496   -229.523657
 0.985000   -9.312844   460.035674
 0.990000   -4.517139   1576.047069
 0.995000   6.447626   2429.752058
 1.000000   19.780381   2903.349876
201 psinorm omghb() domghb/dpsiN
 0.000000   -0.000056   -0.011781
 0.005000   -0.000246   -0.064298
 0.010000   -0.000699   -0.056877
 0.015000   -0.000814   -0.016431
 0.020000   -0.000863   0.001173
 0.025000   -0.000803   0.015517
 0.030000   -0.000708   0.044271
 0.035000   -0.000360   0.068554
 0.040000   -0.000022   0.088065
 0.045000   0.000521   0.094416
 0.050000   0.000922   0.082676
 0.055000   0.001347   0.068935
 0.060000   0.001611   0.060129
 0.065000   0.001949   0.058379
 0.070000   0.002195   0.056310
 0.075000   0.002512   0.070141
 0.080000   0.002897   0.089216
 0.085000   0.003404   0.131659
 0.090000   0.004213   0.153045
 0.095000   0.004934   0.177025
 0.100000   0.005983   0.236683
 0.105000   0.007301   0.255548
 0.110000   0.008539   0.260242
 0.115000   0.009904   0.252795
 0.120000   0.011067   0.241579
 0.125000   0.012319   0.235240
 0.130000   0.013419   0.198242
 0.135000   0.014302   0.149394
 0.140000   0.014913   0.135808
 0.145000   0.015660   0.128387
 0.150000   0.016197   0.131022
 0.155000   0.016970   0.146530
 0.160000   0.017662   0.142642
 0.165000   0.018397   0.167964
 0.170000   0.019342   0.194007
 0.175000   0.020337   0.222011
 0.180000   0.021562   0.240206
 0.185000   0.022739   0.228305
 0.190000   0.023845   0.212478
 0.195000   0.024863   0.254510
 0.200000   0.026390   0.276139
 0.205000   0.027625   0.256342
 0.210000   0.028954   0.277094
 0.215000   0.030396   0.273726
 0.220000   0.031691   0.305525
 0.225000   0.033451   0.393936
 0.230000   0.035630   0.395113
 0.235000   0.037402   0.361357
 0.240000   0.039244   0.373429
 0.245000   0.041136   0.410109
 0.250000   0.043345   0.484458
 0.255000   0.045981   0.364465
 0.260000   0.046990   0.222317
 0.265000   0.048204   0.194487
 0.270000   0.048935   0.116158
 0.275000   0.049366   0.078810
 0.280000   0.049723   0.024531
 0.285000   0.049611   -0.058567
 0.290000   0.049137   -0.078585
 0.295000   0.048825   -0.067071
 0.300000   0.048466   -0.028117
 0.305000   0.048544   -0.014233
 0.310000   0.048324   -0.150986
 0.315000   0.047034   -0.025738
 0.320000   0.048067   0.223925
 0.325000   0.049273   0.306466
 0.330000   0.051131   0.414752
 0.335000   0.053421   0.488189
 0.340000   0.056013   0.484675
 0.345000   0.058268   0.541580
 0.350000   0.061429   0.556936
 0.355000   0.063837   0.456572
 0.360000   0.065995   0.392268
 0.365000   0.067760   0.378068
 0.370000   0.069775   0.489542
 0.375000   0.072655   0.396843
 0.380000   0.073744   0.191815
 0.385000   0.074573   0.171551
 0.390000   0.075459   0.136150
 0.395000   0.075935   0.037103
 0.400000   0.075830   -0.039531
 0.405000   0.075540   -0.164913
 0.410000   0.074181   -0.217966
 0.415000   0.073360   -0.111037
 0.420000   0.073071   0.001909
 0.425000   0.073379   0.244579
 0.430000   0.075517   0.496482
 0.435000   0.078344   0.786017
 0.440000   0.083377   1.151655
 0.445000   0.089860   1.315994
 0.450000   0.096537   1.547581
 0.455000   0.105336   1.626367
 0.460000   0.112800   1.347685
 0.465000   0.118813   1.177924
 0.470000   0.124580   1.038262
 0.475000   0.129196   0.676540
 0.480000   0.131345   0.209887
 0.485000   0.131294   -0.255679
 0.490000   0.128788   -0.668966
 0.495000   0.124605   -0.959887
 0.500000   0.119189   -1.274286
 0.505000   0.111862   -1.509219
 0.510000   0.104097   -1.635275
 0.515000   0.095509   -1.467479
 0.520000   0.089422   -1.063561
 0.525000   0.084874   -0.770131
 0.530000   0.081721   -0.471996
 0.535000   0.080154   -0.164478
 0.540000   0.080076   0.207686
 0.545000   0.082231   0.403914
 0.550000   0.084115   0.403910
 0.555000   0.086270   0.408700
 0.560000   0.088202   0.315561
 0.565000   0.089425   0.230713
 0.570000   0.090509   0.154811
 0.575000   0.090973   0.016446
 0.580000   0.090674   -0.179692
 0.585000   0.089176   -0.315338
 0.590000   0.087521   -0.310068
 0.595000   0.086076   -0.321010
 0.600000   0.084310   -0.318270
 0.605000   0.082893   -0.234796
 0.610000   0.081963   -0.111135
 0.615000   0.081782   0.054502
 0.620000   0.082508   0.185382
 0.625000   0.083636   0.338572
 0.630000   0.085893   0.433202
 0.635000   0.087968   0.417923
 0.640000   0.090072   0.444471
 0.645000   0.092412   0.551057
 0.650000   0.095583   0.500124
 0.655000   0.097413   0.391605
 0.660000   0.099499   0.459996
 0.665000   0.102013   0.548280
 0.670000   0.104982   0.686862
 0.675000   0.108882   1.032928
 0.680000   0.115311   1.350841
 0.685000   0.122390   1.491982
 0.690000   0.130231   1.619792
 0.695000   0.138588   1.715322
 0.700000   0.147384   1.605984
 0.705000   0.154648   1.579760
 0.710000   0.163182   1.289031
 0.715000   0.167539   0.752800
 0.720000   0.170710   0.667610
 0.725000   0.174215   0.576562
 0.730000   0.176475   0.371631
 0.735000   0.177931   0.229843
 0.740000   0.178774   -0.148932
 0.745000   0.176442   -0.561073
 0.750000   0.173163   -0.670652
 0.755000   0.169735   -0.861338
 0.760000   0.164550   -1.010338
 0.765000   0.159632   -1.152827
 0.770000   0.153021   -1.181299
 0.775000   0.147819   -0.478304
 0.780000   0.148238   0.126223
 0.785000   0.149081   0.424182
 0.790000   0.152480   0.733193
 0.795000   0.156413   0.816341
 0.800000   0.160644   1.158512
 0.805000   0.167998   1.687716
 0.810000   0.177521   1.575725
 0.815000   0.183755   1.150518
 0.820000   0.189026   0.801932
 0.825000   0.191775   0.331600
 0.830000   0.192342   -0.078564
 0.835000   0.190989   -0.732639
 0.840000   0.185016   -1.241001
 0.845000   0.178579   -1.350740
 0.850000   0.171508   -1.480768
 0.855000   0.163771   -1.450427
 0.860000   0.157004   -0.833261
 0.865000   0.155439   -0.408630
 0.870000   0.152918   0.170719
 0.875000   0.157146   1.462855
 0.880000   0.167546   2.768093
 0.885000   0.184827   4.054069
 0.890000   0.208087   6.436480
 0.895000   0.249192   6.715373
 0.900000   0.275241   6.670058
 0.905000   0.315892   8.244554
 0.910000   0.357686   7.906569
 0.915000   0.394958   6.379054
 0.920000   0.421477   6.566723
 0.925000   0.460625   2.057127
 0.930000   0.442048   -4.177681
 0.935000   0.418848   -6.437634
 0.940000   0.377672   -8.612681
 0.945000   0.332721   -7.894992
 0.950000   0.298722   1.194383
 0.955000   0.344665   12.896073
 0.960000   0.427682   29.638262
 0.965000   0.641048   51.258233
 0.970000   0.940265   51.291432
 0.975000   1.153962   0.007202
 0.980000   0.940337   -123.332110
 0.985000   -0.079359   -285.058464
 0.990000   -1.910248   -338.052552
 0.995000   -3.459884   -145.992776
 1.000000   -3.370176   181.876287
201 psinorm nz1(10^20/m^3) dnz1/dpsiN
 0.000000   0.014123   0.000001
 0.005000   0.014123   -0.000115
 0.010000   0.014122   -0.000232
 0.015000   0.014121   -0.000350
 0.020000   0.014119   -0.000469
 0.025000   0.014116   -0.000590
 0.030000   0.014113   -0.000711
 0.035000   0.014109   -0.000832
 0.040000   0.014104   -0.000953
 0.045000   0.014099   -0.001072
 0.050000   0.014094   -0.001191
 0.055000   0.014087   -0.001308
 0.060000   0.014081   -0.001424
 0.065000   0.014073   -0.001538
 0.070000   0.014065   -0.001650
 0.075000   0.014057   -0.001760
 0.080000   0.014048   -0.001870
 0.085000   0.014038   -0.001978
 0.090000   0.014028   -0.002085
 0.095000   0.014017   -0.002190
 0.100000   0.014006   -0.002293
 0.105000   0.013994   -0.002394
 0.110000   0.013982   -0.002494
 0.115000   0.013969   -0.002593
 0.120000   0.013956   -0.002690
 0.125000   0.013942   -0.002785
 0.130000   0.013928   -0.002878
 0.135000   0.013914   -0.002968
 0.140000   0.013899   -0.003056
 0.145000   0.013883   -0.003141
 0.150000   0.013867   -0.003222
 0.155000   0.013851   -0.003300
 0.160000   0.013834   -0.003374
 0.165000   0.013817   -0.003443
 0.170000   0.013800   -0.003508
 0.175000   0.013782   -0.003568
 0.180000   0.013764   -0.003624
 0.185000   0.013746   -0.003674
 0.190000   0.013727   -0.003719
 0.195000   0.013709   -0.003758
 0.200000   0.013690   -0.003792
 0.205000   0.013671   -0.003821
 0.210000   0.013652   -0.003844
 0.215000   0.013632   -0.003862
 0.220000   0.013613   -0.003875
 0.225000   0.013594   -0.003882
 0.230000   0.013574   -0.003886
 0.235000   0.013555   -0.003889
 0.240000   0.013535   -0.003890
 0.245000   0.013516   -0.003890
 0.250000   0.013496   -0.003890
 0.255000   0.013477   -0.003890
 0.260000   0.013457   -0.003888
 0.265000   0.013438   -0.003880
 0.270000   0.013419   -0.003866
 0.275000   0.013399   -0.003847
 0.280000   0.013380   -0.003822
 0.285000   0.013361   -0.003791
 0.290000   0.013342   -0.003751
 0.295000   0.013324   -0.003701
 0.300000   0.013305   -0.003641
 0.305000   0.013287   -0.003573
 0.310000   0.013269   -0.003496
 0.315000   0.013252   -0.003408
 0.320000   0.013235   -0.003310
 0.325000   0.013219   -0.003205
 0.330000   0.013203   -0.003093
 0.335000   0.013188   -0.002974
 0.340000   0.013174   -0.002851
 0.345000   0.013160   -0.002724
 0.350000   0.013146   -0.002594
 0.355000   0.013134   -0.002466
 0.360000   0.013122   -0.002339
 0.365000   0.013110   -0.002213
 0.370000   0.013100   -0.002088
 0.375000   0.013089   -0.001964
 0.380000   0.013080   -0.001840
 0.385000   0.013071   -0.001718
 0.390000   0.013063   -0.001595
 0.395000   0.013055   -0.001473
 0.400000   0.013048   -0.001354
 0.405000   0.013042   -0.001236
 0.410000   0.013036   -0.001121
 0.415000   0.013030   -0.001010
 0.420000   0.013026   -0.000903
 0.425000   0.013021   -0.000800
 0.430000   0.013018   -0.000701
 0.435000   0.013014   -0.000608
 0.440000   0.013011   -0.000521
 0.445000   0.013009   -0.000440
 0.450000   0.013007   -0.000365
 0.455000   0.013005   -0.000298
 0.460000   0.013004   -0.000239
 0.465000   0.013003   -0.000187
 0.470000   0.013002   -0.000144
 0.475000   0.013002   -0.000110
 0.480000   0.013001   -0.000085
 0.485000   0.013001   -0.000069
 0.490000   0.013000   -0.000063
 0.495000   0.013000   -0.000067
 0.500000   0.013000   -0.000081
 0.505000   0.012999   -0.000107
 0.510000   0.012999   -0.000144
 0.515000   0.012998   -0.000192
 0.520000   0.012997   -0.000252
 0.525000   0.012995   -0.000324
 0.530000   0.012994   -0.000408
 0.535000   0.012991   -0.000504
 0.540000   0.012989   -0.000612
 0.545000   0.012985   -0.000733
 0.550000   0.012981   -0.000866
 0.555000   0.012977   -0.001011
 0.560000   0.012971   -0.001169
 0.565000   0.012965   -0.001339
 0.570000   0.012958   -0.001521
 0.575000   0.012950   -0.001715
 0.580000   0.012941   -0.001921
 0.585000   0.012930   -0.002139
 0.590000   0.012919   -0.002368
 0.595000   0.012907   -0.002608
 0.600000   0.012893   -0.002859
 0.605000   0.012878   -0.003119
 0.610000   0.012862   -0.003388
 0.615000   0.012844   -0.003666
 0.620000   0.012825   -0.003955
 0.625000   0.012805   -0.004258
 0.630000   0.012783   -0.004579
 0.635000   0.012759   -0.004919
 0.640000   0.012733   -0.005282
 0.645000   0.012706   -0.005667
 0.650000   0.012677   -0.006083
 0.655000   0.012645   -0.006522
 0.660000   0.012612   -0.006974
 0.665000   0.012576   -0.007437
 0.670000   0.012537   -0.007910
 0.675000   0.012496   -0.008390
 0.680000   0.012453   -0.008892
 0.685000   0.012408   -0.009446
 0.690000   0.012359   -0.010073
 0.695000   0.012307   -0.010788
 0.700000   0.012251   -0.011597
 0.705000   0.012191   -0.012496
 0.710000   0.012126   -0.013518
 0.715000   0.012056   -0.014630
 0.720000   0.011980   -0.015737
 0.725000   0.011898   -0.016819
 0.730000   0.011811   -0.017868
 0.735000   0.011720   -0.018855
 0.740000   0.011623   -0.019758
 0.745000   0.011522   -0.020520
 0.750000   0.011418   -0.021079
 0.755000   0.011311   -0.021441
 0.760000   0.011203   -0.021608
 0.765000   0.011095   -0.021572
 0.770000   0.010988   -0.021297
 0.775000   0.010882   -0.020760
 0.780000   0.010780   -0.020073
 0.785000   0.010681   -0.019330
 0.790000   0.010587   -0.018543
 0.795000   0.010496   -0.017755
 0.800000   0.010409   -0.016984
 0.805000   0.010326   -0.016272
 0.810000   0.010246   -0.015711
 0.815000   0.010169   -0.015306
 0.820000   0.010093   -0.015004
 0.825000   0.010019   -0.014775
 0.830000   0.009946   -0.014583
 0.835000   0.009873   -0.014381
 0.840000   0.009802   -0.014131
 0.845000   0.009732   -0.013830
 0.850000   0.009664   -0.013489
 0.855000   0.009597   -0.013115
 0.860000   0.009532   -0.012710
 0.865000   0.009470   -0.012281
 0.870000   0.009410   -0.011877
 0.875000   0.009351   -0.011557
 0.880000   0.009294   -0.011339
 0.885000   0.009238   -0.011224
 0.890000   0.009182   -0.011199
 0.895000   0.009126   -0.011322
 0.900000   0.009069   -0.011547
 0.905000   0.009010   -0.011826
 0.910000   0.008950   -0.012217
 0.915000   0.008888   -0.012723
 0.920000   0.008823   -0.013368
 0.925000   0.008754   -0.014415
 0.930000   0.008679   -0.015938
 0.935000   0.008595   -0.017993
 0.940000   0.008499   -0.021042
 0.945000   0.008385   -0.025678
 0.950000   0.008242   -0.032791
 0.955000   0.008057   -0.044159
 0.960000   0.007801   -0.060912
 0.965000   0.007448   -0.083021
 0.970000   0.006970   -0.109483
 0.975000   0.006353   -0.136574
 0.980000   0.005605   -0.158182
 0.985000   0.004771   -0.168455
 0.990000   0.003920   -0.163487
 0.995000   0.003136   -0.144450
 1.000000   0.002476   -0.119731
201 psinorm vtor1(km/s) dvtor1/dpsiN
 0.000000   93.990273   492.007200
 0.005000   95.898761   271.388009
 0.010000   96.704153   141.748682
 0.015000   97.316248   111.751133
 0.020000   97.821664   94.275611
 0.025000   98.259004   82.956169
 0.030000   98.651226   74.854209
 0.035000   99.007546   67.912222
 0.040000   99.330348   62.012841
 0.045000   99.627674   57.250895
 0.050000   99.902857   52.942442
 0.055000   100.157099   48.839534
 0.060000   100.391253   45.121040
 0.065000   100.608309   41.801278
 0.070000   100.809265   38.532835
 0.075000   100.993638   35.400561
 0.080000   101.163271   32.518717
 0.085000   101.318825   29.747060
 0.090000   101.460741   26.959508
 0.095000   101.588420   24.242601
 0.100000   101.703168   21.680521
 0.105000   101.805225   19.068147
 0.110000   101.893849   16.441584
 0.115000   101.969641   13.884739
 0.120000   102.032696   11.343789
 0.125000   102.083079   8.750127
 0.130000   102.120198   6.118535
 0.135000   102.144264   3.513667
 0.140000   102.155334   0.879393
 0.145000   102.153058   -1.823723
 0.150000   102.137097   -4.542804
 0.155000   102.107630   -7.250758
 0.160000   102.064589   -10.022943
 0.165000   102.007401   -12.850370
 0.170000   101.936086   -15.689421
 0.175000   101.850506   -18.567821
 0.180000   101.750408   -21.474948
 0.185000   101.635757   -24.349102
 0.190000   101.506917   -27.164677
 0.195000   101.364110   -29.944539
 0.200000   101.207471   -32.678319
 0.205000   101.037327   -35.338463
 0.210000   100.854087   -37.910750
 0.215000   100.658219   -40.378352
 0.220000   100.450303   -42.633525
 0.225000   100.231884   -44.529576
 0.230000   100.005007   -46.153299
 0.235000   99.770351   -47.577077
 0.240000   99.529236   -48.736487
 0.245000   99.282986   -49.649297
 0.250000   99.032744   -50.337343
 0.255000   98.779613   -50.705296
 0.260000   98.525691   -50.937225
 0.265000   98.270241   -51.179163
 0.270000   98.013899   -51.292199
 0.275000   97.757319   -51.273788
 0.280000   97.501161   -51.138579
 0.285000   97.245933   -50.850931
 0.290000   96.992652   -50.642526
 0.295000   96.739508   -50.660773
 0.300000   96.486044   -50.800160
 0.305000   96.231506   -51.104510
 0.310000   95.974999   -51.574383
 0.315000   95.715762   -52.172728
 0.320000   95.453272   -52.795496
 0.325000   95.187807   -53.336477
 0.330000   94.919907   -53.780757
 0.335000   94.650000   -54.147337
 0.340000   94.378433   -54.461147
 0.345000   94.105388   -54.687346
 0.350000   93.831560   -54.826147
 0.355000   93.557127   -54.928838
 0.360000   93.282272   -54.994724
 0.365000   93.007179   -55.012006
 0.370000   92.732152   -54.977997
 0.375000   92.457399   -54.904460
 0.380000   92.183107   -54.813545
 0.385000   91.909264   -54.709875
 0.390000   91.636008   -54.576045
 0.395000   91.363504   -54.405106
 0.400000   91.091957   -54.176773
 0.405000   90.821736   -53.846670
 0.410000   90.553490   -53.420973
 0.415000   90.287526   -52.952428
 0.420000   90.023966   -52.475543
 0.425000   89.762771   -52.055279
 0.430000   89.503413   -51.788117
 0.435000   89.244889   -51.792805
 0.440000   88.985485   -52.138345
 0.445000   88.723506   -52.730882
 0.450000   88.458177   -53.471565
 0.455000   88.188790   -54.336432
 0.460000   87.914812   -55.300791
 0.465000   87.635782   -56.424319
 0.470000   87.350569   -57.664191
 0.475000   87.059141   -58.766767
 0.480000   86.762901   -59.667866
 0.485000   86.462462   -60.426205
 0.490000   86.158639   -61.011616
 0.495000   85.852346   -61.429926
 0.500000   85.544340   -61.622400
 0.505000   85.236122   -61.461634
 0.510000   84.929724   -61.070097
 0.515000   84.625421   -60.742894
 0.520000   84.322295   -60.708510
 0.525000   84.018336   -61.216207
 0.530000   83.710133   -62.584506
 0.535000   83.392491   -64.513877
 0.540000   83.064994   -66.628008
 0.545000   82.726210   -68.993010
 0.550000   82.375064   -71.528551
 0.555000   82.010925   -74.226512
 0.560000   81.632799   -77.341744
 0.565000   81.237508   -80.259361
 0.570000   80.830205   -82.563547
 0.575000   80.411872   -84.679332
 0.580000   79.983412   -86.623930
 0.585000   79.545633   -88.450518
 0.590000   79.098907   -90.345430
 0.595000   78.642178   -92.027251
 0.600000   78.178634   -93.433104
 0.605000   77.707847   -94.970158
 0.610000   77.228933   -96.719048
 0.615000   76.740657   -98.732591
 0.620000   76.241607   -100.830734
 0.625000   75.732350   -103.042953
 0.630000   75.211177   -105.516232
 0.635000   74.677187   -108.131848
 0.640000   74.129859   -110.823479
 0.645000   73.568952   -113.530156
 0.650000   72.994557   -115.886885
 0.655000   72.410084   -118.171724
 0.660000   71.812840   -120.887102
 0.665000   71.201213   -123.968644
 0.670000   70.573153   -127.561996
 0.675000   69.925593   -131.881021
 0.680000   69.254343   -137.291960
 0.685000   68.552673   -144.113091
 0.690000   67.813212   -152.007165
 0.695000   67.032601   -160.291421
 0.700000   66.210298   -168.417443
 0.705000   65.348427   -175.876316
 0.710000   64.451535   -182.242570
 0.715000   63.526001   -187.220121
 0.720000   62.579334   -190.888363
 0.725000   61.617118   -193.452456
 0.730000   60.644809   -194.919018
 0.735000   59.667927   -195.285605
 0.740000   58.691953   -194.402214
 0.745000   57.723905   -192.331429
 0.750000   56.768639   -189.522407
 0.755000   55.828681   -186.178378
 0.760000   54.906855   -182.465457
 0.765000   54.004027   -178.806043
 0.770000   53.118795   -175.835905
 0.775000   52.245668   -174.350238
 0.780000   51.375292   -173.983879
 0.785000   50.505829   -173.711459
 0.790000   49.638178   -173.024836
 0.795000   48.775580   -171.514272
 0.800000   47.923035   -169.106137
 0.805000   47.084519   -165.784886
 0.810000   46.265186   -160.945346
 0.815000   45.475066   -154.687155
 0.820000   44.718314   -147.744883
 0.825000   43.997617   -140.425231
 0.830000   43.314062   -133.168818
 0.835000   42.665929   -126.557278
 0.840000   42.048489   -120.588673
 0.845000   41.460042   -115.689619
 0.850000   40.891593   -113.047111
 0.855000   40.329571   -113.583331
 0.860000   39.755760   -118.282807
 0.865000   39.146743   -128.426541
 0.870000   38.471494   -144.532949
 0.875000   37.701413   -166.868259
 0.880000   36.802812   -196.069463
 0.885000   35.740719   -232.167845
 0.890000   34.481133   -274.675307
 0.895000   32.993966   -323.229631
 0.900000   31.248837   -374.372202
 0.905000   29.250244   -423.724180
 0.910000   27.011595   -468.344338
 0.915000   24.566800   -504.037635
 0.920000   21.971219   -526.649078
 0.925000   19.300309   -532.788620
 0.930000   16.643333   -519.345914
 0.935000   14.106850   -485.297368
 0.940000   11.790359   -432.209322
 0.945000   9.784757   -362.748445
 0.950000   8.162875   -281.496378
 0.955000   6.969793   -194.531169
 0.960000   6.217563   -109.670323
 0.965000   5.873090   -34.373799
 0.970000   5.873825   26.488936
 0.975000   6.137979   70.110248
 0.980000   6.574927   95.737559
 0.985000   7.095355   104.115296
 0.990000   7.616080   97.913750
 0.995000   8.074492   80.746194
 1.000000   8.423542   58.873760
201 psinorm vpol1(km/s) dvpol1/dpsiN
 0.000000   -0.000281   6.031250
 0.005000   0.032438   7.056250
 0.010000   0.070281   8.087500
 0.015000   0.113312   9.062500
 0.020000   0.160906   9.846875
 0.025000   0.211781   10.471875
 0.030000   0.265625   10.875000
 0.035000   0.320531   11.118750
 0.040000   0.376812   11.262500
 0.045000   0.433156   11.318750
 0.050000   0.490000   11.412500
 0.055000   0.547281   11.553125
 0.060000   0.605531   11.768750
 0.065000   0.664969   11.987500
 0.070000   0.725406   12.171875
 0.075000   0.786687   12.359375
 0.080000   0.849000   12.506250
 0.085000   0.911750   12.468750
 0.090000   0.973688   12.300000
 0.095000   1.034750   12.056250
 0.100000   1.094250   11.696875
 0.105000   1.151719   11.237500
 0.110000   1.206625   10.721875
 0.115000   1.258938   10.159375
 0.120000   1.308219   9.621875
 0.125000   1.355156   9.203125
 0.130000   1.400250   8.881250
 0.135000   1.443969   8.637500
 0.140000   1.486625   8.403125
 0.145000   1.528000   8.225000
 0.150000   1.568875   8.068750
 0.155000   1.608688   7.806250
 0.160000   1.646937   7.521875
 0.165000   1.683906   7.125000
 0.170000   1.718187   6.590625
 0.175000   1.749812   6.050000
 0.180000   1.778687   5.396875
 0.185000   1.803781   4.668750
 0.190000   1.825375   3.965625
 0.195000   1.843438   3.221875
 0.200000   1.857594   2.487500
 0.205000   1.868313   1.771875
 0.210000   1.875312   1.068750
 0.215000   1.879000   0.431250
 0.220000   1.879625   -0.162500
 0.225000   1.877375   -0.737500
 0.230000   1.872250   -1.378125
 0.235000   1.863594   -2.034375
 0.240000   1.851906   -2.715625
 0.245000   1.836437   -3.487500
 0.250000   1.817031   -4.284375
 0.255000   1.793594   -5.087500
 0.260000   1.766156   -5.921875
 0.265000   1.734375   -6.781250
 0.270000   1.698344   -7.625000
 0.275000   1.658125   -8.371875
 0.280000   1.614625   -9.090625
 0.285000   1.567219   -9.803125
 0.290000   1.516594   -10.396875
 0.295000   1.463250   -10.959375
 0.300000   1.407000   -11.503125
 0.305000   1.348219   -11.984375
 0.310000   1.287156   -12.471875
 0.315000   1.223500   -12.971875
 0.320000   1.157438   -13.475000
 0.325000   1.088750   -14.003125
 0.330000   1.017406   -14.562500
 0.335000   0.943125   -15.146875
 0.340000   0.865938   -15.700000
 0.345000   0.786125   -16.215625
 0.350000   0.703781   -16.665625
 0.355000   0.619469   -17.003125
 0.360000   0.533750   -17.359375
 0.365000   0.445875   -17.675000
 0.370000   0.357000   -17.937500
 0.375000   0.266500   -18.237500
 0.380000   0.174625   -18.565625
 0.385000   0.080844   -18.881250
 0.390000   -0.014187   -19.215625
 0.395000   -0.111313   -19.590625
 0.400000   -0.210094   -19.934375
 0.405000   -0.310656   -20.287500
 0.410000   -0.412969   -20.584375
 0.415000   -0.516500   -20.762500
 0.420000   -0.620594   -20.965625
 0.425000   -0.726156   -21.331250
 0.430000   -0.833906   -21.965625
 0.435000   -0.945813   -22.981250
 0.440000   -1.063719   -24.646875
 0.445000   -1.192281   -26.728125
 0.450000   -1.331000   -28.825000
 0.455000   -1.480531   -30.931250
 0.460000   -1.640313   -32.943750
 0.465000   -1.809969   -34.781250
 0.470000   -1.988125   -36.237500
 0.475000   -2.172344   -36.890625
 0.480000   -2.357031   -36.615625
 0.485000   -2.538500   -35.615625
 0.490000   -2.713188   -33.918750
 0.495000   -2.877687   -31.521875
 0.500000   -3.028406   -28.528125
 0.505000   -3.162969   -25.312500
 0.510000   -3.281531   -22.215625
 0.515000   -3.385125   -19.275000
 0.520000   -3.474281   -16.581250
 0.525000   -3.550937   -14.175000
 0.530000   -3.616031   -12.206250
 0.535000   -3.673000   -10.940625
 0.540000   -3.725437   -10.137500
 0.545000   -3.774375   -9.653125
 0.550000   -3.821969   -9.365625
 0.555000   -3.868031   -9.153125
 0.560000   -3.913500   -8.918750
 0.565000   -3.957219   -8.468750
 0.570000   -3.998188   -7.831250
 0.575000   -4.035531   -6.962500
 0.580000   -4.067813   -5.940625
 0.585000   -4.094938   -4.803125
 0.590000   -4.115844   -3.515625
 0.595000   -4.130094   -2.206250
 0.600000   -4.137906   -0.965625
 0.605000   -4.139750   0.193750
 0.610000   -4.135969   1.181250
 0.615000   -4.127937   1.900000
 0.620000   -4.116969   2.459375
 0.625000   -4.103344   2.853125
 0.630000   -4.088438   3.100000
 0.635000   -4.072344   3.246875
 0.640000   -4.055969   3.309375
 0.645000   -4.039250   3.353125
 0.650000   -4.022437   3.390625
 0.655000   -4.005344   3.478125
 0.660000   -3.987656   3.553125
 0.665000   -3.969813   3.596875
 0.670000   -3.951688   3.646875
 0.675000   -3.933344   3.650000
 0.680000   -3.915188   3.609375
 0.685000   -3.897250   3.587500
 0.690000   -3.879313   3.625000
 0.695000   -3.861000   3.696875
 0.700000   -3.842344   3.718750
 0.705000   -3.823813   3.746875
 0.710000   -3.804875   3.715625
 0.715000   -3.786656   3.484375
 0.720000   -3.770031   3.053125
 0.725000   -3.756125   2.412500
 0.730000   -3.745906   1.537500
 0.735000   -3.740750   0.412500
 0.740000   -3.741781   -0.903125
 0.745000   -3.749781   -2.346875
 0.750000   -3.765250   -3.828125
 0.755000   -3.788063   -5.184375
 0.760000   -3.817094   -6.312500
 0.765000   -3.851187   -7.209375
 0.770000   -3.889188   -7.906250
 0.775000   -3.930250   -8.478125
 0.780000   -3.973969   -9.071875
 0.785000   -4.020969   -9.806250
 0.790000   -4.072031   -10.931250
 0.795000   -4.130281   -12.575000
 0.800000   -4.197781   -14.609375
 0.805000   -4.276375   -16.950000
 0.810000   -4.367281   -19.481250
 0.815000   -4.471188   -22.006250
 0.820000   -4.587344   -24.403125
 0.825000   -4.715219   -26.425000
 0.830000   -4.851594   -27.909375
 0.835000   -4.994313   -28.843750
 0.840000   -5.140031   -29.012500
 0.845000   -5.284438   -28.215625
 0.850000   -5.422187   -26.248437
 0.855000   -5.546922   -22.842188
 0.860000   -5.650609   -17.965625
 0.865000   -5.726578   -11.865625
 0.870000   -5.769266   -4.800000
 0.875000   -5.774578   2.834375
 0.880000   -5.740922   10.623438
 0.885000   -5.668344   18.221875
 0.890000   -5.558703   25.268750
 0.895000   -5.415656   31.451563
 0.900000   -5.244187   36.429688
 0.905000   -5.051359   39.876562
 0.910000   -4.845422   41.982813
 0.915000   -4.631531   43.414062
 0.920000   -4.411281   44.650000
 0.925000   -4.185031   46.056250
 0.930000   -3.950719   48.151562
 0.935000   -3.703516   52.587500
 0.940000   -3.424844   60.603125
 0.945000   -3.097484   69.653125
 0.950000   -2.728312   74.800000
 0.955000   -2.349484   69.078125
 0.960000   -2.037531   42.482813
 0.965000   -1.924656   -15.440625
 0.970000   -2.191937   -100.065625
 0.975000   -2.925312   -161.132812
 0.980000   -3.803266   -95.865625
 0.985000   -3.883969   191.975000
 0.990000   -1.883516   657.189844
 0.995000   2.687930   1011.445312
 1.000000   8.230937   1205.757812
3 N Z A of ION SPECIES
 6.000000   6.000000   12.010700
 1.000000   1.000000   2.000000
 1.000000   1.000000   2.000000
