201 psinorm ne(10^20/m^3) dne/dpsiN
 0.000000   0.547560   -0.467025
 0.005000   0.545234   -0.463436
 0.010000   0.542926   -0.459862
 0.015000   0.540635   -0.456316
 0.020000   0.538362   -0.452799
 0.025000   0.536107   -0.449310
 0.030000   0.533869   -0.445849
 0.035000   0.531649   -0.442415
 0.040000   0.529445   -0.439009
 0.045000   0.527259   -0.435630
 0.050000   0.525089   -0.432278
 0.055000   0.522936   -0.428953
 0.060000   0.520799   -0.425653
 0.065000   0.518679   -0.422380
 0.070000   0.516576   -0.419133
 0.075000   0.514488   -0.415911
 0.080000   0.512416   -0.412715
 0.085000   0.510361   -0.409543
 0.090000   0.508321   -0.406397
 0.095000   0.506297   -0.403275
 0.100000   0.504288   -0.400177
 0.105000   0.502295   -0.397104
 0.110000   0.500317   -0.394054
 0.115000   0.498355   -0.391028
 0.120000   0.496407   -0.388026
 0.125000   0.494474   -0.385047
 0.130000   0.492557   -0.382091
 0.135000   0.490653   -0.379157
 0.140000   0.488765   -0.376246
 0.145000   0.486891   -0.373358
 0.150000   0.485031   -0.370491
 0.155000   0.483186   -0.367647
 0.160000   0.481355   -0.364824
 0.165000   0.479538   -0.362022
 0.170000   0.477735   -0.359242
 0.175000   0.475945   -0.356483
 0.180000   0.474170   -0.353745
 0.185000   0.472408   -0.351028
 0.190000   0.470660   -0.348331
 0.195000   0.468925   -0.345654
 0.200000   0.467203   -0.342997
 0.205000   0.465495   -0.340361
 0.210000   0.463799   -0.337744
 0.215000   0.462117   -0.335146
 0.220000   0.460448   -0.332568
 0.225000   0.458792   -0.330009
 0.230000   0.457148   -0.327469
 0.235000   0.455517   -0.324948
 0.240000   0.453898   -0.322446
 0.245000   0.452292   -0.319962
 0.250000   0.450699   -0.317496
 0.255000   0.449117   -0.315048
 0.260000   0.447548   -0.312618
 0.265000   0.445991   -0.310206
 0.270000   0.444446   -0.307811
 0.275000   0.442913   -0.305434
 0.280000   0.441392   -0.303074
 0.285000   0.439882   -0.300731
 0.290000   0.438385   -0.298405
 0.295000   0.436898   -0.296096
 0.300000   0.435424   -0.293803
 0.305000   0.433960   -0.291527
 0.310000   0.432508   -0.289267
 0.315000   0.431068   -0.287024
 0.320000   0.429638   -0.284796
 0.325000   0.428220   -0.282584
 0.330000   0.426812   -0.280387
 0.335000   0.425416   -0.278207
 0.340000   0.424030   -0.276041
 0.345000   0.422655   -0.273891
 0.350000   0.421291   -0.271756
 0.355000   0.419938   -0.269636
 0.360000   0.418595   -0.267530
 0.365000   0.417263   -0.265439
 0.370000   0.415941   -0.263363
 0.375000   0.414629   -0.261301
 0.380000   0.413328   -0.259253
 0.385000   0.412036   -0.257220
 0.390000   0.410755   -0.255200
 0.395000   0.409484   -0.253195
 0.400000   0.408223   -0.251202
 0.405000   0.406972   -0.249224
 0.410000   0.405731   -0.247259
 0.415000   0.404500   -0.245307
 0.420000   0.403278   -0.243369
 0.425000   0.402066   -0.241443
 0.430000   0.400864   -0.239531
 0.435000   0.399671   -0.237631
 0.440000   0.398487   -0.235744
 0.445000   0.397313   -0.233869
 0.450000   0.396149   -0.232007
 0.455000   0.394993   -0.230157
 0.460000   0.393847   -0.228320
 0.465000   0.392710   -0.226494
 0.470000   0.391582   -0.224681
 0.475000   0.390463   -0.222879
 0.480000   0.389353   -0.221089
 0.485000   0.388252   -0.219311
 0.490000   0.387160   -0.217544
 0.495000   0.386077   -0.215789
 0.500000   0.385002   -0.214045
 0.505000   0.383936   -0.212312
 0.510000   0.382879   -0.210590
 0.515000   0.381831   -0.208880
 0.520000   0.380790   -0.207180
 0.525000   0.379759   -0.205491
 0.530000   0.378736   -0.203812
 0.535000   0.377721   -0.202144
 0.540000   0.376714   -0.200487
 0.545000   0.375716   -0.198840
 0.550000   0.374726   -0.197203
 0.555000   0.373744   -0.195576
 0.560000   0.372770   -0.193959
 0.565000   0.371804   -0.192353
 0.570000   0.370846   -0.190756
 0.575000   0.369897   -0.189169
 0.580000   0.368955   -0.187591
 0.585000   0.368021   -0.186023
 0.590000   0.367094   -0.184465
 0.595000   0.366176   -0.182916
 0.600000   0.365265   -0.181376
 0.605000   0.364362   -0.179846
 0.610000   0.363467   -0.178324
 0.615000   0.362579   -0.176812
 0.620000   0.361699   -0.175308
 0.625000   0.360826   -0.173814
 0.630000   0.359961   -0.172328
 0.635000   0.359103   -0.170851
 0.640000   0.358252   -0.169382
 0.645000   0.357409   -0.167922
 0.650000   0.356573   -0.166470
 0.655000   0.355744   -0.165027
 0.660000   0.354923   -0.163592
 0.665000   0.354108   -0.162165
 0.670000   0.353301   -0.160746
 0.675000   0.352501   -0.159335
 0.680000   0.351708   -0.157932
 0.685000   0.350921   -0.156536
 0.690000   0.350142   -0.155149
 0.695000   0.349370   -0.153769
 0.700000   0.348605   -0.152397
 0.705000   0.347846   -0.151032
 0.710000   0.347094   -0.149675
 0.715000   0.346349   -0.148325
 0.720000   0.345611   -0.146982
 0.725000   0.344879   -0.145647
 0.730000   0.344155   -0.144318
 0.735000   0.343436   -0.142997
 0.740000   0.342725   -0.141682
 0.745000   0.342019   -0.140374
 0.750000   0.341321   -0.139073
 0.755000   0.340629   -0.137777
 0.760000   0.339943   -0.136488
 0.765000   0.339264   -0.135205
 0.770000   0.338591   -0.133927
 0.775000   0.337925   -0.132654
 0.780000   0.337264   -0.131384
 0.785000   0.336611   -0.130118
 0.790000   0.335963   -0.128852
 0.795000   0.335322   -0.127586
 0.800000   0.334687   -0.126315
 0.805000   0.334059   -0.125037
 0.810000   0.333437   -0.123745
 0.815000   0.332822   -0.122432
 0.820000   0.332213   -0.121087
 0.825000   0.331611   -0.119697
 0.830000   0.331016   -0.118244
 0.835000   0.330428   -0.116703
 0.840000   0.329849   -0.115043
 0.845000   0.329278   -0.113225
 0.850000   0.328716   -0.111202
 0.855000   0.328166   -0.108919
 0.860000   0.327627   -0.106317
 0.865000   0.327103   -0.103346
 0.870000   0.326594   -0.099980
 0.875000   0.326103   -0.096263
 0.880000   0.325631   -0.092371
 0.885000   0.325179   -0.088744
 0.890000   0.324744   -0.086289
 0.895000   0.324316   -0.086729
 0.900000   0.323876   -0.093163
 0.905000   0.323385   -0.110937
 0.910000   0.322767   -0.148921
 0.915000   0.321895   -0.221238
 0.920000   0.320555   -0.349195
 0.925000   0.318403   -0.562483
 0.930000   0.314930   -0.897371
 0.935000   0.309430   -1.387765
 0.940000   0.301052   -2.044753
 0.945000   0.288982   -2.826376
 0.950000   0.272789   -3.615557
 0.955000   0.252827   -4.238766
 0.960000   0.230401   -4.539555
 0.965000   0.207431   -4.463672
 0.970000   0.185764   -4.082828
 0.975000   0.166603   -3.539256
 0.980000   0.150372   -2.967638
 0.985000   0.136926   -2.452173
 0.990000   0.125850   -2.026083
 0.995000   0.116666   -1.690220
 1.000000   0.108948   -1.396972
201 psinorm te(KeV) dte/dpsiN
 0.000000   3.955566   -3.433425
 0.005000   3.938382   -3.440076
 0.010000   3.921165   -3.446619
 0.015000   3.903916   -3.452943
 0.020000   3.886636   -3.459050
 0.025000   3.869325   -3.464940
 0.030000   3.851986   -3.470613
 0.035000   3.834619   -3.476070
 0.040000   3.817225   -3.481312
 0.045000   3.799806   -3.486339
 0.050000   3.782362   -3.491151
 0.055000   3.764895   -3.495749
 0.060000   3.747405   -3.500134
 0.065000   3.729893   -3.504307
 0.070000   3.712361   -3.508267
 0.075000   3.694810   -3.512017
 0.080000   3.677241   -3.515555
 0.085000   3.659655   -3.518884
 0.090000   3.642052   -3.522003
 0.095000   3.624435   -3.524914
 0.100000   3.606803   -3.527618
 0.105000   3.589159   -3.530115
 0.110000   3.571502   -3.532405
 0.115000   3.553835   -3.534490
 0.120000   3.536157   -3.536371
 0.125000   3.518471   -3.538049
 0.130000   3.500777   -3.539524
 0.135000   3.483076   -3.540797
 0.140000   3.465369   -3.541869
 0.145000   3.447657   -3.542741
 0.150000   3.429941   -3.543414
 0.155000   3.412223   -3.543890
 0.160000   3.394502   -3.544168
 0.165000   3.376781   -3.544250
 0.170000   3.359060   -3.544138
 0.175000   3.341340   -3.543831
 0.180000   3.323622   -3.543332
 0.185000   3.305907   -3.542640
 0.190000   3.288195   -3.541758
 0.195000   3.270489   -3.540687
 0.200000   3.252788   -3.539426
 0.205000   3.235095   -3.537978
 0.210000   3.217409   -3.536344
 0.215000   3.199731   -3.534525
 0.220000   3.182063   -3.532522
 0.225000   3.164406   -3.530336
 0.230000   3.146760   -3.527969
 0.235000   3.129126   -3.525421
 0.240000   3.111506   -3.522694
 0.245000   3.093899   -3.519789
 0.250000   3.076308   -3.516707
 0.255000   3.058732   -3.513450
 0.260000   3.041173   -3.510019
 0.265000   3.023632   -3.506414
 0.270000   3.006109   -3.502639
 0.275000   2.988606   -3.498693
 0.280000   2.971122   -3.494578
 0.285000   2.953660   -3.490295
 0.290000   2.936219   -3.485846
 0.295000   2.918802   -3.481232
 0.300000   2.901407   -3.476455
 0.305000   2.884037   -3.471515
 0.310000   2.866692   -3.466414
 0.315000   2.849373   -3.461154
 0.320000   2.832080   -3.455736
 0.325000   2.814815   -3.450161
 0.330000   2.797579   -3.444431
 0.335000   2.780371   -3.438548
 0.340000   2.763193   -3.432511
 0.345000   2.746046   -3.426324
 0.350000   2.728930   -3.419988
 0.355000   2.711846   -3.413503
 0.360000   2.694795   -3.406872
 0.365000   2.677777   -3.400095
 0.370000   2.660794   -3.393175
 0.375000   2.643846   -3.386113
 0.380000   2.626933   -3.378910
 0.385000   2.610057   -3.371568
 0.390000   2.593217   -3.364088
 0.395000   2.576416   -3.356472
 0.400000   2.559653   -3.348721
 0.405000   2.542928   -3.340837
 0.410000   2.526244   -3.332822
 0.415000   2.509600   -3.324676
 0.420000   2.492997   -3.316402
 0.425000   2.476436   -3.308001
 0.430000   2.459917   -3.299474
 0.435000   2.443442   -3.290823
 0.440000   2.427009   -3.282050
 0.445000   2.410621   -3.273156
 0.450000   2.394278   -3.264142
 0.455000   2.377980   -3.255011
 0.460000   2.361728   -3.245763
 0.465000   2.345522   -3.236401
 0.470000   2.329363   -3.226926
 0.475000   2.313253   -3.217339
 0.480000   2.297190   -3.207642
 0.485000   2.281176   -3.197836
 0.490000   2.265212   -3.187924
 0.495000   2.249297   -3.177906
 0.500000   2.233433   -3.167785
 0.505000   2.217619   -3.157561
 0.510000   2.201857   -3.147237
 0.515000   2.186147   -3.136813
 0.520000   2.170489   -3.126292
 0.525000   2.154884   -3.115676
 0.530000   2.139332   -3.104964
 0.535000   2.123834   -3.094160
 0.540000   2.108391   -3.083265
 0.545000   2.093002   -3.072280
 0.550000   2.077668   -3.061207
 0.555000   2.062390   -3.050047
 0.560000   2.047167   -3.038802
 0.565000   2.032002   -3.027474
 0.570000   2.016893   -3.016063
 0.575000   2.001841   -3.004573
 0.580000   1.986847   -2.993003
 0.585000   1.971911   -2.981356
 0.590000   1.957033   -2.969633
 0.595000   1.942215   -2.957836
 0.600000   1.927455   -2.945966
 0.605000   1.912755   -2.934025
 0.610000   1.898115   -2.922014
 0.615000   1.883535   -2.909935
 0.620000   1.869015   -2.897789
 0.625000   1.854557   -2.885577
 0.630000   1.840160   -2.873302
 0.635000   1.825824   -2.860964
 0.640000   1.811550   -2.848566
 0.645000   1.797338   -2.836107
 0.650000   1.783189   -2.823590
 0.655000   1.769102   -2.811016
 0.660000   1.755079   -2.798387
 0.665000   1.741118   -2.785703
 0.670000   1.727222   -2.772966
 0.675000   1.713389   -2.760177
 0.680000   1.699620   -2.747337
 0.685000   1.685915   -2.734447
 0.690000   1.672275   -2.721507
 0.695000   1.658700   -2.708520
 0.700000   1.645190   -2.695485
 0.705000   1.631745   -2.682403
 0.710000   1.618366   -2.669275
 0.715000   1.605053   -2.656100
 0.720000   1.591805   -2.642878
 0.725000   1.578624   -2.629611
 0.730000   1.565509   -2.616296
 0.735000   1.552461   -2.602934
 0.740000   1.539480   -2.589524
 0.745000   1.526566   -2.576064
 0.750000   1.513719   -2.562554
 0.755000   1.500940   -2.548993
 0.760000   1.488229   -2.535379
 0.765000   1.475586   -2.521713
 0.770000   1.463012   -2.507996
 0.775000   1.450506   -2.494229
 0.780000   1.438070   -2.480418
 0.785000   1.425702   -2.466571
 0.790000   1.413404   -2.452703
 0.795000   1.401175   -2.438838
 0.800000   1.389016   -2.425011
 0.805000   1.376925   -2.411276
 0.810000   1.364903   -2.397710
 0.815000   1.352948   -2.384425
 0.820000   1.341059   -2.371583
 0.825000   1.329232   -2.359409
 0.830000   1.317465   -2.348221
 0.835000   1.305750   -2.338461
 0.840000   1.294080   -2.330741
 0.845000   1.282443   -2.325907
 0.850000   1.270821   -2.325115
 0.855000   1.259191   -2.329948
 0.860000   1.247521   -2.342558
 0.865000   1.235766   -2.365861
 0.870000   1.223863   -2.403794
 0.875000   1.211728   -2.461641
 0.880000   1.199246   -2.546459
 0.885000   1.186263   -2.667604
 0.890000   1.172570   -2.837374
 0.895000   1.157890   -3.071739
 0.900000   1.141853   -3.391112
 0.905000   1.123978   -3.821001
 0.910000   1.103643   -4.392253
 0.915000   1.080056   -5.140369
 0.920000   1.052239   -6.103007
 0.925000   1.019026   -7.314426
 0.930000   0.979095   -8.795304
 0.935000   0.931073   -10.536660
 0.940000   0.873728   -12.478276
 0.945000   0.806290   -14.486026
 0.950000   0.728868   -16.339189
 0.955000   0.642898   -17.745178
 0.960000   0.551416   -18.397669
 0.965000   0.458921   -18.075332
 0.970000   0.370663   -16.743795
 0.975000   0.291483   -14.598641
 0.980000   0.224677   -12.007842
 0.985000   0.171405   -9.377934
 0.990000   0.130897   -7.022745
 0.995000   0.101178   -5.102334
 1.000000   0.079874   -3.419144
201 psinorm ni(10^20/m^3) dni/dpsiN
 0.000000   0.336602   -0.580592
 0.005000   0.333929   -0.488621
 0.010000   0.331716   -0.410408
 0.015000   0.329825   -0.350783
 0.020000   0.328208   -0.300502
 0.025000   0.326820   -0.256972
 0.030000   0.325638   -0.219759
 0.035000   0.324622   -0.188511
 0.040000   0.323753   -0.160946
 0.045000   0.323013   -0.137506
 0.050000   0.322378   -0.117381
 0.055000   0.321839   -0.100069
 0.060000   0.321377   -0.085993
 0.065000   0.320979   -0.074541
 0.070000   0.320632   -0.065145
 0.075000   0.320328   -0.057480
 0.080000   0.320057   -0.051500
 0.085000   0.319813   -0.047171
 0.090000   0.319585   -0.044243
 0.095000   0.319370   -0.042312
 0.100000   0.319162   -0.041312
 0.105000   0.318957   -0.041232
 0.110000   0.318750   -0.041908
 0.115000   0.318538   -0.043180
 0.120000   0.318318   -0.045120
 0.125000   0.318087   -0.047521
 0.130000   0.317843   -0.050138
 0.135000   0.317585   -0.053085
 0.140000   0.317312   -0.056445
 0.145000   0.317021   -0.060058
 0.150000   0.316712   -0.063745
 0.155000   0.316384   -0.067540
 0.160000   0.316036   -0.071454
 0.165000   0.315669   -0.075600
 0.170000   0.315280   -0.079965
 0.175000   0.314869   -0.084263
 0.180000   0.314438   -0.088285
 0.185000   0.313986   -0.092261
 0.190000   0.313515   -0.096386
 0.195000   0.313023   -0.100514
 0.200000   0.312510   -0.104571
 0.205000   0.311977   -0.108539
 0.210000   0.311424   -0.112400
 0.215000   0.310853   -0.116534
 0.220000   0.310259   -0.120608
 0.225000   0.309647   -0.124088
 0.230000   0.309018   -0.127254
 0.235000   0.308374   -0.130208
 0.240000   0.307716   -0.133000
 0.245000   0.307044   -0.135862
 0.250000   0.306357   -0.138952
 0.255000   0.305655   -0.141720
 0.260000   0.304940   -0.144100
 0.265000   0.304214   -0.146510
 0.270000   0.303475   -0.148930
 0.275000   0.302724   -0.151757
 0.280000   0.301958   -0.154643
 0.285000   0.301178   -0.157159
 0.290000   0.300386   -0.159673
 0.295000   0.299581   -0.162231
 0.300000   0.298764   -0.165122
 0.305000   0.297930   -0.168030
 0.310000   0.297083   -0.170553
 0.315000   0.296225   -0.173002
 0.320000   0.295353   -0.175410
 0.325000   0.294470   -0.177917
 0.330000   0.293574   -0.180219
 0.335000   0.292668   -0.182103
 0.340000   0.291753   -0.183857
 0.345000   0.290830   -0.185626
 0.350000   0.289897   -0.187371
 0.355000   0.288956   -0.188902
 0.360000   0.288008   -0.190320
 0.365000   0.287053   -0.191773
 0.370000   0.286090   -0.193358
 0.375000   0.285119   -0.194875
 0.380000   0.284141   -0.196217
 0.385000   0.283157   -0.197525
 0.390000   0.282166   -0.198879
 0.395000   0.281168   -0.200146
 0.400000   0.280165   -0.201177
 0.405000   0.279156   -0.202054
 0.410000   0.278144   -0.202842
 0.415000   0.277128   -0.203503
 0.420000   0.276109   -0.203919
 0.425000   0.275089   -0.204114
 0.430000   0.274068   -0.204176
 0.435000   0.273047   -0.204136
 0.440000   0.272027   -0.203923
 0.445000   0.271008   -0.203551
 0.450000   0.269991   -0.203106
 0.455000   0.268977   -0.202657
 0.460000   0.267965   -0.202098
 0.465000   0.266956   -0.201356
 0.470000   0.265951   -0.200492
 0.475000   0.264951   -0.199509
 0.480000   0.263956   -0.198297
 0.485000   0.262968   -0.196757
 0.490000   0.261988   -0.194940
 0.495000   0.261019   -0.192884
 0.500000   0.260060   -0.190544
 0.505000   0.259113   -0.187838
 0.510000   0.258181   -0.184809
 0.515000   0.257265   -0.181526
 0.520000   0.256366   -0.178028
 0.525000   0.255485   -0.174270
 0.530000   0.254623   -0.170263
 0.535000   0.253782   -0.166097
 0.540000   0.252962   -0.161847
 0.545000   0.252164   -0.157464
 0.550000   0.251388   -0.152908
 0.555000   0.250635   -0.148235
 0.560000   0.249905   -0.143469
 0.565000   0.249200   -0.138588
 0.570000   0.248519   -0.133530
 0.575000   0.247865   -0.128299
 0.580000   0.247236   -0.122925
 0.585000   0.246635   -0.117451
 0.590000   0.246062   -0.111875
 0.595000   0.245517   -0.106201
 0.600000   0.245000   -0.100479
 0.605000   0.244512   -0.094736
 0.610000   0.244052   -0.088990
 0.615000   0.243622   -0.083233
 0.620000   0.243220   -0.077452
 0.625000   0.242847   -0.071640
 0.630000   0.242504   -0.065794
 0.635000   0.242189   -0.059924
 0.640000   0.241904   -0.054037
 0.645000   0.241649   -0.048149
 0.650000   0.241423   -0.042240
 0.655000   0.241227   -0.036347
 0.660000   0.241060   -0.030539
 0.665000   0.240921   -0.024793
 0.670000   0.240812   -0.018967
 0.675000   0.240732   -0.012777
 0.680000   0.240684   -0.005443
 0.685000   0.240677   0.003432
 0.690000   0.240718   0.013397
 0.695000   0.240811   0.024216
 0.700000   0.240960   0.035778
 0.705000   0.241169   0.047802
 0.710000   0.241438   0.060468
 0.715000   0.241774   0.072947
 0.720000   0.242168   0.083784
 0.725000   0.242611   0.092855
 0.730000   0.243096   0.100154
 0.735000   0.243613   0.105362
 0.740000   0.244150   0.108218
 0.745000   0.244695   0.108223
 0.750000   0.245232   0.105238
 0.755000   0.245748   0.099740
 0.760000   0.246230   0.092123
 0.765000   0.246669   0.082766
 0.770000   0.247057   0.071834
 0.775000   0.247387   0.059821
 0.780000   0.247655   0.048088
 0.785000   0.247868   0.037222
 0.790000   0.248028   0.027096
 0.795000   0.248139   0.017869
 0.800000   0.248206   0.009571
 0.805000   0.248235   0.002337
 0.810000   0.248230   -0.003729
 0.815000   0.248197   -0.009070
 0.820000   0.248139   -0.014180
 0.825000   0.248056   -0.019192
 0.830000   0.247947   -0.024120
 0.835000   0.247814   -0.028891
 0.840000   0.247658   -0.033335
 0.845000   0.247481   -0.037343
 0.850000   0.247285   -0.040872
 0.855000   0.247072   -0.043850
 0.860000   0.246846   -0.046207
 0.865000   0.246610   -0.047865
 0.870000   0.246368   -0.048739
 0.875000   0.246123   -0.048790
 0.880000   0.245880   -0.048177
 0.885000   0.245641   -0.047362
 0.890000   0.245406   -0.047238
 0.895000   0.245169   -0.049470
 0.900000   0.244911   -0.056980
 0.905000   0.244599   -0.074654
 0.910000   0.244165   -0.110468
 0.915000   0.243494   -0.176960
 0.920000   0.242395   -0.292697
 0.925000   0.240567   -0.481739
 0.930000   0.237578   -0.772759
 0.935000   0.232840   -1.190315
 0.940000   0.225675   -1.734106
 0.945000   0.215499   -2.352914
 0.950000   0.202146   -2.928526
 0.955000   0.186213   -3.293814
 0.960000   0.169207   -3.332746
 0.965000   0.152886   -3.054598
 0.970000   0.138661   -2.578010
 0.975000   0.127106   -2.067262
 0.980000   0.117989   -1.641613
 0.985000   0.110690   -1.340055
 0.990000   0.104588   -1.145197
 0.995000   0.099238   -1.018070
 1.000000   0.094408   -0.913946
201 psinorm ti(KeV) dti/dpsiN
 0.000000   5.376797   0.002291
 0.005000   5.376137   -0.266353
 0.010000   5.374133   -0.538298
 0.015000   5.370754   -0.816474
 0.020000   5.365968   -1.100081
 0.025000   5.359753   -1.388169
 0.030000   5.352087   -1.679645
 0.035000   5.342956   -1.973307
 0.040000   5.332354   -2.267402
 0.045000   5.320282   -2.560817
 0.050000   5.306745   -2.852852
 0.055000   5.291754   -3.142270
 0.060000   5.275323   -3.428181
 0.065000   5.257472   -3.710008
 0.070000   5.238223   -3.986932
 0.075000   5.217603   -4.259411
 0.080000   5.195629   -4.527857
 0.085000   5.172324   -4.791333
 0.090000   5.147715   -5.049473
 0.095000   5.121829   -5.302114
 0.100000   5.094694   -5.548928
 0.105000   5.066340   -5.789852
 0.110000   5.036796   -6.024968
 0.115000   5.006090   -6.254294
 0.120000   4.974253   -6.477946
 0.125000   4.941311   -6.695702
 0.130000   4.907296   -6.907022
 0.135000   4.872241   -7.110252
 0.140000   4.836193   -7.303638
 0.145000   4.799204   -7.486702
 0.150000   4.761326   -7.659071
 0.155000   4.722614   -7.820102
 0.160000   4.683125   -7.968916
 0.165000   4.642924   -8.104494
 0.170000   4.602080   -8.226764
 0.175000   4.560657   -8.335897
 0.180000   4.518721   -8.431629
 0.185000   4.476341   -8.513982
 0.190000   4.433581   -8.582760
 0.195000   4.390513   -8.639659
 0.200000   4.347185   -8.689208
 0.205000   4.303621   -8.733536
 0.210000   4.259849   -8.772568
 0.215000   4.215895   -8.806902
 0.220000   4.171780   -8.837816
 0.225000   4.127517   -8.867846
 0.230000   4.083102   -8.894125
 0.235000   4.038576   -8.913423
 0.240000   3.993968   -8.926019
 0.245000   3.949316   -8.930076
 0.250000   3.904667   -8.924167
 0.255000   3.860074   -8.908445
 0.260000   3.815582   -8.878698
 0.265000   3.771287   -8.833242
 0.270000   3.727250   -8.775015
 0.275000   3.683537   -8.703690
 0.280000   3.640213   -8.619076
 0.285000   3.597346   -8.520262
 0.290000   3.555011   -8.405219
 0.295000   3.513294   -8.273417
 0.300000   3.472276   -8.126446
 0.305000   3.432029   -7.966830
 0.310000   3.392608   -7.798245
 0.315000   3.354047   -7.622081
 0.320000   3.316387   -7.444895
 0.325000   3.279598   -7.271045
 0.330000   3.243677   -7.097907
 0.335000   3.208619   -6.926098
 0.340000   3.174416   -6.756180
 0.345000   3.141057   -6.589455
 0.350000   3.108521   -6.426707
 0.355000   3.076790   -6.266891
 0.360000   3.045852   -6.109174
 0.365000   3.015698   -5.953054
 0.370000   2.986322   -5.797385
 0.375000   2.957724   -5.640284
 0.380000   2.929919   -5.475236
 0.385000   2.902972   -5.298940
 0.390000   2.876930   -5.114683
 0.395000   2.851825   -4.924537
 0.400000   2.827684   -4.730194
 0.405000   2.804523   -4.529953
 0.410000   2.782385   -4.327145
 0.415000   2.761252   -4.130604
 0.420000   2.741079   -3.942871
 0.425000   2.721823   -3.764156
 0.430000   2.703437   -3.595364
 0.435000   2.685869   -3.435254
 0.440000   2.669085   -3.284866
 0.445000   2.653021   -3.146987
 0.450000   2.637615   -3.020455
 0.455000   2.622816   -2.903869
 0.460000   2.608576   -2.797136
 0.465000   2.594845   -2.700438
 0.470000   2.581572   -2.614482
 0.475000   2.568700   -2.538196
 0.480000   2.556190   -2.469284
 0.485000   2.544007   -2.406191
 0.490000   2.532128   -2.347502
 0.495000   2.520532   -2.292257
 0.500000   2.509205   -2.239794
 0.505000   2.498134   -2.190729
 0.510000   2.487298   -2.146829
 0.515000   2.476666   -2.109090
 0.520000   2.466207   -2.077722
 0.525000   2.455889   -2.052764
 0.530000   2.445679   -2.034203
 0.535000   2.435547   -2.021896
 0.540000   2.425460   -2.015677
 0.545000   2.415390   -2.015432
 0.550000   2.405306   -2.020992
 0.555000   2.395180   -2.032176
 0.560000   2.384984   -2.048824
 0.565000   2.374692   -2.070571
 0.570000   2.364279   -2.097054
 0.575000   2.353721   -2.128041
 0.580000   2.342998   -2.163190
 0.585000   2.332089   -2.202115
 0.590000   2.320977   -2.244324
 0.595000   2.309646   -2.289234
 0.600000   2.298085   -2.336409
 0.605000   2.286282   -2.385502
 0.610000   2.274230   -2.436067
 0.615000   2.261921   -2.487646
 0.620000   2.249353   -2.539567
 0.625000   2.236526   -2.591531
 0.630000   2.223438   -2.643316
 0.635000   2.210093   -2.694349
 0.640000   2.196494   -2.744202
 0.645000   2.182651   -2.792482
 0.650000   2.168570   -2.839205
 0.655000   2.154258   -2.886018
 0.660000   2.139709   -2.934693
 0.665000   2.124912   -2.985574
 0.670000   2.109854   -3.038579
 0.675000   2.094526   -3.093303
 0.680000   2.078921   -3.151507
 0.685000   2.063011   -3.208956
 0.690000   2.046831   -3.258189
 0.695000   2.030429   -3.298247
 0.700000   2.013849   -3.328860
 0.705000   1.997140   -3.349299
 0.710000   1.980356   -3.359363
 0.715000   1.963547   -3.357660
 0.720000   1.946779   -3.343589
 0.725000   1.930111   -3.318446
 0.730000   1.913595   -3.282907
 0.735000   1.897282   -3.237521
 0.740000   1.881219   -3.181546
 0.745000   1.865466   -3.115778
 0.750000   1.850062   -3.045060
 0.755000   1.835016   -2.972797
 0.760000   1.820334   -2.900508
 0.765000   1.806010   -2.830043
 0.770000   1.792033   -2.762417
 0.775000   1.778386   -2.697649
 0.780000   1.765057   -2.634087
 0.785000   1.752045   -2.570180
 0.790000   1.739355   -2.505958
 0.795000   1.726986   -2.441812
 0.800000   1.714937   -2.378398
 0.805000   1.703202   -2.316534
 0.810000   1.691771   -2.256869
 0.815000   1.680633   -2.201132
 0.820000   1.669760   -2.151491
 0.825000   1.659118   -2.109053
 0.830000   1.648670   -2.074980
 0.835000   1.638368   -2.050357
 0.840000   1.628166   -2.030740
 0.845000   1.618061   -2.014346
 0.850000   1.608023   -2.005837
 0.855000   1.598003   -2.008893
 0.860000   1.587934   -2.028631
 0.865000   1.577716   -2.075188
 0.870000   1.567182   -2.148118
 0.875000   1.556235   -2.245870
 0.880000   1.544723   -2.376849
 0.885000   1.532467   -2.546696
 0.890000   1.519256   -2.762918
 0.895000   1.504838   -3.056508
 0.900000   1.488691   -3.434138
 0.905000   1.470496   -3.896054
 0.910000   1.449730   -4.471575
 0.915000   1.425780   -5.179326
 0.920000   1.397937   -6.037518
 0.925000   1.365405   -7.111777
 0.930000   1.326819   -8.363170
 0.935000   1.281774   -9.710329
 0.940000   1.229716   -11.140186
 0.945000   1.170372   -12.577333
 0.950000   1.103943   -13.911981
 0.955000   1.031252   -15.058626
 0.960000   0.953357   -15.831085
 0.965000   0.872941   -16.073762
 0.970000   0.792619   -15.798520
 0.975000   0.714956   -15.029169
 0.980000   0.642327   -13.826416
 0.985000   0.576692   -12.293892
 0.990000   0.519388   -10.534093
 0.995000   0.471351   -8.661733
 1.000000   0.432771   -6.770152
201 psinorm nb(10^20/m^3) dnb/dpsiN
 0.000000   0.090250   0.113559
 0.005000   0.090603   0.027831
 0.010000   0.090528   -0.044139
 0.015000   0.090162   -0.097526
 0.020000   0.089553   -0.141583
 0.025000   0.088746   -0.178907
 0.030000   0.087764   -0.209946
 0.035000   0.086647   -0.235060
 0.040000   0.085413   -0.256546
 0.045000   0.084081   -0.273968
 0.050000   0.082673   -0.288143
 0.055000   0.081200   -0.299580
 0.060000   0.079678   -0.307865
 0.065000   0.078121   -0.313614
 0.070000   0.076541   -0.317408
 0.075000   0.074947   -0.319565
 0.080000   0.073346   -0.320128
 0.085000   0.071746   -0.319132
 0.090000   0.070154   -0.316825
 0.095000   0.068577   -0.313611
 0.100000   0.067018   -0.309547
 0.105000   0.065482   -0.304643
 0.110000   0.063972   -0.299072
 0.115000   0.062491   -0.293002
 0.120000   0.061042   -0.286367
 0.125000   0.059628   -0.279378
 0.130000   0.058248   -0.272280
 0.135000   0.056905   -0.264967
 0.140000   0.055598   -0.257367
 0.145000   0.054331   -0.249647
 0.150000   0.053102   -0.241988
 0.155000   0.051911   -0.234362
 0.160000   0.050758   -0.226765
 0.165000   0.049644   -0.219092
 0.170000   0.048567   -0.211358
 0.175000   0.047530   -0.203848
 0.180000   0.046529   -0.196772
 0.185000   0.045562   -0.189903
 0.190000   0.044630   -0.183049
 0.195000   0.043732   -0.176358
 0.200000   0.042866   -0.169879
 0.205000   0.042033   -0.163615
 0.210000   0.041230   -0.157566
 0.215000   0.040457   -0.151328
 0.220000   0.039717   -0.145195
 0.225000   0.039005   -0.139655
 0.230000   0.038320   -0.134457
 0.235000   0.037661   -0.129549
 0.240000   0.037025   -0.124885
 0.245000   0.036412   -0.120248
 0.250000   0.035822   -0.115491
 0.255000   0.035257   -0.111156
 0.260000   0.034711   -0.107384
 0.265000   0.034183   -0.103801
 0.270000   0.033673   -0.100397
 0.275000   0.033179   -0.096782
 0.280000   0.032705   -0.093308
 0.285000   0.032246   -0.090417
 0.290000   0.031801   -0.087743
 0.295000   0.031369   -0.085205
 0.300000   0.030949   -0.082482
 0.305000   0.030544   -0.079869
 0.310000   0.030150   -0.077741
 0.315000   0.029766   -0.075792
 0.320000   0.029392   -0.073912
 0.325000   0.029027   -0.071883
 0.330000   0.028673   -0.070023
 0.335000   0.028327   -0.068543
 0.340000   0.027988   -0.067154
 0.345000   0.027656   -0.065711
 0.350000   0.027331   -0.064272
 0.355000   0.027013   -0.063075
 0.360000   0.026700   -0.062041
 0.365000   0.026392   -0.061028
 0.370000   0.026090   -0.059937
 0.375000   0.025793   -0.058956
 0.380000   0.025500   -0.058177
 0.385000   0.025211   -0.057439
 0.390000   0.024926   -0.056629
 0.395000   0.024645   -0.055854
 0.400000   0.024367   -0.055238
 0.405000   0.024093   -0.054668
 0.410000   0.023821   -0.054053
 0.415000   0.023552   -0.053422
 0.420000   0.023286   -0.052880
 0.425000   0.023023   -0.052394
 0.430000   0.022763   -0.051878
 0.435000   0.022504   -0.051305
 0.440000   0.022249   -0.050779
 0.445000   0.021997   -0.050327
 0.450000   0.021746   -0.049867
 0.455000   0.021498   -0.049327
 0.460000   0.021253   -0.048811
 0.465000   0.021010   -0.048390
 0.470000   0.020769   -0.047977
 0.475000   0.020530   -0.047495
 0.480000   0.020294   -0.047019
 0.485000   0.020060   -0.046633
 0.490000   0.019828   -0.046268
 0.495000   0.019597   -0.045867
 0.500000   0.019369   -0.045454
 0.505000   0.019143   -0.045104
 0.510000   0.018918   -0.044788
 0.515000   0.018695   -0.044457
 0.520000   0.018473   -0.044094
 0.525000   0.018254   -0.043765
 0.530000   0.018036   -0.043487
 0.535000   0.017819   -0.043210
 0.540000   0.017604   -0.042888
 0.545000   0.017390   -0.042574
 0.550000   0.017178   -0.042322
 0.555000   0.016967   -0.042081
 0.560000   0.016757   -0.041827
 0.565000   0.016549   -0.041563
 0.570000   0.016342   -0.041336
 0.575000   0.016135   -0.041141
 0.580000   0.015930   -0.040956
 0.585000   0.015726   -0.040756
 0.590000   0.015523   -0.040572
 0.595000   0.015320   -0.040432
 0.600000   0.015118   -0.040309
 0.605000   0.014917   -0.040198
 0.610000   0.014716   -0.040092
 0.615000   0.014516   -0.040011
 0.620000   0.014316   -0.039958
 0.625000   0.014116   -0.039918
 0.630000   0.013917   -0.039893
 0.635000   0.013718   -0.039887
 0.640000   0.013518   -0.039901
 0.645000   0.013319   -0.039929
 0.650000   0.013119   -0.039970
 0.655000   0.012919   -0.040027
 0.660000   0.012719   -0.040105
 0.665000   0.012518   -0.040195
 0.670000   0.012317   -0.040286
 0.675000   0.012115   -0.040384
 0.680000   0.011913   -0.040489
 0.685000   0.011710   -0.040617
 0.690000   0.011507   -0.040761
 0.695000   0.011302   -0.040901
 0.700000   0.011098   -0.041047
 0.705000   0.010892   -0.041196
 0.710000   0.010686   -0.041353
 0.715000   0.010478   -0.041525
 0.720000   0.010270   -0.041690
 0.725000   0.010062   -0.041834
 0.730000   0.009852   -0.041972
 0.735000   0.009642   -0.042103
 0.740000   0.009431   -0.042227
 0.745000   0.009220   -0.042354
 0.750000   0.009007   -0.042467
 0.755000   0.008795   -0.042553
 0.760000   0.008582   -0.042625
 0.765000   0.008369   -0.042681
 0.770000   0.008155   -0.042719
 0.775000   0.007941   -0.042740
 0.780000   0.007728   -0.042740
 0.785000   0.007514   -0.042718
 0.790000   0.007301   -0.042679
 0.795000   0.007087   -0.042623
 0.800000   0.006874   -0.042548
 0.805000   0.006662   -0.042453
 0.810000   0.006450   -0.042337
 0.815000   0.006238   -0.042194
 0.820000   0.006028   -0.042015
 0.825000   0.005818   -0.041811
 0.830000   0.005610   -0.041588
 0.835000   0.005402   -0.041339
 0.840000   0.005196   -0.041061
 0.845000   0.004992   -0.040754
 0.850000   0.004789   -0.040414
 0.855000   0.004588   -0.040041
 0.860000   0.004388   -0.039635
 0.865000   0.004191   -0.039200
 0.870000   0.003996   -0.038769
 0.875000   0.003804   -0.038398
 0.880000   0.003612   -0.038112
 0.885000   0.003422   -0.037893
 0.890000   0.003233   -0.037730
 0.895000   0.003045   -0.037619
 0.900000   0.002857   -0.037555
 0.905000   0.002670   -0.037527
 0.910000   0.002482   -0.037514
 0.915000   0.002294   -0.037461
 0.920000   0.002107   -0.037266
 0.925000   0.001922   -0.036835
 0.930000   0.001739   -0.036114
 0.935000   0.001561   -0.035099
 0.940000   0.001388   -0.033844
 0.945000   0.001222   -0.032453
 0.950000   0.001064   -0.030997
 0.955000   0.000912   -0.029366
 0.960000   0.000770   -0.027301
 0.965000   0.000639   -0.024625
 0.970000   0.000524   -0.021413
 0.975000   0.000425   -0.017951
 0.980000   0.000344   -0.014693
 0.985000   0.000278   -0.012327
 0.990000   0.000221   -0.011150
 0.995000   0.000167   -0.011127
 1.000000   0.000110   -0.011721
201 psinorm pb(KPa) dpb/dpsiN
 0.000000   36.617120   26.810892
 0.005000   36.671332   -5.126056
 0.010000   36.565860   -32.512714
 0.015000   36.346205   -53.234610
 0.020000   36.033514   -70.082616
 0.025000   35.645379   -84.241330
 0.030000   35.191100   -95.722518
 0.035000   34.688154   -104.833506
 0.040000   34.142765   -112.624254
 0.045000   33.561911   -118.838711
 0.050000   32.954378   -123.840304
 0.055000   32.323508   -127.770604
 0.060000   31.676672   -130.416153
 0.065000   31.019347   -132.068017
 0.070000   30.355992   -132.988211
 0.075000   29.689465   -133.389784
 0.080000   29.022094   -133.223366
 0.085000   28.357231   -132.355617
 0.090000   27.698538   -130.958656
 0.095000   27.047645   -129.249579
 0.100000   26.406042   -127.233946
 0.105000   25.775305   -124.870101
 0.110000   25.157341   -122.265855
 0.115000   24.552647   -119.546469
 0.120000   23.961877   -116.644054
 0.125000   23.386206   -113.631859
 0.130000   22.825558   -110.601765
 0.135000   22.280188   -107.498737
 0.140000   21.750571   -104.263653
 0.145000   21.237552   -100.991272
 0.150000   20.740658   -97.806128
 0.155000   20.259491   -94.670890
 0.160000   19.793949   -91.560973
 0.165000   19.343881   -88.435277
 0.170000   18.909596   -85.297441
 0.175000   18.490906   -82.258730
 0.180000   18.087009   -79.464376
 0.185000   17.696263   -76.770625
 0.190000   17.319303   -74.022526
 0.195000   16.956037   -71.328424
 0.200000   16.606018   -68.724725
 0.205000   16.268790   -66.211792
 0.210000   15.943901   -63.789308
 0.215000   15.630897   -61.302524
 0.220000   15.330875   -58.862757
 0.225000   15.042270   -56.635664
 0.230000   14.764519   -54.539632
 0.235000   14.496873   -52.582742
 0.240000   14.238691   -50.732774
 0.245000   13.989545   -48.897886
 0.250000   13.749712   -47.023576
 0.255000   13.519310   -45.313520
 0.260000   13.296577   -43.817783
 0.265000   13.081132   -42.396138
 0.270000   12.872616   -41.043634
 0.275000   12.670696   -39.612765
 0.280000   12.476488   -38.236339
 0.285000   12.288332   -37.081917
 0.290000   12.105669   -36.010188
 0.295000   11.928230   -34.990626
 0.300000   11.755763   -33.902728
 0.305000   11.589203   -32.856851
 0.310000   11.427194   -31.994112
 0.315000   11.269262   -31.200045
 0.320000   11.115194   -30.433225
 0.325000   10.964930   -29.612702
 0.330000   10.819067   -28.860664
 0.335000   10.676323   -28.253211
 0.340000   10.536535   -27.677668
 0.345000   10.399546   -27.081217
 0.350000   10.265722   -26.488555
 0.355000   10.134661   -25.987454
 0.360000   10.005848   -25.548926
 0.365000   9.879171   -25.120066
 0.370000   9.754647   -24.663868
 0.375000   9.632533   -24.250366
 0.380000   9.512144   -23.913492
 0.385000   9.393398   -23.592759
 0.390000   9.276216   -23.247771
 0.395000   9.160920   -22.917113
 0.400000   9.047045   -22.645876
 0.405000   8.934461   -22.392406
 0.410000   8.823121   -22.124554
 0.415000   8.713216   -21.850937
 0.420000   8.604611   -21.608803
 0.425000   8.497128   -21.385944
 0.430000   8.390752   -21.152225
 0.435000   8.285606   -20.895536
 0.440000   8.181797   -20.655290
 0.445000   8.079053   -20.443330
 0.450000   7.977363   -20.228410
 0.455000   7.876769   -19.980575
 0.460000   7.777558   -19.742179
 0.465000   7.679347   -19.544717
 0.470000   7.582110   -19.352280
 0.475000   7.485824   -19.138192
 0.480000   7.390728   -18.929084
 0.485000   7.296533   -18.755159
 0.490000   7.203177   -18.590151
 0.495000   7.110632   -18.416905
 0.500000   7.019008   -18.244312
 0.505000   6.928189   -18.094467
 0.510000   6.838063   -17.957240
 0.515000   6.748616   -17.816800
 0.520000   6.659895   -17.668664
 0.525000   6.571930   -17.535798
 0.530000   6.484537   -17.419892
 0.535000   6.397731   -17.300217
 0.540000   6.311535   -17.165966
 0.545000   6.226071   -17.036960
 0.550000   6.141165   -16.926672
 0.555000   6.056804   -16.818324
 0.560000   5.972982   -16.704962
 0.565000   5.889755   -16.589744
 0.570000   5.807085   -16.485602
 0.575000   5.724899   -16.389935
 0.580000   5.643185   -16.296385
 0.585000   5.561935   -16.199774
 0.590000   5.481188   -16.109649
 0.595000   5.400838   -16.031478
 0.600000   5.320873   -15.955660
 0.605000   5.241282   -15.881337
 0.610000   5.162060   -15.812397
 0.615000   5.083158   -15.754176
 0.620000   5.004518   -15.702643
 0.625000   4.926131   -15.653030
 0.630000   4.847987   -15.606921
 0.635000   4.770062   -15.567619
 0.640000   4.692311   -15.533994
 0.645000   4.614722   -15.503016
 0.650000   4.537281   -15.474825
 0.655000   4.459974   -15.451152
 0.660000   4.382770   -15.434093
 0.665000   4.305633   -15.418560
 0.670000   4.228584   -15.401500
 0.675000   4.151618   -15.385447
 0.680000   4.074729   -15.370557
 0.685000   3.997912   -15.362538
 0.690000   3.921104   -15.358186
 0.695000   3.844330   -15.351928
 0.700000   3.767585   -15.346859
 0.705000   3.690862   -15.342569
 0.710000   3.614159   -15.340181
 0.715000   3.537460   -15.341896
 0.720000   3.460740   -15.340132
 0.725000   3.384059   -15.331484
 0.730000   3.307425   -15.320271
 0.735000   3.230856   -15.305683
 0.740000   3.154369   -15.288149
 0.745000   3.077975   -15.269891
 0.750000   3.001670   -15.245681
 0.755000   2.925518   -15.212522
 0.760000   2.849544   -15.173350
 0.765000   2.773784   -15.127082
 0.770000   2.698274   -15.073889
 0.775000   2.623045   -15.014193
 0.780000   2.548132   -14.946112
 0.785000   2.473584   -14.871271
 0.790000   2.399419   -14.792754
 0.795000   2.325657   -14.709792
 0.800000   2.252321   -14.621762
 0.805000   2.179439   -14.528109
 0.810000   2.107040   -14.428587
 0.815000   2.035153   -14.321246
 0.820000   1.963827   -14.202094
 0.825000   1.893132   -14.076607
 0.830000   1.823061   -13.948399
 0.835000   1.753648   -13.813421
 0.840000   1.684927   -13.671507
 0.845000   1.616933   -13.522097
 0.850000   1.549706   -13.364407
 0.855000   1.483289   -13.198275
 0.860000   1.417723   -13.023343
 0.865000   1.353056   -12.840682
 0.870000   1.289317   -12.655272
 0.875000   1.226503   -12.482652
 0.880000   1.164490   -12.332784
 0.885000   1.103175   -12.200923
 0.890000   1.042481   -12.084628
 0.895000   0.982329   -11.984294
 0.900000   0.922638   -11.900463
 0.905000   0.863324   -11.832574
 0.910000   0.804312   -11.776782
 0.915000   0.745556   -11.720127
 0.920000   0.687111   -11.638022
 0.925000   0.629176   -11.504521
 0.930000   0.572066   -11.300850
 0.935000   0.516168   -11.019033
 0.940000   0.461875   -10.671058
 0.945000   0.409457   -10.291595
 0.950000   0.358959   -9.917069
 0.955000   0.310286   -9.541277
 0.960000   0.263547   -9.098163
 0.965000   0.219305   -8.499194
 0.970000   0.178555   -7.691591
 0.975000   0.142389   -6.693795
 0.980000   0.111617   -5.580470
 0.985000   0.086584   -4.537193
 0.990000   0.066245   -3.703170
 0.995000   0.049552   -3.210146
 1.000000   0.034143   -2.953487
201 psinorm ptot(KPa) dptot/dpsiN
 0.000000   102.048745   -82.919084
 0.005000   101.571316   -108.052357
 0.010000   100.968221   -129.829129
 0.015000   100.273025   -146.560400
 0.020000   99.502617   -160.241102
 0.025000   98.670614   -171.831661
 0.030000   97.784301   -181.302914
 0.035000   96.857585   -188.927365
 0.040000   95.895027   -195.551071
 0.045000   94.902074   -200.950594
 0.050000   93.885521   -205.416927
 0.055000   92.847905   -209.042028
 0.060000   91.795101   -211.643034
 0.065000   90.731474   -213.454849
 0.070000   89.660552   -214.685950
 0.075000   88.584615   -215.523715
 0.080000   87.505315   -215.915830
 0.085000   86.425457   -215.719651
 0.090000   85.348119   -215.082838
 0.095000   84.274628   -214.186745
 0.100000   83.206251   -213.028606
 0.105000   82.144342   -211.564017
 0.110000   81.090611   -209.886392
 0.115000   80.045478   -208.106767
 0.120000   79.009543   -206.162208
 0.125000   77.983856   -204.106996
 0.130000   76.968473   -202.009731
 0.135000   75.963759   -199.814587
 0.140000   74.970328   -197.458410
 0.145000   73.989175   -195.020008
 0.150000   73.020127   -192.607617
 0.155000   72.063099   -190.182632
 0.160000   71.118301   -187.716340
 0.165000   70.185935   -185.170119
 0.170000   69.266600   -182.545895
 0.175000   68.360476   -179.934590
 0.180000   67.467254   -177.465389
 0.185000   66.585822   -175.011996
 0.190000   65.717134   -172.432642
 0.195000   64.861496   -169.834456
 0.200000   64.018790   -167.273327
 0.205000   63.188763   -164.760208
 0.210000   62.371187   -162.293871
 0.215000   61.565824   -159.748722
 0.220000   60.773700   -157.220967
 0.225000   59.993614   -154.854873
 0.230000   59.225152   -152.573389
 0.235000   58.467880   -150.374743
 0.240000   57.721404   -148.232288
 0.245000   56.985558   -146.059768
 0.250000   56.260806   -143.805266
 0.255000   55.547505   -141.639530
 0.260000   54.844411   -139.587229
 0.265000   54.151633   -137.526123
 0.270000   53.469150   -135.466381
 0.275000   52.796969   -133.282570
 0.280000   52.136324   -131.086481
 0.285000   51.486104   -129.016678
 0.290000   50.846157   -126.946294
 0.295000   50.216641   -124.846113
 0.300000   49.597696   -122.620966
 0.305000   48.990431   -120.377228
 0.310000   48.393924   -118.253649
 0.315000   47.807895   -116.161105
 0.320000   47.232313   -114.094217
 0.325000   46.666953   -112.002066
 0.330000   46.112292   -109.977883
 0.335000   45.567174   -108.090185
 0.340000   45.031390   -106.244783
 0.345000   44.504726   -104.402754
 0.350000   43.987363   -102.590445
 0.355000   43.478822   -100.880693
 0.360000   42.978556   -99.245444
 0.365000   42.486367   -97.636645
 0.370000   42.002189   -96.016266
 0.375000   41.526205   -94.435758
 0.380000   41.057832   -92.893035
 0.385000   40.597274   -91.319244
 0.390000   40.144639   -89.694509
 0.395000   39.700329   -88.062044
 0.400000   39.264019   -86.468874
 0.405000   38.835640   -84.869968
 0.410000   38.415319   -83.252485
 0.415000   38.003116   -81.665403
 0.420000   37.598665   -80.152559
 0.425000   37.201590   -78.703596
 0.430000   36.811629   -77.295936
 0.435000   36.428631   -75.912575
 0.440000   36.052504   -74.593917
 0.445000   35.682691   -73.364416
 0.450000   35.318859   -72.190479
 0.455000   34.960787   -71.037858
 0.460000   34.608481   -69.943455
 0.465000   34.261352   -68.935956
 0.470000   33.919121   -67.984782
 0.475000   33.581504   -67.058488
 0.480000   33.248536   -66.168481
 0.485000   32.919819   -65.333715
 0.490000   32.595199   -64.523589
 0.495000   32.274584   -63.718170
 0.500000   31.958018   -62.921640
 0.505000   31.645367   -62.155519
 0.510000   31.336462   -61.418999
 0.515000   31.031177   -60.703106
 0.520000   30.729431   -60.005391
 0.525000   30.431123   -59.346767
 0.530000   30.135964   -58.728841
 0.535000   29.843835   -58.133313
 0.540000   29.554631   -57.551035
 0.545000   29.268324   -56.999204
 0.550000   28.984638   -56.488623
 0.555000   28.703438   -56.003663
 0.560000   28.424602   -55.537445
 0.565000   28.148064   -55.090662
 0.570000   27.873695   -54.672310
 0.575000   27.601341   -54.278884
 0.580000   27.330906   -53.903636
 0.585000   27.062304   -53.541217
 0.590000   26.795494   -53.198862
 0.595000   26.530316   -52.879492
 0.600000   26.266699   -52.573518
 0.605000   26.004581   -52.279459
 0.610000   25.743905   -52.000049
 0.615000   25.484580   -51.738359
 0.620000   25.226521   -51.487292
 0.625000   24.969707   -51.240813
 0.630000   24.714113   -50.999635
 0.635000   24.459711   -50.765101
 0.640000   24.206462   -50.534642
 0.645000   23.954364   -50.304247
 0.650000   23.703420   -50.073723
 0.655000   23.453627   -49.852811
 0.660000   23.204891   -49.652931
 0.665000   22.957098   -49.469843
 0.670000   22.710193   -49.296288
 0.675000   22.464135   -49.125333
 0.680000   22.218940   -48.943316
 0.685000   21.974702   -48.728485
 0.690000   21.731655   -48.460778
 0.695000   21.490094   -48.138286
 0.700000   21.250272   -47.766883
 0.705000   21.012425   -47.351340
 0.710000   20.776759   -46.887699
 0.715000   20.543548   -46.394395
 0.720000   20.312815   -45.898899
 0.725000   20.084559   -45.404695
 0.730000   19.858768   -44.917103
 0.735000   19.635388   -44.443751
 0.740000   19.414330   -43.986328
 0.745000   19.195525   -43.560330
 0.750000   18.978727   -43.181645
 0.755000   18.763708   -42.847352
 0.760000   18.550253   -42.555174
 0.765000   18.338157   -42.301198
 0.770000   18.127241   -42.084854
 0.775000   17.917308   -41.894095
 0.780000   17.708300   -41.687781
 0.785000   17.500430   -41.447772
 0.790000   17.293823   -41.181110
 0.795000   17.088619   -40.885810
 0.800000   16.884965   -40.564262
 0.805000   16.682977   -40.217276
 0.810000   16.482792   -39.846030
 0.815000   16.284516   -39.466964
 0.820000   16.088122   -39.097331
 0.825000   15.893543   -38.751154
 0.830000   15.700611   -38.438461
 0.835000   15.509158   -38.159936
 0.840000   15.319011   -37.895741
 0.845000   15.130201   -37.639138
 0.850000   14.942620   -37.413027
 0.855000   14.756071   -37.238212
 0.860000   14.570238   -37.144126
 0.865000   14.384629   -37.186423
 0.870000   14.198374   -37.386246
 0.875000   14.010767   -37.780159
 0.880000   13.820572   -38.456925
 0.885000   13.626198   -39.502824
 0.890000   13.425544   -41.047504
 0.895000   13.215723   -43.370468
 0.900000   12.991839   -46.723134
 0.905000   12.748491   -51.430409
 0.910000   12.477535   -58.070467
 0.915000   12.167787   -67.335261
 0.920000   11.804182   -80.068227
 0.925000   11.367104   -97.353856
 0.930000   10.830644   -119.657648
 0.935000   10.170528   -146.518219
 0.940000   9.365462   -176.120467
 0.945000   8.409323   -204.046261
 0.950000   7.324999   -223.720116
 0.955000   6.172122   -228.756339
 0.960000   5.037436   -216.370631
 0.965000   4.008416   -189.621826
 0.970000   3.141217   -155.740644
 0.975000   2.451009   -121.910380
 0.980000   1.922113   -92.569154
 0.985000   1.525318   -69.242030
 0.990000   1.229693   -51.548941
 0.995000   1.009828   -38.485159
 1.000000   0.844842   -27.509565
201 psinorm omeg(kRad/s) domeg/dpsiN
 0.000000   72.805562   0.019282
 0.005000   72.805120   -0.196060
 0.010000   72.803602   -0.442560
 0.015000   72.800695   -0.755205
 0.020000   72.796050   -1.140092
 0.025000   72.789294   -1.600493
 0.030000   72.780045   -2.136798
 0.035000   72.767926   -2.746043
 0.040000   72.752584   -3.415884
 0.045000   72.733767   -4.135761
 0.050000   72.711227   -4.897748
 0.055000   72.684790   -5.687355
 0.060000   72.654353   -6.491372
 0.065000   72.619876   -7.299192
 0.070000   72.581361   -8.087516
 0.075000   72.539001   -8.864960
 0.080000   72.492712   -9.653550
 0.085000   72.442465   -10.446440
 0.090000   72.388247   -11.245495
 0.095000   72.330010   -12.057637
 0.100000   72.267671   -12.878900
 0.105000   72.201221   -13.717688
 0.110000   72.130494   -14.588211
 0.115000   72.055339   -15.490247
 0.120000   71.975592   -16.430078
 0.125000   71.891038   -17.415618
 0.130000   71.801435   -18.450050
 0.135000   71.706538   -19.533810
 0.140000   71.606097   -20.666308
 0.145000   71.499875   -21.848230
 0.150000   71.387615   -23.080713
 0.155000   71.269068   -24.360930
 0.160000   71.144006   -25.686638
 0.165000   71.012201   -27.045272
 0.170000   70.873553   -28.416440
 0.175000   70.728037   -29.795223
 0.180000   70.575601   -31.181188
 0.185000   70.416225   -32.566732
 0.190000   70.249933   -33.936335
 0.195000   70.076862   -35.246034
 0.200000   69.897473   -36.459058
 0.205000   69.712271   -37.560525
 0.210000   69.521868   -38.532527
 0.215000   69.326946   -39.363094
 0.220000   69.128237   -40.018915
 0.225000   68.926757   -40.446247
 0.230000   68.723774   -40.740651
 0.235000   68.519350   -40.971849
 0.240000   68.314056   -41.090643
 0.245000   68.108444   -41.100998
 0.250000   67.903046   -40.986625
 0.255000   67.698577   -40.702551
 0.260000   67.496020   -40.418379
 0.265000   67.294394   -40.253787
 0.270000   67.093483   -40.148733
 0.275000   66.892906   -40.136053
 0.280000   66.692122   -40.247780
 0.285000   66.490429   -40.546012
 0.290000   66.286662   -41.056749
 0.295000   66.079861   -41.702623
 0.300000   65.869636   -42.409597
 0.305000   65.655765   -43.150171
 0.310000   65.438134   -43.910977
 0.315000   65.216655   -44.736936
 0.320000   64.990765   -45.575141
 0.325000   64.760904   -46.361572
 0.330000   64.527149   -47.128465
 0.335000   64.289619   -47.865572
 0.340000   64.048493   -48.561072
 0.345000   63.804009   -49.220118
 0.350000   63.556292   -49.795374
 0.355000   63.306055   -50.251668
 0.360000   63.053775   -50.612680
 0.365000   62.799928   -50.875948
 0.370000   62.545016   -51.036357
 0.375000   62.289564   -51.058895
 0.380000   62.034427   -50.942818
 0.385000   61.780136   -50.729947
 0.390000   61.527127   -50.427605
 0.395000   61.275860   -50.038078
 0.400000   61.026747   -49.571954
 0.405000   60.780141   -48.997899
 0.410000   60.536768   -48.417809
 0.415000   60.295963   -48.072311
 0.420000   60.056045   -48.100244
 0.425000   59.814960   -48.568021
 0.430000   59.570364   -49.511163
 0.435000   59.319849   -51.072889
 0.440000   59.059635   -53.239823
 0.445000   58.787450   -55.668090
 0.450000   58.502955   -58.227892
 0.455000   58.205171   -60.948330
 0.460000   57.893471   -63.757009
 0.465000   57.567601   -66.738688
 0.470000   57.226084   -69.795547
 0.475000   56.869646   -72.438057
 0.480000   56.501704   -74.550752
 0.485000   56.124138   -76.248042
 0.490000   55.739223   -77.457766
 0.495000   55.349561   -78.143210
 0.500000   54.957791   -78.223369
 0.505000   54.567327   -77.715875
 0.510000   54.180633   -76.860062
 0.515000   53.798726   -75.829355
 0.520000   53.422339   -74.670343
 0.525000   53.052023   -73.404834
 0.530000   52.688291   -72.036054
 0.535000   52.331662   -70.606364
 0.540000   51.982227   -69.160070
 0.545000   51.640062   -67.709502
 0.550000   51.305132   -66.276598
 0.555000   50.977296   -64.879232
 0.560000   50.656340   -63.529104
 0.565000   50.342005   -62.275779
 0.570000   50.033582   -61.150255
 0.575000   49.730502   -60.145918
 0.580000   49.432123   -59.276379
 0.585000   49.137738   -58.553982
 0.590000   48.846583   -57.982805
 0.595000   48.557910   -57.498241
 0.600000   48.271600   -57.034859
 0.605000   47.987562   -56.591857
 0.610000   47.705682   -56.174855
 0.615000   47.425813   -55.792174
 0.620000   47.147760   -55.371956
 0.625000   46.872094   -54.979588
 0.630000   46.597964   -54.716077
 0.635000   46.324933   -54.540254
 0.640000   46.052562   -54.455282
 0.645000   45.780380   -54.468698
 0.650000   45.507875   -54.528791
 0.655000   45.235092   -54.764657
 0.660000   44.960228   -55.324036
 0.665000   44.681852   -56.168352
 0.670000   44.398545   -57.307599
 0.675000   44.108776   -58.759898
 0.680000   43.810946   -60.568501
 0.685000   43.503091   -62.572045
 0.690000   43.185225   -64.478105
 0.695000   42.858310   -66.183331
 0.700000   42.523392   -67.677106
 0.705000   42.181539   -68.976545
 0.710000   41.833626   -70.101335
 0.715000   41.480525   -71.156583
 0.720000   41.122061   -72.256922
 0.725000   40.757956   -73.391544
 0.730000   40.388145   -74.542494
 0.735000   40.012531   -75.715796
 0.740000   39.630987   -76.923204
 0.745000   39.243299   -78.215533
 0.750000   38.848832   -79.687931
 0.755000   38.446420   -81.493642
 0.760000   38.033895   -83.805455
 0.765000   37.608365   -86.734919
 0.770000   37.166546   -90.506612
 0.775000   36.703299   -95.085583
 0.780000   36.215690   -99.665076
 0.785000   35.706648   -103.791543
 0.790000   35.177775   -107.505540
 0.795000   34.631593   -110.626876
 0.800000   34.071506   -113.096431
 0.805000   33.500629   -114.776508
 0.810000   32.923741   -115.217246
 0.815000   32.348456   -114.485357
 0.820000   31.778888   -112.980818
 0.825000   31.218648   -110.785760
 0.830000   30.671030   -107.995745
 0.835000   30.138690   -104.695852
 0.840000   29.624072   -100.641374
 0.845000   29.132277   -95.893510
 0.850000   28.665136   -90.992467
 0.855000   28.222352   -86.379106
 0.860000   27.801345   -82.568347
 0.865000   27.396669   -80.366358
 0.870000   26.997682   -79.912105
 0.875000   26.597548   -81.346592
 0.880000   26.184216   -85.640489
 0.885000   25.741143   -93.832088
 0.890000   25.245895   -107.211309
 0.895000   24.669030   -127.927609
 0.900000   23.966619   -156.606284
 0.905000   23.102967   -193.215073
 0.910000   22.034468   -238.153175
 0.915000   20.721435   -289.904048
 0.920000   19.135428   -345.401928
 0.925000   17.267416   -400.684961
 0.930000   15.128578   -448.197523
 0.935000   12.785440   -479.675265
 0.940000   10.331825   -489.719142
 0.945000   7.888249   -474.466121
 0.950000   5.587164   -433.497051
 0.955000   3.553279   -369.151505
 0.960000   1.895649   -289.404368
 0.965000   0.659235   -204.928774
 0.970000   -0.153639   -123.524177
 0.975000   -0.576007   -51.370517
 0.980000   -0.667344   7.502203
 0.985000   -0.500985   51.022330
 0.990000   -0.157120   79.624187
 0.995000   0.295257   95.736713
 1.000000   0.800247   106.259155
201 psinorm omegp(kRad/s) domegp/dpsiN
 0.000000   -0.027493   112.258459
 0.005000   0.414191   64.415131
 0.010000   0.616658   38.009018
 0.015000   0.794281   34.967211
 0.020000   0.966331   33.835443
 0.025000   1.132636   33.146260
 0.030000   1.297793   32.490350
 0.035000   1.457539   31.771477
 0.040000   1.615508   31.237877
 0.045000   1.769918   30.440804
 0.050000   1.919916   29.640070
 0.055000   2.066319   28.892410
 0.060000   2.208840   27.940717
 0.065000   2.345726   27.036228
 0.070000   2.479202   26.308510
 0.075000   2.608811   25.578634
 0.080000   2.734989   24.808466
 0.085000   2.856896   23.979588
 0.090000   2.974785   22.944657
 0.095000   3.086342   22.103757
 0.100000   3.195822   21.530553
 0.105000   3.301648   20.991022
 0.110000   3.405732   20.777149
 0.115000   3.509419   20.547928
 0.120000   3.611212   20.299689
 0.125000   3.712416   20.200894
 0.130000   3.813221   19.994878
 0.135000   3.912365   19.629786
 0.140000   4.009518   19.189362
 0.145000   4.104258   18.530393
 0.150000   4.194822   17.457150
 0.155000   4.278830   16.207488
 0.160000   4.356897   14.916890
 0.165000   4.427999   13.247163
 0.170000   4.489369   11.516179
 0.175000   4.543161   9.598893
 0.180000   4.585358   7.489277
 0.185000   4.618053   5.606563
 0.190000   4.641423   3.855835
 0.195000   4.656612   2.374239
 0.200000   4.665166   0.917634
 0.205000   4.665788   -0.447893
 0.210000   4.660687   -1.318417
 0.215000   4.652604   -2.078016
 0.220000   4.639907   -2.832681
 0.225000   4.624277   -3.592193
 0.230000   4.603985   -4.553157
 0.235000   4.578746   -5.415729
 0.240000   4.549827   -6.402896
 0.245000   4.514717   -7.535369
 0.250000   4.474474   -8.696250
 0.255000   4.427754   -9.987397
 0.260000   4.374600   -11.170484
 0.265000   4.316049   -12.437533
 0.270000   4.250224   -13.862287
 0.275000   4.177426   -15.305323
 0.280000   4.097171   -16.798995
 0.285000   4.009436   -18.469063
 0.290000   3.912481   -20.254210
 0.295000   3.806894   -22.228878
 0.300000   3.690192   -24.393001
 0.305000   3.562964   -26.504600
 0.310000   3.425146   -28.762934
 0.315000   3.275335   -31.104496
 0.320000   3.114101   -33.382978
 0.325000   2.941505   -35.518559
 0.330000   2.758915   -37.294087
 0.335000   2.568564   -38.648965
 0.340000   2.372426   -39.647503
 0.345000   2.172089   -40.429575
 0.350000   1.968130   -40.671414
 0.355000   1.765375   -40.909362
 0.360000   1.559036   -41.521190
 0.365000   1.350163   -42.237968
 0.370000   1.136657   -43.383632
 0.375000   0.916327   -44.919656
 0.380000   0.687460   -47.009206
 0.385000   0.446235   -49.376046
 0.390000   0.193700   -51.662002
 0.395000   -0.070385   -53.916804
 0.400000   -0.345468   -55.806577
 0.405000   -0.628451   -57.807930
 0.410000   -0.923548   -60.478306
 0.415000   -1.233234   -63.999573
 0.420000   -1.563543   -68.353763
 0.425000   -1.916772   -73.225658
 0.430000   -2.295800   -78.536636
 0.435000   -2.702138   -84.230738
 0.440000   -3.138107   -90.202149
 0.445000   -3.604159   -95.421824
 0.450000   -4.092326   -99.246584
 0.455000   -4.596625   -101.758615
 0.460000   -5.109912   -102.704891
 0.465000   -5.623674   -101.756915
 0.470000   -6.127481   -98.158724
 0.475000   -6.605261   -92.118001
 0.480000   -7.048661   -84.631715
 0.485000   -7.451579   -76.212364
 0.490000   -7.810785   -67.209920
 0.495000   -8.123678   -57.754189
 0.500000   -8.388327   -48.771080
 0.505000   -8.611389   -41.366791
 0.510000   -8.801994   -35.514946
 0.515000   -8.966538   -31.037596
 0.520000   -9.112370   -27.760234
 0.525000   -9.244140   -25.403390
 0.530000   -9.366404   -23.726537
 0.535000   -9.481406   -22.311190
 0.540000   -9.589516   -20.821416
 0.545000   -9.689620   -19.258195
 0.550000   -9.782098   -17.680420
 0.555000   -9.866424   -16.015240
 0.560000   -9.942251   -14.129412
 0.565000   -10.007718   -11.955353
 0.570000   -10.061804   -9.699734
 0.575000   -10.104716   -7.250241
 0.580000   -10.134307   -4.517770
 0.585000   -10.149893   -1.858257
 0.590000   -10.152889   0.738795
 0.595000   -10.142505   3.361249
 0.600000   -10.119277   5.813845
 0.605000   -10.084367   8.042256
 0.610000   -10.038854   10.042554
 0.615000   -9.983941   11.891981
 0.620000   -9.919934   13.489990
 0.625000   -9.849041   14.781774
 0.630000   -9.772116   16.064036
 0.635000   -9.688401   17.363724
 0.640000   -9.598479   18.429314
 0.645000   -9.504108   19.426901
 0.650000   -9.404210   20.560507
 0.655000   -9.298503   21.535137
 0.660000   -9.188859   22.359065
 0.665000   -9.074912   23.209584
 0.670000   -8.956763   23.994248
 0.675000   -8.834970   24.816580
 0.680000   -8.708597   25.829755
 0.685000   -8.576672   27.229594
 0.690000   -8.436301   28.971525
 0.695000   -8.286957   30.745682
 0.700000   -8.128844   32.723917
 0.705000   -7.959718   34.833175
 0.710000   -7.780513   36.515382
 0.715000   -7.594564   37.648112
 0.720000   -7.404032   38.099291
 0.725000   -7.213571   37.799207
 0.730000   -7.026040   36.722379
 0.735000   -6.846347   34.674807
 0.740000   -6.679291   31.842246
 0.745000   -6.527925   28.396973
 0.750000   -6.395322   24.662247
 0.755000   -6.281302   20.839239
 0.760000   -6.186929   16.947103
 0.765000   -6.111831   13.378712
 0.770000   -6.053142   10.272604
 0.775000   -6.009105   7.593219
 0.780000   -5.977210   5.161285
 0.785000   -5.957492   2.764912
 0.790000   -5.949561   0.083552
 0.795000   -5.956657   -3.370239
 0.800000   -5.983263   -7.765891
 0.805000   -6.034316   -13.244706
 0.810000   -6.115710   -19.749105
 0.815000   -6.231807   -27.208200
 0.820000   -6.387792   -35.553768
 0.825000   -6.587344   -44.017729
 0.830000   -6.827970   -51.723186
 0.835000   -7.104576   -58.379738
 0.840000   -7.411767   -63.479700
 0.845000   -7.739373   -66.431073
 0.850000   -8.076078   -66.806502
 0.855000   -8.407438   -64.973708
 0.860000   -8.725815   -61.756279
 0.865000   -9.025001   -57.631316
 0.870000   -9.302128   -53.037394
 0.875000   -9.555375   -48.336610
 0.880000   -9.785494   -44.182246
 0.885000   -9.997198   -41.257785
 0.890000   -10.198072   -39.460409
 0.895000   -10.391802   -38.476965
 0.900000   -10.582842   -38.041869
 0.905000   -10.772220   -37.675255
 0.910000   -10.959594   -36.995236
 0.915000   -11.142173   -34.337955
 0.920000   -11.302974   -26.651073
 0.925000   -11.408683   -11.619930
 0.930000   -11.419173   9.736755
 0.935000   -11.311316   39.036716
 0.940000   -11.028806   81.720780
 0.945000   -10.494108   137.406554
 0.950000   -9.654740   198.325061
 0.955000   -8.510857   251.290452
 0.960000   -7.141836   275.004747
 0.965000   -5.760810   246.765778
 0.970000   -4.674178   153.657275
 0.975000   -4.224237   25.582870
 0.980000   -4.418349   -46.574464
 0.985000   -4.689982   43.237159
 0.990000   -3.985978   334.519847
 0.995000   -1.344783   720.109291
 1.000000   3.215115   1103.850142
201 psinorm omgvb(kRad/s) domgvb/dpsiN
 0.000000   72.778070   112.277741
 0.005000   73.219312   64.219071
 0.010000   73.420260   37.566457
 0.015000   73.594976   34.212007
 0.020000   73.762380   32.695351
 0.025000   73.921930   31.545767
 0.030000   74.077838   30.353552
 0.035000   74.225465   29.025434
 0.040000   74.368092   27.821993
 0.045000   74.503685   26.305043
 0.050000   74.631143   24.742322
 0.055000   74.751108   23.205055
 0.060000   74.863193   21.449345
 0.065000   74.965602   19.737036
 0.070000   75.060564   18.220994
 0.075000   75.147812   16.713674
 0.080000   75.227700   15.154916
 0.085000   75.299361   13.533148
 0.090000   75.363032   11.699162
 0.095000   75.416352   10.046119
 0.100000   75.463493   8.651653
 0.105000   75.502869   7.273334
 0.110000   75.536226   6.188938
 0.115000   75.564758   5.057682
 0.120000   75.586803   3.869611
 0.125000   75.603454   2.785276
 0.130000   75.614656   1.544828
 0.135000   75.618903   0.095975
 0.140000   75.615616   -1.476947
 0.145000   75.604133   -3.317837
 0.150000   75.582437   -5.623563
 0.155000   75.547898   -8.153442
 0.160000   75.500903   -10.769748
 0.165000   75.440200   -13.798109
 0.170000   75.362922   -16.900260
 0.175000   75.271198   -20.196330
 0.180000   75.160959   -23.691911
 0.185000   75.034278   -26.960170
 0.190000   74.891357   -30.080500
 0.195000   74.733473   -32.871795
 0.200000   74.562639   -35.541424
 0.205000   74.378059   -38.008418
 0.210000   74.182555   -39.850944
 0.215000   73.979550   -41.441110
 0.220000   73.768144   -42.851596
 0.225000   73.551034   -44.038440
 0.230000   73.327759   -45.293808
 0.235000   73.098096   -46.387578
 0.240000   72.863883   -47.493539
 0.245000   72.623160   -48.636367
 0.250000   72.377520   -49.682874
 0.255000   72.126332   -50.689948
 0.260000   71.870620   -51.588862
 0.265000   71.610443   -52.691320
 0.270000   71.343707   -54.011020
 0.275000   71.070333   -55.441376
 0.280000   70.789293   -57.046775
 0.285000   70.499865   -59.015075
 0.290000   70.199143   -61.310960
 0.295000   69.886755   -63.931502
 0.300000   69.559828   -66.802598
 0.305000   69.218729   -69.654771
 0.310000   68.863280   -72.673911
 0.315000   68.491990   -75.841432
 0.320000   68.104866   -78.958118
 0.325000   67.702409   -81.880131
 0.330000   67.286064   -84.422552
 0.335000   66.858184   -86.514537
 0.340000   66.420919   -88.208575
 0.345000   65.976098   -89.649693
 0.350000   65.524422   -90.466788
 0.355000   65.071430   -91.161030
 0.360000   64.612812   -92.133869
 0.365000   64.150091   -93.113916
 0.370000   63.681672   -94.419989
 0.375000   63.205891   -95.978551
 0.380000   62.721887   -97.952024
 0.385000   62.226371   -100.105992
 0.390000   61.720827   -102.089607
 0.395000   61.205475   -103.954883
 0.400000   60.681278   -105.378531
 0.405000   60.151690   -106.805828
 0.410000   59.613220   -108.896115
 0.415000   59.062729   -112.071884
 0.420000   58.492501   -116.454007
 0.425000   57.898189   -121.793679
 0.430000   57.274564   -128.047799
 0.435000   56.617711   -135.303627
 0.440000   55.921528   -143.441972
 0.445000   55.183291   -151.089914
 0.450000   54.410629   -157.474476
 0.455000   53.608546   -162.706946
 0.460000   52.783559   -166.461900
 0.465000   51.943927   -168.495604
 0.470000   51.098603   -167.954271
 0.475000   50.264384   -164.556058
 0.480000   49.453043   -159.182468
 0.485000   48.672560   -152.460406
 0.490000   47.928439   -144.667686
 0.495000   47.225883   -135.897399
 0.500000   46.569465   -126.994449
 0.505000   45.955938   -119.082666
 0.510000   45.378638   -112.375008
 0.515000   44.832188   -106.866951
 0.520000   44.309969   -102.430577
 0.525000   43.807883   -98.808224
 0.530000   43.321886   -95.762591
 0.535000   42.850257   -92.917554
 0.540000   42.392711   -89.981486
 0.545000   41.950442   -86.967697
 0.550000   41.523034   -83.957017
 0.555000   41.110872   -80.894471
 0.560000   40.714089   -77.658516
 0.565000   40.334286   -74.231132
 0.570000   39.971778   -70.849989
 0.575000   39.625787   -67.396159
 0.580000   39.297816   -63.794149
 0.585000   38.987845   -60.412239
 0.590000   38.693694   -57.244010
 0.595000   38.415405   -54.136992
 0.600000   38.152324   -51.221014
 0.605000   37.903195   -48.549600
 0.610000   37.666828   -46.132301
 0.615000   37.441872   -43.900193
 0.620000   37.227826   -41.881966
 0.625000   37.023052   -40.197814
 0.630000   36.825848   -38.652041
 0.635000   36.636532   -37.176531
 0.640000   36.454082   -36.025968
 0.645000   36.276272   -35.041797
 0.650000   36.103665   -33.968284
 0.655000   35.936589   -33.229520
 0.660000   35.771369   -32.964970
 0.665000   35.606940   -32.958768
 0.670000   35.441782   -33.313350
 0.675000   35.273806   -33.943318
 0.680000   35.102348   -34.738746
 0.685000   34.926419   -35.342451
 0.690000   34.748924   -35.506579
 0.695000   34.571353   -35.437649
 0.700000   34.394547   -34.953189
 0.705000   34.221821   -34.143371
 0.710000   34.053114   -33.585953
 0.715000   33.885961   -33.508471
 0.720000   33.718029   -34.157631
 0.725000   33.544385   -35.592336
 0.730000   33.362106   -37.820115
 0.735000   33.166184   -41.040990
 0.740000   32.951696   -45.080958
 0.745000   32.715374   -49.818560
 0.750000   32.453510   -55.025684
 0.755000   32.165117   -60.654403
 0.760000   31.846966   -66.858351
 0.765000   31.496534   -73.356207
 0.770000   31.113404   -80.234009
 0.775000   30.694194   -87.492364
 0.780000   30.238480   -94.503792
 0.785000   29.749156   -101.026631
 0.790000   29.228214   -107.421987
 0.795000   28.674936   -113.997115
 0.800000   28.088243   -120.862322
 0.805000   27.466313   -128.021214
 0.810000   26.808031   -134.966351
 0.815000   26.116649   -141.693557
 0.820000   25.391095   -148.534586
 0.825000   24.631303   -154.803490
 0.830000   23.843060   -159.718932
 0.835000   23.034114   -163.075590
 0.840000   22.212304   -164.121074
 0.845000   21.392903   -162.324583
 0.850000   20.589059   -157.798969
 0.855000   19.814914   -151.352814
 0.860000   19.075530   -144.324626
 0.865000   18.371667   -137.997674
 0.870000   17.695554   -132.949499
 0.875000   17.042172   -129.683202
 0.880000   16.398722   -129.822735
 0.885000   15.743945   -135.089873
 0.890000   15.047823   -146.671718
 0.895000   14.277228   -166.404574
 0.900000   13.383777   -194.648153
 0.905000   12.330746   -230.890328
 0.910000   11.074874   -275.148412
 0.915000   9.579262   -324.242003
 0.920000   7.832454   -372.053001
 0.925000   5.858732   -412.304891
 0.930000   3.709405   -438.460769
 0.935000   1.474125   -440.638550
 0.940000   -0.696980   -407.998362
 0.945000   -2.605859   -337.059567
 0.950000   -4.067576   -235.171990
 0.955000   -4.957579   -117.861053
 0.960000   -5.246187   -14.399621
 0.965000   -5.101575   41.837004
 0.970000   -4.827817   30.133099
 0.975000   -4.800244   -25.787647
 0.980000   -5.085693   -39.072261
 0.985000   -5.190967   94.259489
 0.990000   -4.143098   414.144034
 0.995000   -1.049526   815.846003
 1.000000   4.015362   1210.109297
201 psinorm omgpp(kRad/s) domgpp/dpsiN
 0.000000   -0.056315   -28.050259
 0.005000   -0.226973   -40.212876
 0.010000   -0.458444   -46.726594
 0.015000   -0.694239   -47.519926
 0.020000   -0.933643   -48.149625
 0.025000   -1.175735   -48.578858
 0.030000   -1.419431   -48.817724
 0.035000   -1.663912   -48.861456
 0.040000   -1.908046   -48.689650
 0.045000   -2.150809   -48.316516
 0.050000   -2.391211   -47.708966
 0.055000   -2.627898   -46.879725
 0.060000   -2.860008   -46.063737
 0.065000   -3.088536   -45.244546
 0.070000   -3.312454   -44.294782
 0.075000   -3.531483   -43.291742
 0.080000   -3.745371   -42.214747
 0.085000   -3.953631   -41.098730
 0.090000   -4.156359   -40.099248
 0.095000   -4.354623   -39.103540
 0.100000   -4.547394   -37.982192
 0.105000   -4.734445   -36.816681
 0.110000   -4.915561   -35.624890
 0.115000   -5.090694   -34.543537
 0.120000   -5.260996   -33.407696
 0.125000   -5.424771   -32.035381
 0.130000   -5.581350   -30.527802
 0.135000   -5.730049   -28.888821
 0.140000   -5.870238   -27.136513
 0.145000   -6.001414   -25.285851
 0.150000   -6.123097   -23.233441
 0.155000   -6.233749   -21.061199
 0.160000   -6.333709   -18.888867
 0.165000   -6.422637   -16.654715
 0.170000   -6.500256   -14.373563
 0.175000   -6.566373   -11.855593
 0.180000   -6.618812   -9.443263
 0.185000   -6.660806   -7.320911
 0.190000   -6.692021   -5.269396
 0.195000   -6.713500   -3.456700
 0.200000   -6.726588   -1.925376
 0.205000   -6.732753   -0.774090
 0.210000   -6.734329   -0.094552
 0.215000   -6.733699   0.422258
 0.220000   -6.730106   1.010703
 0.225000   -6.723592   1.617749
 0.230000   -6.713929   2.297945
 0.235000   -6.700612   2.555072
 0.240000   -6.688378   3.422837
 0.245000   -6.666384   5.506700
 0.250000   -6.633311   7.585338
 0.255000   -6.590531   9.557841
 0.260000   -6.537733   11.573133
 0.265000   -6.474799   13.432575
 0.270000   -6.403407   15.653050
 0.275000   -6.318269   18.309759
 0.280000   -6.220309   20.703808
 0.285000   -6.111231   22.927434
 0.290000   -5.991035   25.152995
 0.295000   -5.859701   27.683274
 0.300000   -5.714202   30.202196
 0.305000   -5.557679   31.555448
 0.310000   -5.398648   32.003983
 0.315000   -5.237639   32.229758
 0.320000   -5.076350   32.155302
 0.325000   -4.916086   31.925375
 0.330000   -4.757096   31.359235
 0.335000   -4.602494   30.432220
 0.340000   -4.452774   29.649858
 0.345000   -4.305995   29.090843
 0.350000   -4.161866   28.599249
 0.355000   -4.020003   28.091120
 0.360000   -3.880955   27.501844
 0.365000   -3.744984   27.381723
 0.370000   -3.607137   27.779209
 0.375000   -3.467192   28.316992
 0.380000   -3.323967   29.014062
 0.385000   -3.177051   29.770174
 0.390000   -3.026266   30.687118
 0.395000   -2.870180   31.118159
 0.400000   -2.715084   30.867182
 0.405000   -2.561508   30.398870
 0.410000   -2.411095   29.595805
 0.415000   -2.265550   28.502210
 0.420000   -2.126073   27.347598
 0.425000   -1.992074   25.383390
 0.430000   -1.872239   23.101749
 0.435000   -1.761057   21.419373
 0.440000   -1.658046   19.824648
 0.445000   -1.562810   18.298292
 0.450000   -1.475063   16.927516
 0.455000   -1.393535   15.338512
 0.460000   -1.321678   13.612792
 0.465000   -1.257407   12.072939
 0.470000   -1.200948   10.493729
 0.475000   -1.152470   8.892677
 0.480000   -1.112021   7.239602
 0.485000   -1.080074   5.878708
 0.490000   -1.053234   4.814526
 0.495000   -1.031929   3.661109
 0.500000   -1.016623   2.419156
 0.505000   -1.007737   1.087523
 0.510000   -1.005748   -0.358092
 0.515000   -1.011318   -1.819115
 0.520000   -1.023939   -3.175493
 0.525000   -1.043073   -4.440230
 0.530000   -1.068341   -5.625671
 0.535000   -1.099330   -6.729983
 0.540000   -1.135641   -7.768117
 0.545000   -1.177011   -8.728893
 0.550000   -1.222930   -9.635294
 0.555000   -1.273364   -10.534277
 0.560000   -1.328273   -11.423965
 0.565000   -1.387604   -12.307673
 0.570000   -1.451350   -13.199552
 0.575000   -1.519599   -14.057031
 0.580000   -1.591920   -14.799318
 0.585000   -1.667592   -15.418484
 0.590000   -1.746105   -15.926341
 0.595000   -1.826856   -16.313832
 0.600000   -1.909243   -16.562710
 0.605000   -1.992483   -16.689121
 0.610000   -2.076134   -16.785190
 0.615000   -2.160335   -16.860940
 0.620000   -2.244744   -16.880197
 0.625000   -2.329137   -16.851994
 0.630000   -2.413264   -16.778437
 0.635000   -2.496921   -16.681300
 0.640000   -2.580077   -16.510869
 0.645000   -2.662030   -16.266131
 0.650000   -2.742738   -16.045288
 0.655000   -2.822483   -15.887691
 0.660000   -2.901615   -15.897309
 0.665000   -2.981456   -16.461757
 0.670000   -3.066233   -17.586586
 0.675000   -3.157322   -19.367620
 0.680000   -3.259909   -21.734197
 0.685000   -3.374663   -24.087463
 0.690000   -3.500783   -26.554250
 0.695000   -3.640206   -29.983845
 0.700000   -3.800622   -30.287183
 0.705000   -3.943078   -27.881857
 0.710000   -4.079440   -26.176430
 0.715000   -4.204842   -23.469892
 0.720000   -4.314139   -19.873684
 0.725000   -4.403579   -15.935937
 0.730000   -4.473499   -9.203361
 0.735000   -4.495613   -0.969325
 0.740000   -4.483192   6.066073
 0.745000   -4.434952   13.204703
 0.750000   -4.351145   20.117226
 0.755000   -4.233780   28.011511
 0.760000   -4.071030   33.784392
 0.765000   -3.895936   36.377641
 0.770000   -3.707253   38.476759
 0.775000   -3.511168   39.373944
 0.780000   -3.313514   39.178987
 0.785000   -3.119378   39.004640
 0.790000   -2.923468   36.660937
 0.795000   -2.752769   32.654846
 0.800000   -2.596919   29.827593
 0.805000   -2.454493   27.235932
 0.810000   -2.324560   24.903118
 0.815000   -2.205462   22.849105
 0.820000   -2.096069   21.385999
 0.825000   -1.991602   20.439369
 0.830000   -1.891675   19.413412
 0.835000   -1.797468   18.197745
 0.840000   -1.709698   16.838274
 0.845000   -1.629085   15.108291
 0.850000   -1.558615   12.982275
 0.855000   -1.499262   10.433518
 0.860000   -1.454279   7.281482
 0.865000   -1.426447   3.632176
 0.870000   -1.417958   -0.479209
 0.875000   -1.431239   -5.900446
 0.880000   -1.476962   -12.103184
 0.885000   -1.552271   -17.887975
 0.890000   -1.655842   -24.872519
 0.895000   -1.800996   -34.326861
 0.900000   -1.999111   -46.446492
 0.905000   -2.265461   -63.947013
 0.910000   -2.638581   -87.755186
 0.915000   -3.143013   -115.257648
 0.920000   -3.791157   -150.893979
 0.925000   -4.651953   -199.717357
 0.930000   -5.788331   -261.753535
 0.935000   -7.269488   -343.405391
 0.940000   -9.222385   -443.480540
 0.945000   -11.704294   -526.330087
 0.950000   -14.485686   -577.202787
 0.955000   -17.476322   -590.698070
 0.960000   -20.392666   -537.876436
 0.965000   -22.855086   -411.297118
 0.970000   -24.505637   -211.254907
 0.975000   -24.967635   57.549936
 0.980000   -23.930138   319.388855
 0.985000   -21.773746   503.760501
 0.990000   -18.892533   602.923834
 0.995000   -15.744508   616.200108
 1.000000   -12.730532   589.390361
201 psinorm omgeb(kRad/s) domgeb/dpsiN
 0.000000   72.721755   84.227482
 0.005000   72.992339   24.006196
 0.010000   72.961817   -9.160137
 0.015000   72.900737   -13.307919
 0.020000   72.828737   -15.454275
 0.025000   72.746195   -17.033091
 0.030000   72.658407   -18.464172
 0.035000   72.561553   -19.836022
 0.040000   72.460046   -20.867657
 0.045000   72.352876   -22.011473
 0.050000   72.239932   -22.966645
 0.055000   72.123210   -23.674670
 0.060000   72.003185   -24.614392
 0.065000   71.877066   -25.507510
 0.070000   71.748110   -26.073789
 0.075000   71.616328   -26.578068
 0.080000   71.482329   -27.059831
 0.085000   71.345730   -27.565582
 0.090000   71.206673   -28.400086
 0.095000   71.061729   -29.057421
 0.100000   70.916099   -29.330539
 0.105000   70.768424   -29.543347
 0.110000   70.620666   -29.435952
 0.115000   70.474064   -29.485855
 0.120000   70.325807   -29.538085
 0.125000   70.178683   -29.250105
 0.130000   70.033306   -28.982974
 0.135000   69.888854   -28.792845
 0.140000   69.745378   -28.613460
 0.145000   69.602719   -28.603688
 0.150000   69.459341   -28.857004
 0.155000   69.314149   -29.214641
 0.160000   69.167194   -29.658614
 0.165000   69.017563   -30.452825
 0.170000   68.862666   -31.273824
 0.175000   68.704825   -32.051923
 0.180000   68.542147   -33.135174
 0.185000   68.373473   -34.281080
 0.190000   68.199336   -35.349896
 0.195000   68.019974   -36.328496
 0.200000   67.836051   -37.466800
 0.205000   67.645306   -38.782507
 0.210000   67.448226   -39.945496
 0.215000   67.245851   -41.018852
 0.220000   67.038037   -41.840893
 0.225000   66.827442   -42.420691
 0.230000   66.613831   -42.995862
 0.235000   66.397483   -43.832506
 0.240000   66.175505   -44.070702
 0.245000   65.956776   -43.129667
 0.250000   65.744209   -42.097536
 0.255000   65.535801   -41.132107
 0.260000   65.332888   -40.015730
 0.265000   65.135644   -39.258745
 0.270000   64.940300   -38.357970
 0.275000   64.752064   -37.131617
 0.280000   64.568984   -36.342967
 0.285000   64.388634   -36.087641
 0.290000   64.208108   -36.157965
 0.295000   64.027055   -36.248228
 0.300000   63.845625   -36.600403
 0.305000   63.661051   -38.099324
 0.310000   63.464632   -40.669928
 0.315000   63.254351   -43.611675
 0.320000   63.028515   -46.802816
 0.325000   62.786323   -49.954756
 0.330000   62.528968   -53.063317
 0.335000   62.255690   -56.082317
 0.340000   61.968145   -58.558717
 0.345000   61.670103   -60.558850
 0.350000   61.362556   -61.867539
 0.355000   61.051427   -63.069911
 0.360000   60.731857   -64.632026
 0.365000   60.405107   -65.732192
 0.370000   60.074535   -66.640780
 0.375000   59.738699   -67.661559
 0.380000   59.397920   -68.937961
 0.385000   59.049320   -70.335819
 0.390000   58.694561   -71.402489
 0.395000   58.335295   -72.836724
 0.400000   57.966194   -74.511349
 0.405000   57.590181   -76.406958
 0.410000   57.202125   -79.300310
 0.415000   56.797178   -83.569674
 0.420000   56.366428   -89.106409
 0.425000   55.906114   -96.410289
 0.430000   55.402325   -104.946050
 0.435000   54.856654   -113.884254
 0.440000   54.263482   -123.617324
 0.445000   53.620480   -132.791622
 0.450000   52.935566   -140.546961
 0.455000   52.215011   -147.368433
 0.460000   51.461882   -152.849108
 0.465000   50.686520   -156.422665
 0.470000   49.897655   -157.460542
 0.475000   49.111914   -155.663381
 0.480000   48.341021   -151.942866
 0.485000   47.592486   -146.581698
 0.490000   46.875204   -139.853159
 0.495000   46.193954   -132.236290
 0.500000   45.552841   -124.575292
 0.505000   44.948201   -117.995143
 0.510000   44.372890   -112.733100
 0.515000   43.820870   -108.686066
 0.520000   43.286029   -105.606070
 0.525000   42.764809   -103.248454
 0.530000   42.253545   -101.388263
 0.535000   41.750927   -99.647536
 0.540000   41.257069   -97.749603
 0.545000   40.773431   -95.696590
 0.550000   40.300104   -93.592311
 0.555000   39.837508   -91.428748
 0.560000   39.385816   -89.082480
 0.565000   38.946683   -86.538805
 0.570000   38.520428   -84.049540
 0.575000   38.106187   -81.453190
 0.580000   37.705896   -78.593467
 0.585000   37.320253   -75.830723
 0.590000   36.947589   -73.170351
 0.595000   36.588549   -70.450825
 0.600000   36.243081   -67.783725
 0.605000   35.910712   -65.238722
 0.610000   35.590693   -62.917491
 0.615000   35.281537   -60.761134
 0.620000   34.983082   -58.762163
 0.625000   34.693916   -57.049808
 0.630000   34.412584   -55.430478
 0.635000   34.139611   -53.857831
 0.640000   33.874006   -52.536837
 0.645000   33.614242   -51.307929
 0.650000   33.360926   -50.013572
 0.655000   33.114107   -49.117210
 0.660000   32.869754   -48.862279
 0.665000   32.625484   -49.420524
 0.670000   32.375549   -50.899937
 0.675000   32.116484   -53.310939
 0.680000   31.842440   -56.472942
 0.685000   31.551755   -59.429913
 0.690000   31.248141   -62.060829
 0.695000   30.931147   -65.421494
 0.700000   30.593926   -65.240372
 0.705000   30.278743   -62.025227
 0.710000   29.973673   -59.762382
 0.715000   29.681119   -56.978363
 0.720000   29.403890   -54.031314
 0.725000   29.140806   -51.528273
 0.730000   28.888607   -47.023476
 0.735000   28.670571   -42.010315
 0.740000   28.468504   -39.014885
 0.745000   28.280422   -36.613857
 0.750000   28.102365   -34.908459
 0.755000   27.931338   -32.642893
 0.760000   27.775936   -33.073959
 0.765000   27.600598   -36.978566
 0.770000   27.406151   -41.757250
 0.775000   27.183026   -48.118420
 0.780000   26.924966   -55.324805
 0.785000   26.629778   -62.021991
 0.790000   26.304747   -70.761050
 0.795000   25.922167   -81.342269
 0.800000   25.491324   -91.034729
 0.805000   25.011820   -100.785282
 0.810000   24.483471   -110.063232
 0.815000   23.911188   -118.844452
 0.820000   23.295027   -127.148587
 0.825000   22.639702   -134.364121
 0.830000   21.951385   -140.305520
 0.835000   21.236647   -144.877845
 0.840000   20.502607   -147.282800
 0.845000   19.763819   -147.216292
 0.850000   19.030444   -144.816694
 0.855000   18.315652   -140.919296
 0.860000   17.621251   -137.043144
 0.865000   16.945220   -134.365499
 0.870000   16.277596   -133.428708
 0.875000   15.610933   -135.583648
 0.880000   14.921760   -141.925918
 0.885000   14.191674   -152.977848
 0.890000   13.391981   -171.544236
 0.895000   12.476232   -200.731435
 0.900000   11.384667   -241.094646
 0.905000   10.065285   -294.837341
 0.910000   8.436293   -362.903597
 0.915000   6.436249   -439.499651
 0.920000   4.041297   -522.946980
 0.925000   1.206779   -612.022248
 0.930000   -2.078926   -700.214304
 0.935000   -5.795364   -784.043940
 0.940000   -9.919365   -851.478901
 0.945000   -14.310153   -863.389654
 0.950000   -18.553262   -812.374778
 0.955000   -22.433900   -708.559123
 0.960000   -25.638853   -552.276057
 0.965000   -27.956661   -369.460113
 0.970000   -29.333454   -181.121808
 0.975000   -29.767879   31.762288
 0.980000   -29.015831   280.316594
 0.985000   -26.964713   598.019990
 0.990000   -23.035631   1017.067868
 0.995000   -16.794035   1432.046111
 1.000000   -8.715170   1799.499658
201 psinorm er(kV/m) der/dpsiN
 0.000000   1.384330   1152.893272
 0.005000   6.095927   731.745677
 0.010000   8.701787   460.798367
 0.015000   10.703911   370.706505
 0.020000   12.408852   318.806910
 0.025000   13.891980   282.559471
 0.030000   15.234446   257.362881
 0.035000   16.465609   237.393778
 0.040000   17.608384   221.395686
 0.045000   18.679566   206.748401
 0.050000   19.675868   193.723989
 0.055000   20.616805   182.727239
 0.060000   21.503140   175.211979
 0.065000   22.368925   167.611791
 0.070000   23.179258   156.319855
 0.075000   23.932124   151.448406
 0.080000   24.693742   146.341862
 0.085000   25.395542   137.898521
 0.090000   26.072728   134.753486
 0.095000   26.743077   126.754897
 0.100000   27.340277   123.343595
 0.105000   27.976513   118.756754
 0.110000   28.527844   114.424147
 0.115000   29.120755   110.537595
 0.120000   29.633220   106.712567
 0.125000   30.187880   102.882438
 0.130000   30.662045   100.086786
 0.135000   31.188748   95.991895
 0.140000   31.621963   93.782476
 0.145000   32.126573   89.944839
 0.150000   32.521412   86.187373
 0.155000   32.988447   85.756041
 0.160000   33.378972   79.976231
 0.165000   33.788209   80.167498
 0.170000   34.180647   73.815066
 0.175000   34.526360   74.081519
 0.180000   34.921462   67.918988
 0.185000   35.205550   64.729220
 0.190000   35.568755   66.295708
 0.195000   35.868507   58.778647
 0.200000   36.156541   60.569564
 0.205000   36.474202   53.319459
 0.210000   36.689736   50.511456
 0.215000   36.979317   53.062218
 0.220000   37.220358   45.079974
 0.225000   37.430117   46.443913
 0.230000   37.684797   42.529606
 0.235000   37.855413   37.896681
 0.240000   38.063764   42.336621
 0.245000   38.278779   35.214063
 0.250000   38.415904   34.308318
 0.255000   38.621862   38.670509
 0.260000   38.802610   31.951550
 0.265000   38.941378   32.794118
 0.270000   39.130551   34.360815
 0.275000   39.284986   29.163751
 0.280000   39.422188   31.234836
 0.285000   39.597334   30.505429
 0.290000   39.727243   25.731320
 0.295000   39.854647   27.990727
 0.300000   40.007150   25.814282
 0.305000   40.112790   20.877260
 0.310000   40.215922   21.624971
 0.315000   40.329040   17.627030
 0.320000   40.392193   11.936407
 0.325000   40.448404   11.847146
 0.330000   40.510664   8.169438
 0.335000   40.530098   2.640489
 0.340000   40.537069   2.261807
 0.345000   40.552716   0.152132
 0.350000   40.538590   -4.333596
 0.355000   40.509380   -4.705998
 0.360000   40.491530   -5.592388
 0.365000   40.453456   -9.917608
 0.370000   40.392354   -10.810327
 0.375000   40.345353   -10.542292
 0.380000   40.286931   -14.910295
 0.385000   40.196250   -16.785957
 0.390000   40.119072   -15.990767
 0.395000   40.036343   -20.159314
 0.400000   39.917479   -22.785284
 0.405000   39.808490   -22.804532
 0.410000   39.689433   -26.692540
 0.415000   39.541564   -31.537258
 0.420000   39.374061   -35.281732
 0.425000   39.188747   -40.937719
 0.430000   38.964684   -49.020352
 0.435000   38.698544   -56.094615
 0.440000   38.403737   -62.854634
 0.445000   38.069997   -71.399386
 0.450000   37.689744   -78.193292
 0.455000   37.288064   -82.981914
 0.460000   36.859924   -88.275313
 0.465000   36.405311   -92.418046
 0.470000   35.935744   -93.734144
 0.475000   35.467970   -92.990756
 0.480000   35.005836   -91.886220
 0.485000   34.549107   -88.960360
 0.490000   34.116233   -84.202585
 0.495000   33.707082   -79.867820
 0.500000   33.317555   -75.362614
 0.505000   32.953456   -70.768635
 0.510000   32.609868   -67.412500
 0.515000   32.279330   -65.601508
 0.520000   31.953853   -63.934884
 0.525000   31.639982   -62.186238
 0.530000   31.331991   -61.825349
 0.535000   31.021728   -61.337826
 0.540000   30.718613   -59.926837
 0.545000   30.422460   -58.824457
 0.550000   30.130368   -58.269628
 0.555000   29.839764   -57.057966
 0.560000   29.559788   -55.154776
 0.565000   29.288216   -54.169630
 0.570000   29.018092   -52.987866
 0.575000   28.758337   -50.864450
 0.580000   28.509447   -48.961435
 0.585000   28.268723   -47.879415
 0.590000   28.030653   -46.141928
 0.595000   27.807303   -43.700629
 0.600000   27.593647   -42.460183
 0.605000   27.382702   -41.232218
 0.610000   27.181325   -39.213842
 0.615000   26.990563   -37.454646
 0.620000   26.806778   -37.083406
 0.625000   26.619729   -36.064241
 0.630000   26.446136   -34.115299
 0.635000   26.278576   -33.453980
 0.640000   26.111596   -33.333879
 0.645000   25.945237   -32.231447
 0.650000   25.789282   -30.721722
 0.655000   25.638020   -31.063825
 0.660000   25.478643   -31.373572
 0.665000   25.324284   -31.113819
 0.670000   25.167505   -32.253867
 0.675000   25.001746   -35.360718
 0.680000   24.813898   -37.923037
 0.685000   24.622515   -39.322526
 0.690000   24.420673   -42.045376
 0.695000   24.202062   -45.647591
 0.700000   23.964197   -45.137888
 0.705000   23.750683   -41.940634
 0.710000   23.544791   -41.387069
 0.715000   23.336812   -39.800120
 0.720000   23.146789   -36.537727
 0.725000   22.971435   -34.285416
 0.730000   22.803935   -32.363780
 0.735000   22.647797   -28.518728
 0.740000   22.518748   -24.743863
 0.745000   22.400358   -23.367310
 0.750000   22.285075   -23.171827
 0.755000   22.168640   -21.049217
 0.760000   22.074583   -20.459037
 0.765000   21.964050   -24.383070
 0.770000   21.830752   -28.870964
 0.775000   21.675340   -33.358165
 0.780000   21.497170   -38.682320
 0.785000   21.288517   -44.989012
 0.790000   21.047280   -52.353592
 0.795000   20.764981   -60.202222
 0.800000   20.445258   -67.950456
 0.805000   20.085476   -76.782967
 0.810000   19.677428   -84.442803
 0.815000   19.241048   -90.926695
 0.820000   18.768161   -97.994369
 0.825000   18.261105   -104.597897
 0.830000   17.722182   -109.510759
 0.835000   17.165997   -112.941788
 0.840000   16.592765   -115.387164
 0.845000   16.012125   -115.962679
 0.850000   15.433138   -114.082186
 0.855000   14.871304   -110.844912
 0.860000   14.324689   -108.227623
 0.865000   13.789027   -106.614622
 0.870000   13.258542   -105.906943
 0.875000   12.729958   -107.659913
 0.880000   12.181943   -113.425231
 0.885000   11.595706   -123.010918
 0.890000   10.951834   -138.229361
 0.895000   10.213412   -162.195135
 0.900000   9.329883   -195.795208
 0.905000   8.255460   -239.898774
 0.910000   6.930895   -295.590515
 0.915000   5.299555   -359.073648
 0.920000   3.340159   -430.472202
 0.925000   0.994833   -504.853503
 0.930000   -1.708377   -577.502369
 0.935000   -4.780191   -650.259684
 0.940000   -8.210973   -728.585177
 0.945000   -12.066043   -744.237686
 0.950000   -15.653350   -687.735945
 0.955000   -18.943402   -605.168376
 0.960000   -21.705034   -514.857458
 0.965000   -24.091977   -361.521622
 0.970000   -25.320250   -163.524980
 0.975000   -25.727226   21.717709
 0.980000   -25.103073   231.064719
 0.985000   -23.416579   508.529263
 0.990000   -20.017780   880.944342
 0.995000   -14.607136   1241.171887
 1.000000   -7.606062   1559.257827
201 psinorm ommvb() dommvb/dpsiN
 0.000000   7.209559   21459.704239
 0.005000   97.580406   14688.634457
 0.010000   154.095904   10699.827763
 0.015000   204.578683   9311.332708
 0.020000   247.209231   7981.178144
 0.025000   284.390465   6786.170203
 0.030000   315.070933   5664.518509
 0.035000   341.035650   5075.628314
 0.040000   365.827216   4521.766717
 0.045000   386.253317   3851.144291
 0.050000   404.338659   3592.658221
 0.055000   422.179899   3074.232615
 0.060000   435.080985   2518.025594
 0.065000   447.360155   2219.951680
 0.070000   457.280502   1913.484070
 0.075000   466.494996   1735.543069
 0.080000   474.635932   1418.543384
 0.085000   480.680430   1099.012628
 0.090000   485.626059   899.454758
 0.095000   489.674977   622.837113
 0.100000   491.854430   387.651399
 0.105000   493.551491   228.613964
 0.110000   494.140569   96.740862
 0.115000   494.518900   6.176010
 0.120000   494.202329   -140.621429
 0.125000   493.112686   -281.593412
 0.130000   491.386395   -404.003214
 0.135000   489.072653   -569.876292
 0.140000   485.687632   -726.771654
 0.145000   481.804937   -785.276376
 0.150000   477.834869   -823.648026
 0.155000   473.568457   -891.418421
 0.160000   468.920684   -963.530537
 0.165000   463.933151   -1026.498218
 0.170000   458.655702   -1080.483432
 0.175000   453.128317   -1081.729268
 0.180000   447.838410   -1015.044329
 0.185000   442.977874   -1098.890752
 0.190000   436.849502   -1286.093824
 0.195000   430.116935   -1445.158816
 0.200000   422.397914   -1416.052098
 0.205000   415.956414   -1289.492025
 0.210000   409.502994   -1288.145569
 0.215000   403.074959   -1285.919020
 0.220000   396.643803   -1295.857147
 0.225000   390.116387   -1336.206366
 0.230000   383.281740   -1510.206348
 0.235000   375.014324   -1449.620670
 0.240000   368.785533   -1203.239509
 0.245000   362.981929   -1145.566458
 0.250000   357.329869   -1116.687553
 0.255000   351.815053   -1091.999218
 0.260000   346.409876   -1293.441874
 0.265000   338.880634   -1237.017997
 0.270000   334.039696   -949.447692
 0.275000   329.386158   -916.335686
 0.280000   324.876339   -886.210613
 0.285000   320.524051   -1029.175701
 0.290000   314.584582   -1022.410646
 0.295000   310.299945   -793.748848
 0.300000   306.647094   -717.287027
 0.305000   303.127075   -689.706213
 0.310000   299.750032   -835.341787
 0.315000   294.773657   -790.371457
 0.320000   291.846317   -560.325125
 0.325000   289.170406   -522.752877
 0.330000   286.618789   -549.933663
 0.335000   283.671069   -613.828421
 0.340000   280.480504   -511.541002
 0.345000   278.555659   -373.544610
 0.350000   276.745058   -349.633152
 0.355000   275.059327   -430.684534
 0.360000   272.438213   -405.200989
 0.365000   271.007318   -257.655645
 0.370000   269.861656   -219.853475
 0.375000   268.808783   -252.363461
 0.380000   267.338022   -270.336791
 0.385000   266.105415   -183.403264
 0.390000   265.503989   -113.774257
 0.395000   264.967672   -120.073428
 0.400000   264.303255   -164.620397
 0.405000   263.321468   -124.569031
 0.410000   263.057565   -51.245025
 0.415000   262.809018   -49.140091
 0.420000   262.566164   -123.237882
 0.425000   261.576639   -128.829723
 0.430000   261.277866   -63.372617
 0.435000   260.942913   -72.828782
 0.440000   260.549579   -136.567430
 0.445000   259.577239   -161.467165
 0.450000   258.934907   -116.028120
 0.455000   258.416958   -106.942362
 0.460000   257.865483   -142.266065
 0.465000   256.994297   -164.345855
 0.470000   256.222025   -114.817082
 0.475000   255.846126   -70.426109
 0.480000   255.517764   -75.380031
 0.485000   255.092326   -98.832257
 0.490000   254.529441   -55.155473
 0.495000   254.540771   11.464998
 0.500000   254.644091   29.705693
 0.505000   254.837828   3.472151
 0.510000   254.678813   21.804728
 0.515000   255.055875   82.351155
 0.520000   255.502324   96.235301
 0.525000   256.018228   95.894524
 0.530000   256.461269   87.889773
 0.535000   256.897126   107.995041
 0.540000   257.541220   134.589401
 0.545000   258.243020   140.880259
 0.550000   258.950022   129.161499
 0.555000   259.534635   147.050923
 0.560000   260.420532   184.361675
 0.565000   261.378252   199.400231
 0.570000   262.414534   196.930036
 0.575000   263.347552   207.573033
 0.580000   264.490264   245.963128
 0.585000   265.807183   273.587344
 0.590000   267.226138   294.891286
 0.595000   268.756096   302.651240
 0.600000   270.252650   325.206630
 0.605000   272.008163   367.784530
 0.610000   273.930495   400.809643
 0.615000   276.016259   433.742207
 0.620000   278.267918   461.771943
 0.625000   280.633978   489.886583
 0.630000   283.166783   522.147228
 0.635000   285.855451   554.068176
 0.640000   288.707465   591.265280
 0.645000   291.768103   634.760120
 0.650000   295.055066   669.246518
 0.655000   298.460569   696.469385
 0.660000   302.019760   728.150203
 0.665000   305.742071   764.134356
 0.670000   309.661104   815.404024
 0.675000   313.896111   847.398979
 0.680000   318.135094   866.334322
 0.685000   322.559454   906.444777
 0.690000   327.199541   951.604859
 0.695000   332.075503   1015.606190
 0.700000   337.355603   1077.423267
 0.705000   342.849735   1115.468496
 0.710000   348.510288   1156.842862
 0.715000   354.418164   1207.533277
 0.720000   360.585621   1260.551124
 0.725000   367.023675   1329.211111
 0.730000   373.877732   1386.069321
 0.735000   380.884368   1424.293537
 0.740000   388.120667   1476.534533
 0.745000   395.649714   1534.942673
 0.750000   403.470094   1592.637285
 0.755000   411.576087   1653.003597
 0.760000   420.000130   1701.797629
 0.765000   428.594063   1739.478544
 0.770000   437.394916   1790.675680
 0.775000   446.500820   1853.197662
 0.780000   455.926892   1919.833943
 0.785000   465.699159   1993.674340
 0.790000   475.863636   2075.687894
 0.795000   486.456038   2137.686950
 0.800000   497.240505   2216.645271
 0.805000   508.622491   2328.543064
 0.810000   520.525936   2433.076638
 0.815000   532.953257   2541.250309
 0.820000   545.938439   2657.031305
 0.825000   559.523570   2782.973505
 0.830000   573.768174   2921.219548
 0.835000   588.735766   3067.104772
 0.840000   604.439222   3166.287062
 0.845000   620.398636   3331.983351
 0.850000   637.759055   3571.802281
 0.855000   656.116659   3772.527808
 0.860000   675.484333   3993.297542
 0.865000   696.049635   4306.308373
 0.870000   718.547417   4771.649365
 0.875000   743.766128   5383.701688
 0.880000   772.384434   6129.905476
 0.885000   805.065183   7005.228670
 0.890000   842.436720   8035.142719
 0.895000   885.416610   9272.977543
 0.900000   935.166496   10774.945905
 0.905000   993.166069   12584.676521
 0.910000   1061.013261   14708.017060
 0.915000   1140.246240   16962.231671
 0.920000   1230.635578   19101.638908
 0.925000   1331.262629   21138.585414
 0.930000   1442.021432   23142.593911
 0.935000   1562.688568   25416.524882
 0.940000   1696.186681   28939.987773
 0.945000   1852.088446   35125.011958
 0.950000   2047.436800   44613.620693
 0.955000   2298.224653   55285.117126
 0.960000   2600.287972   63062.635778
 0.965000   2928.851010   63381.531173
 0.970000   3234.103283   53015.775617
 0.975000   3459.008767   31832.973074
 0.980000   3552.433014   12203.601121
 0.985000   3581.044778   16811.309881
 0.990000   3720.546113   46093.946326
 0.995000   4041.984241   288881.544504
 1.000000   6609.361558   738069.382222
201 psinorm ommpp() dommpp/dpsiN
 0.000000   65.512196   -21375.476757
 0.005000   -24.588067   -14664.628261
 0.010000   -81.134087   -10708.987900
 0.015000   -131.677946   -9324.640627
 0.020000   -174.380493   -7996.632418
 0.025000   -211.644270   -6803.203294
 0.030000   -242.412526   -5682.982681
 0.035000   -268.474097   -5095.464336
 0.040000   -293.367169   -4542.634374
 0.045000   -313.900441   -3873.155765
 0.050000   -332.098727   -3615.624866
 0.055000   -350.056689   -3097.907286
 0.060000   -363.077800   -2542.639986
 0.065000   -375.483089   -2245.459190
 0.070000   -385.532392   -1939.557859
 0.075000   -394.878668   -1762.121137
 0.080000   -403.153603   -1445.603215
 0.085000   -409.334700   -1126.578210
 0.090000   -414.419385   -927.854845
 0.095000   -418.613248   -651.894534
 0.100000   -420.938331   -416.981938
 0.105000   -422.783068   -258.157310
 0.110000   -423.519904   -126.176814
 0.115000   -424.044836   -35.661865
 0.120000   -423.876522   111.083345
 0.125000   -422.934002   252.343307
 0.130000   -421.353089   375.020239
 0.135000   -419.183800   541.083446
 0.140000   -415.942255   698.158194
 0.145000   -412.202218   756.672688
 0.150000   -408.375528   794.791022
 0.155000   -404.254308   862.203780
 0.160000   -399.753490   933.871922
 0.165000   -394.915589   996.045394
 0.170000   -389.793036   1049.209608
 0.175000   -384.423492   1049.677345
 0.180000   -379.296263   981.909155
 0.185000   -374.604401   1064.609672
 0.190000   -368.650166   1250.743929
 0.195000   -362.096962   1408.830320
 0.200000   -354.561863   1378.585298
 0.205000   -348.311109   1250.709518
 0.210000   -342.054768   1248.200073
 0.215000   -335.829108   1244.900168
 0.220000   -329.605766   1254.016254
 0.225000   -323.288945   1293.785675
 0.230000   -316.667909   1467.210486
 0.235000   -308.616841   1405.788164
 0.240000   -302.610028   1159.168807
 0.245000   -297.025152   1102.436791
 0.250000   -291.585660   1074.590017
 0.255000   -286.279252   1050.867111
 0.260000   -281.076989   1253.426144
 0.265000   -273.744991   1197.759252
 0.270000   -269.099396   911.089722
 0.275000   -264.634094   879.204069
 0.280000   -260.307355   849.867646
 0.285000   -256.135417   993.088060
 0.290000   -250.376475   986.252681
 0.295000   -246.272890   757.500621
 0.300000   -242.801469   680.686624
 0.305000   -239.466024   651.606889
 0.310000   -236.285400   794.671859
 0.315000   -231.519306   746.759782
 0.320000   -228.817802   513.522309
 0.325000   -226.384082   472.798120
 0.330000   -224.089821   496.870346
 0.335000   -221.415379   557.746104
 0.340000   -218.512360   452.982285
 0.345000   -216.885556   312.985760
 0.350000   -215.382502   287.765613
 0.355000   -214.007900   367.614623
 0.360000   -211.706356   340.568963
 0.365000   -210.602210   191.923453
 0.370000   -209.787121   153.212696
 0.375000   -209.070083   184.701902
 0.380000   -207.940102   201.398830
 0.385000   -207.056095   113.067446
 0.390000   -206.809428   42.371768
 0.395000   -206.632377   47.236704
 0.400000   -206.337061   90.109048
 0.405000   -205.731287   48.162072
 0.410000   -205.855440   -28.055285
 0.415000   -206.011840   -34.429582
 0.420000   -206.199736   34.131473
 0.425000   -205.670525   32.419434
 0.430000   -205.875542   -41.573433
 0.435000   -206.086259   -41.055473
 0.440000   -206.286096   12.950106
 0.445000   -205.956758   28.675543
 0.450000   -205.999341   -24.518841
 0.455000   -206.201947   -40.426071
 0.460000   -206.403602   -10.583043
 0.465000   -206.307777   7.923190
 0.470000   -206.324370   -42.643460
 0.475000   -206.734212   -85.237272
 0.480000   -207.176742   -76.562834
 0.485000   -207.499840   -47.749441
 0.490000   -207.654237   -84.697686
 0.495000   -208.346817   -143.701287
 0.500000   -209.091250   -154.280985
 0.505000   -209.889627   -121.467294
 0.510000   -210.305923   -134.537828
 0.515000   -211.235005   -191.037220
 0.520000   -212.216295   -201.841370
 0.525000   -213.253419   -199.142978
 0.530000   -214.207725   -189.278036
 0.535000   -215.146199   -207.642578
 0.540000   -216.284150   -232.339004
 0.545000   -217.469589   -236.576849
 0.550000   -218.649919   -222.753811
 0.555000   -219.697127   -238.479672
 0.560000   -221.034716   -273.444155
 0.565000   -222.431569   -285.939036
 0.570000   -223.894106   -280.979576
 0.575000   -225.241365   -289.026224
 0.580000   -226.784368   -324.556595
 0.585000   -228.486931   -349.418067
 0.590000   -230.278549   -368.061637
 0.595000   -232.167547   -373.102065
 0.600000   -234.009569   -392.990355
 0.605000   -236.097450   -433.023252
 0.610000   -238.339802   -463.727134
 0.615000   -240.734722   -494.503341
 0.620000   -243.284835   -520.534105
 0.625000   -245.940063   -546.936391
 0.630000   -248.754199   -577.577706
 0.635000   -251.715840   -607.926006
 0.640000   -254.833459   -643.802117
 0.645000   -258.153861   -686.068048
 0.650000   -261.694140   -719.260090
 0.655000   -265.346462   -745.586595
 0.660000   -269.150006   -777.012482
 0.665000   -273.116587   -813.554881
 0.670000   -277.285555   -866.303961
 0.675000   -281.779626   -900.709918
 0.680000   -286.292654   -922.807264
 0.685000   -291.007699   -965.874690
 0.690000   -295.951401   -1013.665688
 0.695000   -301.144356   -1081.027685
 0.700000   -306.761678   -1142.663639
 0.705000   -312.570992   -1177.493724
 0.710000   -318.536615   -1216.605244
 0.715000   -324.737045   -1264.511640
 0.720000   -331.181731   -1314.582438
 0.725000   -337.882869   -1380.739384
 0.730000   -344.989125   -1433.092798
 0.735000   -352.213797   -1466.303852
 0.740000   -359.652164   -1515.549418
 0.745000   -367.369291   -1571.556530
 0.750000   -375.367729   -1627.545744
 0.755000   -383.644749   -1685.646490
 0.760000   -392.224194   -1734.871588
 0.765000   -400.993465   -1776.457111
 0.770000   -409.988765   -1832.432929
 0.775000   -419.317794   -1901.316082
 0.780000   -429.001926   -1975.158748
 0.785000   -439.069381   -2055.696331
 0.790000   -449.558889   -2146.448944
 0.795000   -460.533871   -2219.029220
 0.800000   -471.749181   -2307.680001
 0.805000   -483.610671   -2429.328346
 0.810000   -496.042465   -2543.139871
 0.815000   -509.042070   -2660.094761
 0.820000   -522.643412   -2784.179891
 0.825000   -536.883869   -2917.337626
 0.830000   -551.816789   -3061.525067
 0.835000   -567.499119   -3211.982617
 0.840000   -583.936615   -3313.569862
 0.845000   -600.634818   -3479.199643
 0.850000   -618.728611   -3716.618975
 0.855000   -637.801008   -3913.447104
 0.860000   -657.863082   -4130.340686
 0.865000   -679.104414   -4440.673872
 0.870000   -702.269821   -4905.078073
 0.875000   -728.155195   -5519.285336
 0.880000   -757.462674   -6271.831394
 0.885000   -790.873509   -7158.206518
 0.890000   -829.044739   -8206.686955
 0.895000   -872.940379   -9473.708977
 0.900000   -923.781829   -11016.040551
 0.905000   -983.100784   -12879.513862
 0.910000   -1052.576968   -15070.920658
 0.915000   -1133.809991   -17401.731321
 0.920000   -1226.594281   -19624.585889
 0.925000   -1330.055850   -21750.607662
 0.930000   -1444.100358   -23842.808215
 0.935000   -1568.483932   -26200.568822
 0.940000   -1706.106046   -29791.466674
 0.945000   -1866.398598   -35988.401612
 0.950000   -2065.990062   -45425.995471
 0.955000   -2320.658553   -55993.676249
 0.960000   -2625.926824   -63614.911835
 0.965000   -2956.807672   -63750.991287
 0.970000   -3263.436737   -53196.897425
 0.975000   -3488.776646   -31801.210786
 0.980000   -3581.448845   -11923.284527
 0.985000   -3608.009491   -16213.289891
 0.990000   -3743.581744   -45076.878458
 0.995000   -4058.778276   -287449.498392
 1.000000   -6618.076728   -736269.882564
201 psinorm omevb() domevb/dpsiN
 0.000000   48.547534   92.966570
 0.005000   48.870629   36.271305
 0.010000   48.910247   4.918750
 0.015000   48.919816   0.871918
 0.020000   48.918966   -1.174656
 0.025000   48.908070   -2.654864
 0.030000   48.892417   -3.988514
 0.035000   48.868184   -5.264116
 0.040000   48.839776   -6.200691
 0.045000   48.806177   -7.250639
 0.050000   48.767270   -8.113137
 0.055000   48.725046   -8.729691
 0.060000   48.679973   -9.579144
 0.065000   48.629255   -10.383201
 0.070000   48.576141   -10.861630
 0.075000   48.520638   -11.279274
 0.080000   48.463348   -11.675620
 0.085000   48.403882   -12.097176
 0.090000   48.342377   -12.848708
 0.095000   48.275395   -13.424298
 0.100000   48.208134   -13.616901
 0.105000   48.139226   -13.750426
 0.110000   48.070629   -13.564983
 0.115000   48.003576   -13.538075
 0.120000   47.935249   -13.514731
 0.125000   47.868429   -13.152419
 0.130000   47.803724   -12.812198
 0.135000   47.740307   -12.550224
 0.140000   47.678222   -12.300237
 0.145000   47.617305   -12.221112
 0.150000   47.556011   -12.406321
 0.155000   47.493241   -12.697102
 0.160000   47.429040   -13.075467
 0.165000   47.362487   -13.805319
 0.170000   47.290987   -14.563212
 0.175000   47.216855   -15.279456
 0.180000   47.138192   -16.302103
 0.185000   47.053834   -17.388657
 0.190000   46.964306   -18.399371
 0.195000   46.869840   -19.321121
 0.200000   46.771094   -20.403826
 0.205000   46.665802   -21.665185
 0.210000   46.554443   -22.775075
 0.215000   46.438051   -23.796581
 0.220000   46.316477   -24.568020
 0.225000   46.192371   -25.098463
 0.230000   46.065492   -25.625525
 0.235000   45.936115   -26.415304
 0.240000   45.801339   -26.607877
 0.245000   45.670037   -25.622461
 0.250000   45.545114   -24.547189
 0.255000   45.424565   -23.539855
 0.260000   45.309716   -22.382809
 0.265000   45.200737   -21.586389
 0.270000   45.093852   -20.647410
 0.275000   44.994263   -19.384081
 0.280000   44.900011   -18.559680
 0.285000   44.808666   -18.269827
 0.290000   44.717313   -18.306845
 0.295000   44.625597   -18.365018
 0.300000   44.533663   -18.686318
 0.305000   44.438734   -20.155575
 0.310000   44.332107   -22.697723
 0.315000   44.211757   -25.612218
 0.320000   44.075985   -28.777307
 0.325000   43.923984   -31.904393
 0.330000   43.756941   -34.989292
 0.335000   43.574091   -37.985819
 0.340000   43.377083   -40.440932
 0.345000   43.169682   -42.420957
 0.350000   42.952873   -43.710715
 0.355000   42.732574   -44.895329
 0.360000   42.503920   -46.440852
 0.365000   42.268166   -47.525590
 0.370000   42.028664   -48.419907
 0.375000   41.783967   -49.427569
 0.380000   41.534388   -50.692001
 0.385000   41.277047   -52.079032
 0.390000   41.013598   -53.136014
 0.395000   40.745687   -54.561693
 0.400000   40.467981   -56.228889
 0.405000   40.183398   -58.118190
 0.410000   39.886799   -61.006350
 0.415000   39.573334   -65.271632
 0.420000   39.234083   -70.805389
 0.425000   38.865280   -78.107391
 0.430000   38.453009   -86.642365
 0.435000   37.998857   -95.580870
 0.440000   37.497200   -105.315320
 0.445000   36.945703   -114.492071
 0.450000   36.352279   -122.250931
 0.455000   35.723194   -129.076986
 0.460000   35.061510   -134.563297
 0.465000   34.377561   -138.143539
 0.470000   33.680074   -139.189141
 0.475000   32.985670   -137.400740
 0.480000   32.306067   -133.690012
 0.485000   31.648770   -128.339651
 0.490000   31.022670   -121.622933
 0.495000   30.432540   -114.018890
 0.500000   29.882481   -106.371718
 0.505000   29.368823   -99.806386
 0.510000   28.884418   -94.560144
 0.515000   28.423222   -90.529888
 0.520000   27.979119   -87.467639
 0.525000   27.548545   -85.128731
 0.530000   27.127831   -83.288202
 0.535000   26.715663   -81.568083
 0.540000   26.312151   -79.691695
 0.545000   25.918746   -77.661158
 0.550000   25.535539   -75.580276
 0.555000   25.162944   -73.441023
 0.560000   24.801129   -71.119970
 0.565000   24.451744   -68.602405
 0.570000   24.115105   -66.140139
 0.575000   23.790343   -63.571665
 0.580000   23.479388   -60.740687
 0.585000   23.182936   -58.007547
 0.590000   22.899313   -55.377629
 0.595000   22.629159   -52.689395
 0.600000   22.372419   -50.054415
 0.605000   22.128615   -47.542349
 0.610000   21.896995   -45.254860
 0.615000   21.676067   -43.133035
 0.620000   21.465665   -41.169375
 0.625000   21.264373   -39.493094
 0.630000   21.070734   -37.910584
 0.635000   20.885267   -36.375485
 0.640000   20.706979   -35.092748
 0.645000   20.534340   -33.902781
 0.650000   20.367951   -32.648028
 0.655000   20.207859   -31.791902
 0.660000   20.050032   -31.577807
 0.665000   19.892081   -32.177451
 0.670000   19.728258   -33.698784
 0.675000   19.555093   -36.152179
 0.680000   19.366736   -39.356993
 0.685000   19.161523   -42.357127
 0.690000   18.943165   -45.031485
 0.695000   18.711209   -48.435786
 0.700000   18.458807   -48.298398
 0.705000   18.228225   -45.126974
 0.710000   18.007537   -42.907712
 0.715000   17.799147   -40.166998
 0.720000   17.605867   -37.262821
 0.725000   17.426519   -34.802051
 0.730000   17.257846   -30.338743
 0.735000   17.123132   -25.366102
 0.740000   17.004185   -22.410042
 0.745000   16.899031   -20.047066
 0.750000   16.803715   -18.378276
 0.755000   16.715249   -16.147817
 0.760000   16.642237   -16.612552
 0.765000   16.549123   -20.549634
 0.770000   16.436740   -25.360124
 0.775000   16.295522   -31.753375
 0.780000   16.119207   -38.993656
 0.785000   15.905585   -45.728963
 0.790000   15.661917   -54.514006
 0.795000   15.360445   -65.154442
 0.800000   15.010372   -74.927155
 0.805000   14.611174   -84.790196
 0.810000   14.162471   -94.228804
 0.815000   13.668886   -103.241371
 0.820000   13.130057   -111.879225
 0.825000   12.550093   -119.575281
 0.830000   11.934304   -126.206201
 0.835000   11.288031   -131.764051
 0.840000   10.616664   -135.572272
 0.845000   9.932309   -137.497301
 0.850000   9.241691   -137.916811
 0.855000   8.553141   -138.002674
 0.860000   7.861664   -139.748591
 0.865000   7.155655   -145.003013
 0.870000   6.411634   -155.259755
 0.875000   5.603057   -173.220983
 0.880000   4.679424   -201.902760
 0.885000   3.584030   -244.553427
 0.890000   2.233890   -307.830747
 0.895000   0.505722   -400.237802
 0.900000   -1.768489   -529.763643
 0.905000   -4.791914   -708.554244
 0.910000   -8.854031   -950.172012
 0.915000   -14.293634   -1263.319986
 0.920000   -21.487231   -1659.607702
 0.925000   -30.889711   -2142.303048
 0.930000   -42.910261   -2685.912278
 0.935000   -57.748834   -3222.565101
 0.940000   -75.135912   -3610.217324
 0.945000   -93.851007   -3621.090211
 0.950000   -111.346814   -3068.088232
 0.955000   -124.531890   -1916.299278
 0.960000   -130.509807   -353.884741
 0.965000   -128.070737   1220.249439
 0.970000   -118.307313   2420.271477
 0.975000   -103.868022   3089.634300
 0.980000   -87.410970   3285.668188
 0.985000   -71.011341   3217.694853
 0.990000   -55.234021   3111.514272
 0.995000   -39.896198   3005.421943
 1.000000   -25.179802   2881.136464
201 psinorm omepp() domepp/dpsiN
 0.000000   24.174221   -8.739088
 0.005000   24.121710   -12.265110
 0.010000   24.051570   -14.078887
 0.015000   23.980921   -14.179837
 0.020000   23.909771   -14.279619
 0.025000   23.838125   -14.378228
 0.030000   23.765989   -14.475658
 0.035000   23.693369   -14.571906
 0.040000   23.620270   -14.666966
 0.045000   23.546699   -14.760835
 0.050000   23.472662   -14.853507
 0.055000   23.398164   -14.944980
 0.060000   23.323212   -15.035248
 0.065000   23.247811   -15.124309
 0.070000   23.171969   -15.212159
 0.075000   23.095690   -15.298794
 0.080000   23.018981   -15.384211
 0.085000   22.941848   -15.468406
 0.090000   22.864297   -15.551378
 0.095000   22.786334   -15.633123
 0.100000   22.707966   -15.713638
 0.105000   22.629198   -15.792920
 0.110000   22.550036   -15.870969
 0.115000   22.470488   -15.947781
 0.120000   22.390559   -16.023354
 0.125000   22.310254   -16.097686
 0.130000   22.229582   -16.170776
 0.135000   22.148547   -16.242622
 0.140000   22.067155   -16.313222
 0.145000   21.985414   -16.382576
 0.150000   21.903330   -16.450683
 0.155000   21.820908   -16.517540
 0.160000   21.738154   -16.583148
 0.165000   21.655076   -16.647505
 0.170000   21.571679   -16.710612
 0.175000   21.487970   -16.772467
 0.180000   21.403955   -16.833071
 0.185000   21.319639   -16.892424
 0.190000   21.235030   -16.950525
 0.195000   21.150134   -17.007375
 0.200000   21.064957   -17.062974
 0.205000   20.979504   -17.117322
 0.210000   20.893783   -17.170421
 0.215000   20.807800   -17.222271
 0.220000   20.721561   -17.272873
 0.225000   20.635071   -17.322228
 0.230000   20.548338   -17.370338
 0.235000   20.461368   -17.417203
 0.240000   20.374166   -17.462825
 0.245000   20.286740   -17.507206
 0.250000   20.199094   -17.550348
 0.255000   20.111236   -17.592252
 0.260000   20.023172   -17.632921
 0.265000   19.934907   -17.672356
 0.270000   19.846448   -17.710560
 0.275000   19.757801   -17.747536
 0.280000   19.668973   -17.783287
 0.285000   19.579969   -17.817814
 0.290000   19.490795   -17.851120
 0.295000   19.401457   -17.883209
 0.300000   19.311963   -17.914084
 0.305000   19.222317   -17.943748
 0.310000   19.132525   -17.972205
 0.315000   19.042594   -17.999457
 0.320000   18.952531   -18.025509
 0.325000   18.862339   -18.050363
 0.330000   18.772027   -18.074025
 0.335000   18.681599   -18.096498
 0.340000   18.591062   -18.117786
 0.345000   18.500421   -18.137893
 0.350000   18.409683   -18.156823
 0.355000   18.318853   -18.174582
 0.360000   18.227937   -18.191173
 0.365000   18.136941   -18.206602
 0.370000   18.045871   -18.220873
 0.375000   17.954733   -18.233990
 0.380000   17.863531   -18.245960
 0.385000   17.772273   -18.256786
 0.390000   17.680963   -18.266475
 0.395000   17.589608   -18.275031
 0.400000   17.498213   -18.282460
 0.405000   17.406784   -18.288768
 0.410000   17.315325   -18.293960
 0.415000   17.223844   -18.298042
 0.420000   17.132345   -18.301019
 0.425000   17.040834   -18.302898
 0.430000   16.949316   -18.303684
 0.435000   16.857797   -18.303385
 0.440000   16.766282   -18.302005
 0.445000   16.674777   -18.299551
 0.450000   16.583287   -18.296030
 0.455000   16.491817   -18.291447
 0.460000   16.400372   -18.285811
 0.465000   16.308959   -18.279126
 0.470000   16.217581   -18.271401
 0.475000   16.126245   -18.262641
 0.480000   16.034955   -18.252854
 0.485000   15.943716   -18.242047
 0.490000   15.852534   -18.230227
 0.495000   15.761414   -18.217400
 0.500000   15.670360   -18.203574
 0.505000   15.579378   -18.188757
 0.510000   15.488472   -18.172956
 0.515000   15.397648   -18.156178
 0.520000   15.306911   -18.138431
 0.525000   15.216264   -18.119723
 0.530000   15.125713   -18.100061
 0.535000   15.035263   -18.079453
 0.540000   14.944919   -18.057907
 0.545000   14.854684   -18.035432
 0.550000   14.764565   -18.012035
 0.555000   14.674564   -17.987725
 0.560000   14.584687   -17.962510
 0.565000   14.494939   -17.936399
 0.570000   14.405323   -17.909401
 0.575000   14.315845   -17.881525
 0.580000   14.226508   -17.852780
 0.585000   14.137317   -17.823176
 0.590000   14.048276   -17.792722
 0.595000   13.959390   -17.761430
 0.600000   13.870662   -17.729310
 0.605000   13.782097   -17.696373
 0.610000   13.693698   -17.662631
 0.615000   13.605471   -17.628098
 0.620000   13.517417   -17.592787
 0.625000   13.429543   -17.556714
 0.630000   13.341850   -17.519894
 0.635000   13.254344   -17.482346
 0.640000   13.167027   -17.444089
 0.645000   13.079903   -17.405147
 0.650000   12.992975   -17.365544
 0.655000   12.906247   -17.325308
 0.660000   12.819722   -17.284472
 0.665000   12.733403   -17.243073
 0.670000   12.647291   -17.201153
 0.675000   12.561391   -17.158759
 0.680000   12.475704   -17.115949
 0.685000   12.390232   -17.072786
 0.690000   12.304976   -17.029344
 0.695000   12.219938   -16.985708
 0.700000   12.135119   -16.941974
 0.705000   12.050518   -16.898253
 0.710000   11.966136   -16.854670
 0.715000   11.881972   -16.811365
 0.720000   11.798023   -16.768493
 0.725000   11.714287   -16.726222
 0.730000   11.630761   -16.684734
 0.735000   11.547439   -16.644213
 0.740000   11.464318   -16.604843
 0.745000   11.381391   -16.566791
 0.750000   11.298650   -16.530183
 0.755000   11.216089   -16.495075
 0.760000   11.133700   -16.461407
 0.765000   11.051475   -16.428933
 0.770000   10.969410   -16.397126
 0.775000   10.887504   -16.365045
 0.780000   10.805760   -16.331149
 0.785000   10.724192   -16.293028
 0.790000   10.642830   -16.247044
 0.795000   10.561722   -16.187827
 0.800000   10.480951   -16.107575
 0.805000   10.400646   -15.995086
 0.810000   10.321001   -15.834429
 0.815000   10.242302   -15.603081
 0.820000   10.164970   -15.269362
 0.825000   10.089608   -14.788840
 0.830000   10.017081   -14.099319
 0.835000   9.948615   -13.113795
 0.840000   9.885943   -11.710528
 0.845000   9.831510   -9.718991
 0.850000   9.788753   -6.899883
 0.855000   9.762511   -2.916622
 0.860000   9.759587   2.705447
 0.865000   9.789565   10.637514
 0.870000   9.865962   21.831047
 0.875000   10.007876   37.637335
 0.880000   10.242336   59.976842
 0.885000   10.607644   91.575579
 0.890000   11.158092   136.286511
 0.895000   11.970509   199.506367
 0.900000   13.153155   288.668998
 0.905000   14.857199   413.716903
 0.910000   17.290324   587.268415
 0.915000   20.729884   823.820335
 0.920000   25.528528   1136.660722
 0.925000   32.096491   1530.280801
 0.930000   40.831336   1985.697974
 0.935000   51.953471   2438.521161
 0.940000   65.216547   2758.738422
 0.945000   79.540855   2757.700557
 0.950000   92.793553   2255.713454
 0.955000   102.097989   1207.740155
 0.960000   104.870954   -198.391316
 0.965000   100.114076   -1589.709553
 0.970000   88.973859   -2601.393285
 0.975000   74.100143   -3057.872012
 0.980000   58.395139   -3005.351594
 0.985000   44.046627   -2619.674863
 0.990000   32.198390   -2094.446404
 0.995000   23.102163   -1573.375832
 1.000000   16.464632   -1081.636806
201 psinorm kpol(km/s/T) dkpol/dpsiN
 0.000000   -0.027001   113.148240
 0.005000   0.422252   66.553037
 0.010000   0.638530   40.996137
 0.015000   0.832214   38.388261
 0.020000   1.022412   37.634867
 0.025000   1.208562   37.301174
 0.030000   1.395424   36.966254
 0.035000   1.578225   36.517551
 0.040000   1.760599   36.234232
 0.045000   1.940567   35.647485
 0.050000   2.117074   35.029755
 0.055000   2.290865   34.440617
 0.060000   2.461480   33.605625
 0.065000   2.626921   32.806177
 0.070000   2.789542   32.180934
 0.075000   2.948730   31.537878
 0.080000   3.104921   30.837052
 0.085000   3.257101   30.055983
 0.090000   3.405481   29.019056
 0.095000   3.547292   28.191011
 0.100000   3.687391   27.663668
 0.105000   3.823928   27.163265
 0.110000   3.959024   27.032329
 0.115000   4.094252   26.881273
 0.120000   4.227836   26.707041
 0.125000   4.361322   26.700611
 0.130000   4.494842   26.563143
 0.135000   4.626953   26.240059
 0.140000   4.757243   25.821811
 0.145000   4.885171   25.133659
 0.150000   5.008580   23.942143
 0.155000   5.124593   22.532226
 0.160000   5.233902   21.054933
 0.165000   5.335142   19.106332
 0.170000   5.424965   17.069230
 0.175000   5.505835   14.785434
 0.180000   5.572820   12.248358
 0.185000   5.628318   9.966345
 0.190000   5.672483   7.832943
 0.195000   5.706648   6.008625
 0.200000   5.732569   4.200359
 0.205000   5.748651   2.495874
 0.210000   5.757528   1.389550
 0.215000   5.762547   0.413406
 0.220000   5.761662   -0.564255
 0.225000   5.756904   -1.552683
 0.230000   5.746135   -2.796700
 0.235000   5.728937   -3.929123
 0.240000   5.706844   -5.222816
 0.245000   5.676709   -6.705663
 0.250000   5.639787   -8.238151
 0.255000   5.594327   -9.941706
 0.260000   5.540370   -11.518087
 0.265000   5.479147   -13.212682
 0.270000   5.408243   -15.115405
 0.275000   5.327992   -17.055530
 0.280000   5.237688   -19.071272
 0.285000   5.137280   -21.323104
 0.290000   5.024457   -23.740062
 0.295000   4.899879   -26.414600
 0.300000   4.760311   -29.345807
 0.305000   4.606421   -32.230078
 0.310000   4.438010   -35.320918
 0.315000   4.253212   -38.534630
 0.320000   4.052664   -41.688577
 0.325000   3.836326   -44.673319
 0.330000   3.605931   -47.200077
 0.335000   3.364325   -49.191040
 0.340000   3.114020   -50.724207
 0.345000   2.857083   -51.977701
 0.350000   2.594243   -52.524217
 0.355000   2.331841   -53.067484
 0.360000   2.063569   -54.104653
 0.365000   1.790795   -55.286570
 0.370000   1.510703   -57.043880
 0.375000   1.220356   -59.328815
 0.380000   0.917415   -62.365165
 0.385000   0.596704   -65.787932
 0.390000   0.259535   -69.120108
 0.395000   -0.094497   -72.427562
 0.400000   -0.464740   -75.260020
 0.405000   -0.847097   -78.258035
 0.410000   -1.247321   -82.175281
 0.415000   -1.668850   -87.265073
 0.420000   -2.119971   -93.511839
 0.425000   -2.603968   -100.496917
 0.430000   -3.124940   -108.115882
 0.435000   -3.685127   -116.298596
 0.440000   -4.287926   -124.905578
 0.445000   -4.934183   -132.525667
 0.450000   -5.613183   -138.269289
 0.455000   -6.316876   -142.237320
 0.460000   -7.035556   -144.066719
 0.465000   -7.757543   -143.282736
 0.470000   -8.468384   -138.824054
 0.475000   -9.145784   -130.956242
 0.480000   -9.777946   -121.029787
 0.485000   -10.356081   -109.745491
 0.490000   -10.875401   -97.586711
 0.495000   -11.331949   -84.725492
 0.500000   -11.722656   -72.448500
 0.505000   -12.056434   -62.315794
 0.510000   -12.345814   -54.310766
 0.515000   -12.599541   -48.188855
 0.520000   -12.827702   -43.720046
 0.525000   -13.036742   -40.531722
 0.530000   -13.233020   -38.287383
 0.535000   -13.419616   -36.393178
 0.540000   -13.596951   -34.384745
 0.545000   -13.763463   -32.267998
 0.550000   -13.919631   -30.110791
 0.555000   -14.064571   -27.815120
 0.560000   -14.197783   -25.198700
 0.565000   -14.316558   -22.154335
 0.570000   -14.419326   -18.970887
 0.575000   -14.506267   -15.494001
 0.580000   -14.574266   -11.596858
 0.585000   -14.622235   -7.779756
 0.590000   -14.652063   -4.029969
 0.595000   -14.662535   -0.229099
 0.600000   -14.654354   3.342260
 0.605000   -14.629112   6.614298
 0.610000   -14.588211   9.570799
 0.615000   -14.533404   12.314214
 0.620000   -14.465069   14.708706
 0.625000   -14.386317   16.671687
 0.630000   -14.298352   18.626066
 0.635000   -14.200057   20.611795
 0.640000   -14.092234   22.269250
 0.645000   -13.977364   23.835930
 0.650000   -13.853875   25.604104
 0.655000   -13.721323   27.145338
 0.660000   -13.582422   28.477670
 0.665000   -13.436546   29.853710
 0.670000   -13.283885   31.131728
 0.675000   -13.125229   32.476296
 0.680000   -12.959122   34.113871
 0.685000   -12.784090   36.332103
 0.690000   -12.595801   39.068687
 0.695000   -12.393404   41.871630
 0.700000   -12.177084   44.995330
 0.705000   -11.943450   48.324005
 0.710000   -11.693844   51.025745
 0.715000   -11.433193   52.917616
 0.720000   -11.164668   53.787327
 0.725000   -10.895320   53.520225
 0.730000   -10.629466   52.077143
 0.735000   -10.374548   49.156565
 0.740000   -10.137900   45.026213
 0.745000   -9.924286   39.939275
 0.750000   -9.738508   34.390246
 0.755000   -9.580384   28.679849
 0.760000   -9.451709   22.831486
 0.765000   -9.352069   17.449604
 0.770000   -9.277213   12.754455
 0.775000   -9.224524   8.692188
 0.780000   -9.190291   4.986000
 0.785000   -9.174664   1.317571
 0.790000   -9.177115   -2.805153
 0.795000   -9.202716   -8.143537
 0.800000   -9.258551   -14.969381
 0.805000   -9.352409   -23.505961
 0.810000   -9.493610   -33.673594
 0.815000   -9.689145   -45.376612
 0.820000   -9.947377   -58.518832
 0.825000   -10.274334   -71.903280
 0.830000   -10.666409   -84.162319
 0.835000   -11.115957   -94.838524
 0.840000   -11.614795   -103.123670
 0.845000   -12.147194   -108.067235
 0.850000   -12.695467   -108.978033
 0.855000   -13.236974   -106.417716
 0.860000   -13.759644   -101.659823
 0.865000   -14.253572   -95.438187
 0.870000   -14.714026   -88.443859
 0.875000   -15.138011   -81.252394
 0.880000   -15.526550   -74.894685
 0.885000   -15.886958   -70.456446
 0.890000   -16.231114   -67.792603
 0.895000   -16.564884   -66.420522
 0.900000   -16.895320   -65.915661
 0.905000   -17.224040   -65.511782
 0.910000   -17.550437   -64.603713
 0.915000   -17.870077   -60.520994
 0.920000   -18.155647   -48.327631
 0.925000   -18.353354   -24.246647
 0.930000   -18.398114   10.146363
 0.935000   -18.251890   57.526887
 0.940000   -17.822845   126.777810
 0.945000   -16.984112   217.402047
 0.950000   -15.648824   316.900578
 0.955000   -13.815106   403.897892
 0.960000   -11.609846   443.664507
 0.965000   -9.378461   398.941192
 0.970000   -7.620434   248.166877
 0.975000   -6.896792   39.636877
 0.980000   -7.224065   -78.237351
 0.985000   -7.679166   68.827859
 0.990000   -6.535786   547.097950
 0.995000   -2.208186   1182.267850
 1.000000   5.286892   1815.763596
201 psinorm omghb() domghb/dpsiN
 0.000000   -0.000059   0.055531
 0.005000   0.000164   0.033698
 0.010000   0.000278   0.041468
 0.015000   0.000579   0.065702
 0.020000   0.000935   0.074931
 0.025000   0.001328   0.074641
 0.030000   0.001682   0.077079
 0.035000   0.002099   0.089182
 0.040000   0.002573   0.102781
 0.045000   0.003127   0.103906
 0.050000   0.003612   0.101089
 0.055000   0.004138   0.106412
 0.060000   0.004677   0.101038
 0.065000   0.005148   0.105157
 0.070000   0.005728   0.118110
 0.075000   0.006329   0.122356
 0.080000   0.006952   0.120332
 0.085000   0.007533   0.118357
 0.090000   0.008135   0.133518
 0.095000   0.008868   0.129446
 0.100000   0.009430   0.103170
 0.105000   0.009899   0.096740
 0.110000   0.010397   0.102131
 0.115000   0.010921   0.094528
 0.120000   0.011342   0.086051
 0.125000   0.011781   0.078255
 0.130000   0.012125   0.078042
 0.135000   0.012562   0.061386
 0.140000   0.012739   0.071160
 0.145000   0.013273   0.115264
 0.150000   0.013891   0.118854
 0.155000   0.014462   0.127931
 0.160000   0.015171   0.151536
 0.165000   0.015977   0.190316
 0.170000   0.017074   0.186519
 0.175000   0.017842   0.199103
 0.180000   0.019065   0.225529
 0.185000   0.020098   0.205988
 0.190000   0.021125   0.229058
 0.195000   0.022388   0.272317
 0.200000   0.023848   0.274466
 0.205000   0.025133   0.230974
 0.210000   0.026158   0.226278
 0.215000   0.027396   0.267341
 0.220000   0.028831   0.301969
 0.225000   0.030415   0.214135
 0.230000   0.030973   0.130707
 0.235000   0.031722   0.128473
 0.240000   0.032257   0.080112
 0.245000   0.032524   0.018028
 0.250000   0.032438   0.051989
 0.255000   0.033043   -0.061223
 0.260000   0.031825   -0.168281
 0.265000   0.031361   -0.072956
 0.270000   0.031096   -0.041688
 0.275000   0.030944   -0.023794
 0.280000   0.030858   0.005434
 0.285000   0.030998   0.028164
 0.290000   0.031139   0.076011
 0.295000   0.031758   0.186881
 0.300000   0.033008   0.297970
 0.305000   0.034738   0.429793
 0.310000   0.037306   0.477642
 0.315000   0.039514   0.673158
 0.320000   0.044038   0.812361
 0.325000   0.047638   0.732761
 0.330000   0.051365   0.697400
 0.335000   0.054612   0.596836
 0.340000   0.057334   0.545736
 0.345000   0.060069   0.500443
 0.350000   0.062338   0.408077
 0.355000   0.064150   0.378267
 0.360000   0.066121   0.355821
 0.365000   0.067708   0.359872
 0.370000   0.069720   0.422589
 0.375000   0.071934   0.338703
 0.380000   0.073107   0.326142
 0.385000   0.075196   0.442875
 0.390000   0.077535   0.482256
 0.395000   0.080018   0.486944
 0.400000   0.082405   0.422251
 0.405000   0.084241   0.583283
 0.410000   0.088238   0.989551
 0.415000   0.094136   1.306531
 0.420000   0.101303   1.677654
 0.425000   0.110913   2.063416
 0.430000   0.121937   2.185725
 0.435000   0.132770   2.278761
 0.440000   0.144725   2.328080
 0.445000   0.156051   2.226753
 0.450000   0.166992   2.174937
 0.455000   0.177800   1.816750
 0.460000   0.185160   1.219550
 0.465000   0.189996   0.744201
 0.470000   0.192602   0.201788
 0.475000   0.192013   -0.366394
 0.480000   0.188938   -0.976278
 0.485000   0.182251   -1.442389
 0.490000   0.174514   -1.590895
 0.495000   0.166342   -1.611562
 0.500000   0.158398   -1.547562
 0.505000   0.150866   -1.391729
 0.510000   0.144481   -1.166520
 0.515000   0.139201   -0.775429
 0.520000   0.136727   -0.464491
 0.525000   0.134556   -0.393996
 0.530000   0.132787   -0.341185
 0.535000   0.131144   -0.356183
 0.540000   0.129225   -0.377558
 0.545000   0.127369   -0.418888
 0.550000   0.125036   -0.453011
 0.555000   0.122838   -0.491993
 0.560000   0.120116   -0.546533
 0.565000   0.117373   -0.565253
 0.570000   0.114464   -0.604228
 0.575000   0.111331   -0.644758
 0.580000   0.108016   -0.661061
 0.585000   0.104720   -0.659784
 0.590000   0.101418   -0.687166
 0.595000   0.097849   -0.658125
 0.600000   0.094837   -0.625400
 0.605000   0.091595   -0.620880
 0.610000   0.088628   -0.572648
 0.615000   0.085868   -0.533286
 0.620000   0.083295   -0.439773
 0.625000   0.081470   -0.377233
 0.630000   0.079523   -0.399552
 0.635000   0.077475   -0.388971
 0.640000   0.075633   -0.356154
 0.645000   0.073913   -0.286604
 0.650000   0.072767   -0.195313
 0.655000   0.071960   -0.106636
 0.660000   0.071701   0.012181
 0.665000   0.072082   0.217484
 0.670000   0.073876   0.545854
 0.675000   0.077541   1.236149
 0.680000   0.086237   1.364426
 0.685000   0.091185   0.691325
 0.690000   0.093150   0.373990
 0.695000   0.094925   0.203727
 0.700000   0.095188   -0.089639
 0.705000   0.094028   0.060858
 0.710000   0.095796   -0.513532
 0.715000   0.088893   -1.488967
 0.720000   0.080907   -1.286603
 0.725000   0.076027   -0.996173
 0.730000   0.070945   -0.958104
 0.735000   0.066446   -0.948922
 0.740000   0.061456   -1.140937
 0.745000   0.055037   -0.887163
 0.750000   0.052584   -0.321607
 0.755000   0.051821   0.158970
 0.760000   0.054174   0.686826
 0.765000   0.058689   0.934079
 0.770000   0.063514   1.368325
 0.775000   0.072372   2.373061
 0.780000   0.087245   2.764903
 0.785000   0.100021   2.794078
 0.790000   0.115186   2.981561
 0.795000   0.129837   2.942518
 0.800000   0.144611   3.157804
 0.805000   0.161415   3.388125
 0.810000   0.178492   3.101541
 0.815000   0.192430   2.783120
 0.820000   0.206324   2.647726
 0.825000   0.218907   2.331645
 0.830000   0.229640   1.992428
 0.835000   0.238832   1.222323
 0.840000   0.241863   0.320687
 0.845000   0.242039   -0.258715
 0.850000   0.239276   -0.788563
 0.855000   0.234153   -1.031663
 0.860000   0.228959   -0.912998
 0.865000   0.225023   -0.724941
 0.870000   0.221710   -0.001965
 0.875000   0.225003   1.420108
 0.880000   0.235911   3.114991
 0.885000   0.256153   5.175006
 0.890000   0.287661   8.796221
 0.895000   0.344115   12.110754
 0.900000   0.408769   15.378399
 0.905000   0.497899   20.280991
 0.910000   0.611579   24.878792
 0.915000   0.746687   28.592891
 0.920000   0.897508   33.513347
 0.925000   1.081821   33.556840
 0.930000   1.233076   30.258609
 0.935000   1.384407   26.520297
 0.940000   1.498279   15.188262
 0.945000   1.536289   -1.544195
 0.950000   1.482837   -15.643494
 0.955000   1.379855   -43.955398
 0.960000   1.043283   -70.853759
 0.965000   0.671317   -74.393697
 0.970000   0.299346   -73.234839
 0.975000   -0.061031   -78.610646
 0.980000   -0.486760   -103.757908
 0.985000   -1.098611   -147.659693
 0.990000   -1.963357   -170.631631
 0.995000   -2.804927   -127.634633
 1.000000   -3.239704   -46.276124
201 psinorm nz1(10^20/m^3) dnz1/dpsiN
 0.000000   0.020118   0.000001
 0.005000   0.020117   -0.000441
 0.010000   0.020114   -0.000886
 0.015000   0.020108   -0.001334
 0.020000   0.020100   -0.001786
 0.025000   0.020090   -0.002238
 0.030000   0.020078   -0.002691
 0.035000   0.020063   -0.003141
 0.040000   0.020047   -0.003586
 0.045000   0.020027   -0.004026
 0.050000   0.020006   -0.004459
 0.055000   0.019983   -0.004884
 0.060000   0.019957   -0.005299
 0.065000   0.019930   -0.005704
 0.070000   0.019900   -0.006097
 0.075000   0.019869   -0.006478
 0.080000   0.019836   -0.006848
 0.085000   0.019800   -0.007207
 0.090000   0.019764   -0.007555
 0.095000   0.019725   -0.007892
 0.100000   0.019685   -0.008220
 0.105000   0.019643   -0.008538
 0.110000   0.019599   -0.008846
 0.115000   0.019554   -0.009141
 0.120000   0.019508   -0.009423
 0.125000   0.019460   -0.009691
 0.130000   0.019411   -0.009945
 0.135000   0.019361   -0.010184
 0.140000   0.019309   -0.010406
 0.145000   0.019256   -0.010609
 0.150000   0.019203   -0.010793
 0.155000   0.019149   -0.010957
 0.160000   0.019093   -0.011101
 0.165000   0.019038   -0.011222
 0.170000   0.018981   -0.011320
 0.175000   0.018924   -0.011395
 0.180000   0.018867   -0.011448
 0.185000   0.018810   -0.011477
 0.190000   0.018752   -0.011483
 0.195000   0.018695   -0.011464
 0.200000   0.018638   -0.011424
 0.205000   0.018581   -0.011368
 0.210000   0.018524   -0.011296
 0.215000   0.018468   -0.011214
 0.220000   0.018412   -0.011128
 0.225000   0.018357   -0.011044
 0.230000   0.018302   -0.010960
 0.235000   0.018247   -0.010865
 0.240000   0.018193   -0.010760
 0.245000   0.018139   -0.010642
 0.250000   0.018086   -0.010509
 0.255000   0.018034   -0.010362
 0.260000   0.017983   -0.010189
 0.265000   0.017932   -0.009983
 0.270000   0.017883   -0.009747
 0.275000   0.017835   -0.009483
 0.280000   0.017788   -0.009187
 0.285000   0.017743   -0.008859
 0.290000   0.017700   -0.008498
 0.295000   0.017658   -0.008110
 0.300000   0.017619   -0.007700
 0.305000   0.017581   -0.007271
 0.310000   0.017546   -0.006829
 0.315000   0.017513   -0.006372
 0.320000   0.017482   -0.005912
 0.325000   0.017454   -0.005464
 0.330000   0.017427   -0.005024
 0.335000   0.017403   -0.004594
 0.340000   0.017382   -0.004172
 0.345000   0.017362   -0.003759
 0.350000   0.017344   -0.003352
 0.355000   0.017328   -0.002943
 0.360000   0.017314   -0.002528
 0.365000   0.017303   -0.002106
 0.370000   0.017293   -0.001678
 0.375000   0.017286   -0.001245
 0.380000   0.017281   -0.000810
 0.385000   0.017278   -0.000376
 0.390000   0.017277   0.000051
 0.395000   0.017279   0.000468
 0.400000   0.017282   0.000869
 0.405000   0.017287   0.001250
 0.410000   0.017294   0.001606
 0.415000   0.017303   0.001936
 0.420000   0.017314   0.002238
 0.425000   0.017326   0.002511
 0.430000   0.017339   0.002754
 0.435000   0.017353   0.002968
 0.440000   0.017369   0.003160
 0.445000   0.017385   0.003335
 0.450000   0.017402   0.003494
 0.455000   0.017420   0.003638
 0.460000   0.017438   0.003765
 0.465000   0.017457   0.003875
 0.470000   0.017477   0.003965
 0.475000   0.017497   0.004021
 0.480000   0.017517   0.004038
 0.485000   0.017537   0.004013
 0.490000   0.017557   0.003944
 0.495000   0.017577   0.003827
 0.500000   0.017596   0.003659
 0.505000   0.017613   0.003438
 0.510000   0.017630   0.003168
 0.515000   0.017645   0.002851
 0.520000   0.017659   0.002490
 0.525000   0.017670   0.002091
 0.530000   0.017679   0.001656
 0.535000   0.017687   0.001194
 0.540000   0.017691   0.000708
 0.545000   0.017694   0.000200
 0.550000   0.017693   -0.000329
 0.555000   0.017690   -0.000877
 0.560000   0.017685   -0.001444
 0.565000   0.017676   -0.002034
 0.570000   0.017664   -0.002648
 0.575000   0.017649   -0.003288
 0.580000   0.017631   -0.003952
 0.585000   0.017610   -0.004636
 0.590000   0.017585   -0.005336
 0.595000   0.017557   -0.006047
 0.600000   0.017525   -0.006765
 0.605000   0.017489   -0.007485
 0.610000   0.017450   -0.008207
 0.615000   0.017407   -0.008928
 0.620000   0.017360   -0.009650
 0.625000   0.017310   -0.010376
 0.630000   0.017257   -0.011107
 0.635000   0.017199   -0.011840
 0.640000   0.017138   -0.012574
 0.645000   0.017074   -0.013307
 0.650000   0.017005   -0.014043
 0.655000   0.016933   -0.014776
 0.660000   0.016857   -0.015491
 0.665000   0.016778   -0.016196
 0.670000   0.016695   -0.016916
 0.675000   0.016609   -0.017696
 0.680000   0.016519   -0.018667
 0.685000   0.016422   -0.019892
 0.690000   0.016320   -0.021297
 0.695000   0.016209   -0.022847
 0.700000   0.016091   -0.024521
 0.705000   0.015964   -0.026273
 0.710000   0.015828   -0.028132
 0.715000   0.015683   -0.029958
 0.720000   0.015529   -0.031513
 0.725000   0.015368   -0.032778
 0.730000   0.015201   -0.033750
 0.735000   0.015030   -0.034376
 0.740000   0.014857   -0.034612
 0.745000   0.014684   -0.034374
 0.750000   0.014514   -0.033641
 0.755000   0.014348   -0.032494
 0.760000   0.014189   -0.030998
 0.765000   0.014038   -0.029215
 0.770000   0.013896   -0.027174
 0.775000   0.013766   -0.024956
 0.780000   0.013647   -0.022789
 0.785000   0.013538   -0.020770
 0.790000   0.013439   -0.018878
 0.795000   0.013349   -0.017139
 0.800000   0.013268   -0.015556
 0.805000   0.013194   -0.014153
 0.810000   0.013126   -0.012946
 0.815000   0.013064   -0.011861
 0.820000   0.013008   -0.010815
 0.825000   0.012956   -0.009782
 0.830000   0.012910   -0.008756
 0.835000   0.012869   -0.007746
 0.840000   0.012832   -0.006774
 0.845000   0.012801   -0.005855
 0.850000   0.012774   -0.004986
 0.855000   0.012751   -0.004171
 0.860000   0.012732   -0.003413
 0.865000   0.012717   -0.002713
 0.870000   0.012705   -0.002079
 0.875000   0.012696   -0.001512
 0.880000   0.012690   -0.001014
 0.885000   0.012686   -0.000582
 0.890000   0.012684   -0.000220
 0.895000   0.012684   0.000060
 0.900000   0.012685   0.000229
 0.905000   0.012686   0.000207
 0.910000   0.012687   -0.000156
 0.915000   0.012684   -0.001136
 0.920000   0.012675   -0.003205
 0.925000   0.012652   -0.007318
 0.930000   0.012602   -0.014750
 0.935000   0.012505   -0.027058
 0.940000   0.012332   -0.046134
 0.945000   0.012044   -0.073502
 0.950000   0.011597   -0.109339
 0.955000   0.010950   -0.152598
 0.960000   0.010071   -0.196585
 0.965000   0.008984   -0.230742
 0.970000   0.007763   -0.247234
 0.975000   0.006512   -0.242340
 0.980000   0.005340   -0.218555
 0.985000   0.004326   -0.183299
 0.990000   0.003507   -0.144956
 0.995000   0.002877   -0.110170
 1.000000   0.002405   -0.078551
201 psinorm vtor1(km/s) dvtor1/dpsiN
 0.000000   127.904502   621.205250
 0.005000   130.313934   342.567625
 0.010000   131.330178   178.808717
 0.015000   132.102021   140.967514
 0.020000   132.739853   118.890794
 0.025000   133.290929   104.482937
 0.030000   133.784682   94.167791
 0.035000   134.232607   85.333299
 0.040000   134.638015   77.774390
 0.045000   135.010351   71.624076
 0.050000   135.354256   66.107869
 0.055000   135.671429   60.895204
 0.060000   135.963208   56.194704
 0.065000   136.233376   52.002542
 0.070000   136.483234   48.015402
 0.075000   136.713530   44.251489
 0.080000   136.925748   40.792757
 0.085000   137.121458   37.501092
 0.090000   137.300759   34.242285
 0.095000   137.463881   31.113325
 0.100000   137.611893   28.167000
 0.105000   137.745551   25.226972
 0.110000   137.864162   22.273101
 0.115000   137.968282   19.383331
 0.120000   138.057996   16.519661
 0.125000   138.133479   13.565550
 0.130000   138.193651   10.537997
 0.135000   138.238858   7.547106
 0.140000   138.269122   4.498037
 0.145000   138.283839   1.327705
 0.150000   138.282399   -1.894140
 0.155000   138.264897   -5.129544
 0.160000   138.231104   -8.464997
 0.165000   138.180247   -11.852023
 0.170000   138.112584   -15.204294
 0.175000   138.028205   -18.568497
 0.180000   137.926899   -21.967058
 0.185000   137.808534   -25.331327
 0.190000   137.673585   -28.616967
 0.195000   137.522364   -31.800503
 0.200000   137.355580   -34.793097
 0.205000   137.174433   -37.530869
 0.210000   136.980272   -39.999088
 0.215000   136.774442   -42.203480
 0.220000   136.558237   -44.047013
 0.225000   136.333972   -45.402359
 0.230000   136.104213   -46.497900
 0.235000   135.868993   -47.466184
 0.240000   135.629551   -48.184314
 0.245000   135.387150   -48.667708
 0.250000   135.142874   -48.917303
 0.255000   134.897977   -48.812718
 0.260000   134.654747   -48.668848
 0.265000   134.411289   -48.760030
 0.270000   134.167147   -48.969678
 0.275000   133.921592   -49.345553
 0.280000   133.673691   -49.951373
 0.285000   133.422078   -50.939687
 0.290000   133.164294   -52.358623
 0.295000   132.898492   -54.031231
 0.300000   132.623982   -55.818084
 0.305000   132.340311   -57.678323
 0.310000   132.047199   -59.572928
 0.315000   131.744582   -61.589508
 0.320000   131.431304   -63.648757
 0.325000   131.108094   -65.604263
 0.330000   130.775261   -67.500243
 0.335000   130.433092   -69.332770
 0.340000   130.081934   -71.092460
 0.345000   129.722167   -72.784301
 0.350000   129.354091   -74.292425
 0.355000   128.979243   -75.553423
 0.360000   128.598556   -76.623000
 0.365000   128.213013   -77.492152
 0.370000   127.823635   -78.146542
 0.375000   127.431548   -78.516646
 0.380000   127.038468   -78.595400
 0.385000   126.645594   -78.470188
 0.390000   126.253766   -78.162611
 0.395000   125.863967   -77.666592
 0.400000   125.477100   -77.001441
 0.405000   125.093953   -76.111591
 0.410000   124.715985   -75.209217
 0.415000   124.341861   -74.776952
 0.420000   123.968215   -75.107003
 0.425000   123.590791   -76.350838
 0.430000   123.204707   -78.578907
 0.435000   122.805002   -82.083805
 0.440000   122.383869   -86.852484
 0.445000   121.936477   -92.179145
 0.450000   121.462077   -97.784822
 0.455000   120.958629   -103.735954
 0.460000   120.424718   -109.888224
 0.465000   119.859746   -116.414039
 0.470000   119.260577   -123.109189
 0.475000   118.628655   -128.956155
 0.480000   117.971016   -133.709712
 0.485000   117.291557   -137.602892
 0.490000   116.594987   -140.485676
 0.495000   115.886701   -142.272496
 0.500000   115.172262   -142.791408
 0.505000   114.458787   -142.080085
 0.510000   113.751461   -140.628546
 0.515000   113.052501   -138.798725
 0.520000   112.363474   -136.698285
 0.525000   111.685518   -134.363866
 0.530000   111.019835   -131.794310
 0.535000   110.367575   -129.096122
 0.540000   109.728874   -126.353555
 0.545000   109.104040   -123.583297
 0.550000   108.493041   -120.846348
 0.555000   107.895576   -118.176528
 0.560000   107.311276   -115.593570
 0.565000   106.739640   -113.208547
 0.570000   106.179190   -111.086936
 0.575000   105.628771   -109.214344
 0.580000   105.087047   -107.623309
 0.585000   104.552538   -106.336785
 0.590000   104.023679   -105.368541
 0.595000   103.498853   -104.583109
 0.600000   102.977848   -103.833768
 0.605000   102.460515   -103.127653
 0.610000   101.946571   -102.475801
 0.615000   101.435757   -101.889258
 0.620000   100.927679   -101.221080
 0.625000   100.423546   -100.611007
 0.630000   99.921569   -100.272677
 0.635000   99.420819   -100.120919
 0.640000   98.920359   -100.161591
 0.645000   98.419203   -100.413637
 0.650000   97.916223   -100.766203
 0.655000   97.411541   -101.493335
 0.660000   96.901290   -102.922780
 0.665000   96.382314   -104.969501
 0.670000   95.851595   -107.653250
 0.675000   95.305781   -111.021876
 0.680000   94.741376   -115.168100
 0.685000   94.154100   -119.745226
 0.690000   93.543924   -124.120963
 0.695000   92.912890   -128.069883
 0.700000   92.263225   -131.570992
 0.705000   91.597181   -134.655438
 0.710000   90.916670   -137.365490
 0.715000   90.223526   -139.932479
 0.720000   89.517346   -142.600717
 0.725000   88.797518   -145.348920
 0.730000   88.063856   -148.138683
 0.735000   87.316132   -150.982706
 0.740000   86.554029   -153.907509
 0.745000   85.777057   -157.021517
 0.750000   84.983814   -160.539007
 0.755000   84.171666   -164.793730
 0.760000   83.335877   -170.164059
 0.765000   82.470026   -176.903275
 0.770000   81.566844   -185.505997
 0.775000   80.614966   -195.902041
 0.780000   79.607824   -206.321512
 0.785000   78.551751   -215.768213
 0.790000   77.450142   -224.328579
 0.795000   76.308465   -231.599230
 0.800000   75.134149   -237.448833
 0.805000   73.933977   -241.567997
 0.810000   72.718469   -242.955894
 0.815000   71.504418   -241.752820
 0.820000   70.300941   -238.834906
 0.825000   69.116069   -234.380524
 0.830000   67.957136   -228.593949
 0.835000   66.830129   -221.661138
 0.840000   65.740525   -213.036233
 0.845000   64.699767   -202.848086
 0.850000   63.712044   -192.294713
 0.855000   62.776820   -182.355049
 0.860000   61.888493   -174.179656
 0.865000   61.035023   -169.569268
 0.870000   60.192801   -168.843972
 0.875000   59.346583   -172.333466
 0.880000   58.469466   -182.216725
 0.885000   57.524416   -200.835637
 0.890000   56.461109   -231.102498
 0.895000   55.213391   -277.867068
 0.900000   53.682439   -342.577966
 0.905000   51.787612   -425.218555
 0.910000   49.430253   -526.740050
 0.915000   46.520211   -643.791635
 0.920000   42.992337   -769.529074
 0.925000   38.824920   -895.065746
 0.930000   34.041679   -1003.392936
 0.935000   28.790991   -1075.837267
 0.940000   23.283307   -1100.112905
 0.945000   17.789862   -1067.358381
 0.950000   12.609723   -976.452520
 0.955000   8.025337   -832.512994
 0.960000   4.284593   -653.423425
 0.965000   1.491102   -463.235418
 0.970000   -0.347761   -279.583253
 0.975000   -1.304730   -116.494211
 0.980000   -1.512703   16.830886
 0.985000   -1.136421   115.604051
 0.990000   -0.356663   180.713225
 0.995000   0.670711   217.581568
 1.000000   1.819153   241.795188
201 psinorm vpol1(km/s) dvpol1/dpsiN
 0.000000   -0.000188   3.712500
 0.005000   0.019719   4.250000
 0.010000   0.042313   4.787500
 0.015000   0.067594   5.343750
 0.020000   0.095750   5.865625
 0.025000   0.126250   6.365625
 0.030000   0.159406   6.818750
 0.035000   0.194438   7.200000
 0.040000   0.231406   7.556250
 0.045000   0.270000   7.850000
 0.050000   0.309906   8.103125
 0.055000   0.351031   8.321875
 0.060000   0.393125   8.478125
 0.065000   0.435812   8.612500
 0.070000   0.479250   8.743750
 0.075000   0.523250   8.856250
 0.080000   0.567813   8.934375
 0.085000   0.612594   8.981250
 0.090000   0.657625   8.953125
 0.095000   0.702125   8.943750
 0.100000   0.747062   8.987500
 0.105000   0.792000   9.015625
 0.110000   0.837219   9.112500
 0.115000   0.883125   9.196875
 0.120000   0.929188   9.275000
 0.125000   0.975875   9.378125
 0.130000   1.022969   9.443750
 0.135000   1.070312   9.468750
 0.140000   1.117656   9.459375
 0.145000   1.164906   9.378125
 0.150000   1.211437   9.156250
 0.155000   1.256469   8.881250
 0.160000   1.300250   8.556250
 0.165000   1.342031   8.106250
 0.170000   1.381312   7.609375
 0.175000   1.418125   7.021875
 0.180000   1.451531   6.365625
 0.185000   1.481781   5.734375
 0.190000   1.508875   5.153125
 0.195000   1.533313   4.609375
 0.200000   1.554969   4.059375
 0.205000   1.573906   3.550000
 0.210000   1.590469   3.168750
 0.215000   1.605594   2.846875
 0.220000   1.618938   2.490625
 0.225000   1.630500   2.125000
 0.230000   1.640188   1.718750
 0.235000   1.647687   1.300000
 0.240000   1.653188   0.846875
 0.245000   1.656156   0.340625
 0.250000   1.656594   -0.212500
 0.255000   1.654031   -0.790625
 0.260000   1.648688   -1.356250
 0.265000   1.640469   -1.975000
 0.270000   1.628937   -2.621875
 0.275000   1.614250   -3.325000
 0.280000   1.595687   -4.059375
 0.285000   1.573656   -4.831250
 0.290000   1.547375   -5.703125
 0.295000   1.516625   -6.659375
 0.300000   1.480781   -7.668750
 0.305000   1.439938   -8.709375
 0.310000   1.393687   -9.818750
 0.315000   1.341750   -10.946875
 0.320000   1.284219   -12.096875
 0.325000   1.220781   -13.196875
 0.330000   1.152250   -14.131250
 0.335000   1.079469   -14.925000
 0.340000   1.003000   -15.571875
 0.345000   0.923750   -16.106250
 0.350000   0.841938   -16.431250
 0.355000   0.759437   -16.753125
 0.360000   0.674406   -17.215625
 0.365000   0.587281   -17.737500
 0.370000   0.497031   -18.450000
 0.375000   0.402781   -19.328125
 0.380000   0.303750   -20.462500
 0.385000   0.198156   -21.731250
 0.390000   0.086438   -22.971875
 0.395000   -0.031563   -24.209375
 0.400000   -0.155656   -25.290625
 0.405000   -0.284469   -26.431250
 0.410000   -0.419969   -27.887500
 0.415000   -0.563344   -29.737500
 0.420000   -0.717344   -31.987500
 0.425000   -0.883219   -34.509375
 0.430000   -1.062437   -37.243750
 0.435000   -1.255656   -40.178125
 0.440000   -1.464219   -43.287500
 0.445000   -1.688531   -46.062500
 0.450000   -1.924844   -48.187500
 0.455000   -2.170406   -49.721875
 0.460000   -2.422063   -50.534375
 0.465000   -2.675750   -50.406250
 0.470000   -2.926125   -49.003125
 0.475000   -3.165781   -46.443750
 0.480000   -3.390563   -43.115625
 0.485000   -3.596938   -39.278125
 0.490000   -3.783344   -35.150000
 0.495000   -3.948438   -30.753125
 0.500000   -4.090875   -26.496875
 0.505000   -4.213406   -22.984375
 0.510000   -4.320719   -20.240625
 0.515000   -4.415813   -18.096875
 0.520000   -4.501688   -16.512500
 0.525000   -4.580938   -15.418750
 0.530000   -4.655875   -14.643750
 0.535000   -4.727375   -13.950000
 0.540000   -4.795375   -13.231250
 0.545000   -4.859687   -12.509375
 0.550000   -4.920469   -11.725000
 0.555000   -4.976938   -10.878125
 0.560000   -5.029250   -9.959375
 0.565000   -5.076531   -8.881250
 0.570000   -5.118062   -7.712500
 0.575000   -5.153656   -6.450000
 0.580000   -5.182563   -5.071875
 0.585000   -5.204375   -3.684375
 0.590000   -5.219406   -2.303125
 0.595000   -5.227406   -0.934375
 0.600000   -5.228750   0.346875
 0.605000   -5.223937   1.562500
 0.610000   -5.213125   2.662500
 0.615000   -5.197312   3.650000
 0.620000   -5.176625   4.534375
 0.625000   -5.151969   5.284375
 0.630000   -5.123781   6.012500
 0.635000   -5.091844   6.734375
 0.640000   -5.056438   7.368750
 0.645000   -5.018156   7.975000
 0.650000   -4.976687   8.625000
 0.655000   -4.931906   9.196875
 0.660000   -4.884719   9.715625
 0.665000   -4.834750   10.243750
 0.670000   -4.782281   10.715625
 0.675000   -4.727594   11.225000
 0.680000   -4.670031   11.850000
 0.685000   -4.609094   12.671875
 0.690000   -4.543312   13.671875
 0.695000   -4.472375   14.712500
 0.700000   -4.396187   15.871875
 0.705000   -4.313656   17.090625
 0.710000   -4.225281   18.084375
 0.715000   -4.132812   18.796875
 0.720000   -4.037313   19.137500
 0.725000   -3.941438   19.056250
 0.730000   -3.846750   18.553125
 0.735000   -3.755906   17.518750
 0.740000   -3.671563   16.040625
 0.745000   -3.595500   14.209375
 0.750000   -3.529469   12.212500
 0.755000   -3.473375   10.156250
 0.760000   -3.427906   8.043750
 0.765000   -3.392937   6.096875
 0.770000   -3.366938   4.400000
 0.775000   -3.348937   2.931250
 0.780000   -3.337625   1.587500
 0.785000   -3.333063   0.256250
 0.790000   -3.335063   -1.240625
 0.795000   -3.345469   -3.181250
 0.800000   -3.366875   -5.665625
 0.805000   -3.402125   -8.775000
 0.810000   -3.454625   -12.481250
 0.815000   -3.526938   -16.750000
 0.820000   -3.622125   -21.546875
 0.825000   -3.742406   -26.437500
 0.830000   -3.886500   -30.923438
 0.835000   -4.051641   -34.835938
 0.840000   -4.234859   -37.879687
 0.845000   -4.430438   -39.706250
 0.850000   -4.631922   -40.062500
 0.855000   -4.831062   -39.153125
 0.860000   -5.023453   -37.440625
 0.865000   -5.205469   -35.160937
 0.870000   -5.375063   -32.593750
 0.875000   -5.531406   -29.981250
 0.880000   -5.674875   -27.664062
 0.885000   -5.808047   -25.978125
 0.890000   -5.934656   -24.945312
 0.895000   -6.057500   -24.450000
 0.900000   -6.179156   -24.350000
 0.905000   -6.301000   -24.529687
 0.910000   -6.424453   -24.457813
 0.915000   -6.545578   -22.990625
 0.920000   -6.654359   -19.154687
 0.925000   -6.737125   -11.975000
 0.930000   -6.774109   -0.345312
 0.935000   -6.740578   17.221875
 0.940000   -6.601891   42.543750
 0.945000   -6.315141   75.582812
 0.950000   -5.846063   113.006250
 0.955000   -5.185078   146.857813
 0.960000   -4.377484   163.648438
 0.965000   -3.548594   148.737500
 0.970000   -2.890109   92.687500
 0.975000   -2.621719   13.765625
 0.980000   -2.752453   -30.678125
 0.985000   -2.928500   26.304688
 0.990000   -2.489406   208.846094
 0.995000   -0.840039   449.817187
 1.000000   2.008766   689.704687
3 N Z A of ION SPECIES
 6.000000   6.000000   12.010700
 1.000000   1.000000   2.000000
 1.000000   1.000000   2.000000
