201 psinorm ne(10^20/m^3) dne/dpsiN
 0.000000   0.497271   -0.386374
 0.005000   0.495345   -0.383711
 0.010000   0.493434   -0.381058
 0.015000   0.491535   -0.378424
 0.020000   0.489649   -0.375810
 0.025000   0.487777   -0.373214
 0.030000   0.485917   -0.370637
 0.035000   0.484070   -0.368079
 0.040000   0.482236   -0.365539
 0.045000   0.480415   -0.363017
 0.050000   0.478606   -0.360514
 0.055000   0.476810   -0.358028
 0.060000   0.475026   -0.355561
 0.065000   0.473254   -0.353111
 0.070000   0.471495   -0.350678
 0.075000   0.469747   -0.348263
 0.080000   0.468012   -0.345865
 0.085000   0.466289   -0.343484
 0.090000   0.464577   -0.341120
 0.095000   0.462878   -0.338772
 0.100000   0.461190   -0.336442
 0.105000   0.459513   -0.334127
 0.110000   0.457848   -0.331829
 0.115000   0.456195   -0.329547
 0.120000   0.454553   -0.327282
 0.125000   0.452922   -0.325032
 0.130000   0.451303   -0.322798
 0.135000   0.449694   -0.320579
 0.140000   0.448097   -0.318376
 0.145000   0.446510   -0.316189
 0.150000   0.444935   -0.314016
 0.155000   0.443370   -0.311859
 0.160000   0.441816   -0.309717
 0.165000   0.440273   -0.307589
 0.170000   0.438740   -0.305476
 0.175000   0.437218   -0.303378
 0.180000   0.435707   -0.301295
 0.185000   0.434205   -0.299225
 0.190000   0.432714   -0.297170
 0.195000   0.431234   -0.295129
 0.200000   0.429763   -0.293102
 0.205000   0.428303   -0.291089
 0.210000   0.426852   -0.289089
 0.215000   0.425412   -0.287103
 0.220000   0.423981   -0.285131
 0.225000   0.422560   -0.283172
 0.230000   0.421149   -0.281226
 0.235000   0.419748   -0.279293
 0.240000   0.418357   -0.277374
 0.245000   0.416974   -0.275467
 0.250000   0.415602   -0.273573
 0.255000   0.414239   -0.271692
 0.260000   0.412885   -0.269824
 0.265000   0.411540   -0.267968
 0.270000   0.410205   -0.266124
 0.275000   0.408879   -0.264293
 0.280000   0.407562   -0.262473
 0.285000   0.406254   -0.260666
 0.290000   0.404956   -0.258871
 0.295000   0.403666   -0.257088
 0.300000   0.402385   -0.255316
 0.305000   0.401113   -0.253556
 0.310000   0.399849   -0.251808
 0.315000   0.398595   -0.250071
 0.320000   0.397348   -0.248346
 0.325000   0.396111   -0.246632
 0.330000   0.394882   -0.244929
 0.335000   0.393662   -0.243237
 0.340000   0.392450   -0.241556
 0.345000   0.391246   -0.239886
 0.350000   0.390051   -0.238227
 0.355000   0.388864   -0.236578
 0.360000   0.387685   -0.234940
 0.365000   0.386515   -0.233313
 0.370000   0.385352   -0.231696
 0.375000   0.384198   -0.230089
 0.380000   0.383051   -0.228493
 0.385000   0.381913   -0.226907
 0.390000   0.380782   -0.225331
 0.395000   0.379659   -0.223765
 0.400000   0.378544   -0.222209
 0.405000   0.377437   -0.220662
 0.410000   0.376338   -0.219126
 0.415000   0.375246   -0.217599
 0.420000   0.374162   -0.216081
 0.425000   0.373085   -0.214574
 0.430000   0.372016   -0.213075
 0.435000   0.370954   -0.211586
 0.440000   0.369900   -0.210106
 0.445000   0.368853   -0.208636
 0.450000   0.367814   -0.207174
 0.455000   0.366782   -0.205722
 0.460000   0.365757   -0.204278
 0.465000   0.364739   -0.202843
 0.470000   0.363728   -0.201417
 0.475000   0.362725   -0.200000
 0.480000   0.361728   -0.198592
 0.485000   0.360739   -0.197192
 0.490000   0.359756   -0.195800
 0.495000   0.358781   -0.194417
 0.500000   0.357812   -0.193042
 0.505000   0.356850   -0.191676
 0.510000   0.355895   -0.190318
 0.515000   0.354947   -0.188968
 0.520000   0.354006   -0.187626
 0.525000   0.353071   -0.186292
 0.530000   0.352143   -0.184966
 0.535000   0.351221   -0.183648
 0.540000   0.350306   -0.182337
 0.545000   0.349398   -0.181035
 0.550000   0.348496   -0.179740
 0.555000   0.347600   -0.178452
 0.560000   0.346711   -0.177172
 0.565000   0.345829   -0.175900
 0.570000   0.344952   -0.174635
 0.575000   0.344082   -0.173377
 0.580000   0.343219   -0.172127
 0.585000   0.342361   -0.170884
 0.590000   0.341510   -0.169648
 0.595000   0.340665   -0.168419
 0.600000   0.339826   -0.167197
 0.605000   0.338993   -0.165982
 0.610000   0.338166   -0.164774
 0.615000   0.337345   -0.163573
 0.620000   0.336530   -0.162378
 0.625000   0.335721   -0.161191
 0.630000   0.334918   -0.160010
 0.635000   0.334121   -0.158835
 0.640000   0.333330   -0.157668
 0.645000   0.332544   -0.156506
 0.650000   0.331765   -0.155352
 0.655000   0.330991   -0.154203
 0.660000   0.330223   -0.153061
 0.665000   0.329460   -0.151925
 0.670000   0.328703   -0.150795
 0.675000   0.327952   -0.149672
 0.680000   0.327207   -0.148555
 0.685000   0.326467   -0.147443
 0.690000   0.325732   -0.146338
 0.695000   0.325003   -0.145239
 0.700000   0.324280   -0.144145
 0.705000   0.323562   -0.143057
 0.710000   0.322849   -0.141976
 0.715000   0.322142   -0.140900
 0.720000   0.321440   -0.139829
 0.725000   0.320744   -0.138764
 0.730000   0.320053   -0.137705
 0.735000   0.319367   -0.136652
 0.740000   0.318686   -0.135604
 0.745000   0.318011   -0.134561
 0.750000   0.317341   -0.133524
 0.755000   0.316676   -0.132492
 0.760000   0.316016   -0.131465
 0.765000   0.315361   -0.130444
 0.770000   0.314711   -0.129428
 0.775000   0.314067   -0.128417
 0.780000   0.313427   -0.127411
 0.785000   0.312793   -0.126410
 0.790000   0.312163   -0.125414
 0.795000   0.311538   -0.124423
 0.800000   0.310919   -0.123437
 0.805000   0.310304   -0.122456
 0.810000   0.309694   -0.121480
 0.815000   0.309089   -0.120509
 0.820000   0.308489   -0.119542
 0.825000   0.307894   -0.118580
 0.830000   0.307303   -0.117623
 0.835000   0.306718   -0.116670
 0.840000   0.306137   -0.115722
 0.845000   0.305560   -0.114779
 0.850000   0.304989   -0.113840
 0.855000   0.304422   -0.112905
 0.860000   0.303860   -0.111975
 0.865000   0.303302   -0.111048
 0.870000   0.302749   -0.110126
 0.875000   0.302201   -0.109206
 0.880000   0.301657   -0.108288
 0.885000   0.301118   -0.107366
 0.890000   0.300584   -0.106429
 0.895000   0.300054   -0.105453
 0.900000   0.299529   -0.104381
 0.905000   0.299010   -0.103088
 0.910000   0.298498   -0.101313
 0.915000   0.297997   -0.098537
 0.920000   0.297513   -0.093855
 0.925000   0.297058   -0.086117
 0.930000   0.296652   -0.075571
 0.935000   0.296303   -0.071577
 0.940000   0.295936   -0.120668
 0.945000   0.295096   -0.388415
 0.950000   0.292052   -1.300721
 0.955000   0.282089   -3.375852
 0.960000   0.258293   -6.003096
 0.965000   0.222058   -7.133013
 0.970000   0.186963   -6.109896
 0.975000   0.160959   -4.439536
 0.980000   0.142568   -3.223024
 0.985000   0.128729   -2.500503
 0.990000   0.117563   -2.059506
 0.995000   0.108133   -1.759351
 1.000000   0.099969   -1.506379
201 psinorm te(KeV) dte/dpsiN
 0.000000   3.891604   -3.290886
 0.005000   3.875127   -3.299995
 0.010000   3.858604   -3.308987
 0.015000   3.842037   -3.317742
 0.020000   3.825427   -3.326262
 0.025000   3.808775   -3.334547
 0.030000   3.792081   -3.342597
 0.035000   3.775349   -3.350412
 0.040000   3.758577   -3.357993
 0.045000   3.741769   -3.365339
 0.050000   3.724924   -3.372452
 0.055000   3.708044   -3.379332
 0.060000   3.691131   -3.385979
 0.065000   3.674184   -3.392393
 0.070000   3.657207   -3.398576
 0.075000   3.640199   -3.404528
 0.080000   3.623161   -3.410248
 0.085000   3.606096   -3.415739
 0.090000   3.589004   -3.421000
 0.095000   3.571886   -3.426032
 0.100000   3.554744   -3.430835
 0.105000   3.537578   -3.435411
 0.110000   3.520390   -3.439760
 0.115000   3.503180   -3.443882
 0.120000   3.485951   -3.447779
 0.125000   3.468702   -3.451452
 0.130000   3.451436   -3.454900
 0.135000   3.434153   -3.458125
 0.140000   3.416855   -3.461128
 0.145000   3.399542   -3.463909
 0.150000   3.382216   -3.466470
 0.155000   3.364877   -3.468810
 0.160000   3.347528   -3.470933
 0.165000   3.330168   -3.472837
 0.170000   3.312799   -3.474524
 0.175000   3.295423   -3.475995
 0.180000   3.278039   -3.477251
 0.185000   3.260650   -3.478294
 0.190000   3.243256   -3.479123
 0.195000   3.225859   -3.479741
 0.200000   3.208459   -3.480148
 0.205000   3.191058   -3.480345
 0.210000   3.173656   -3.480334
 0.215000   3.156254   -3.480116
 0.220000   3.138854   -3.479691
 0.225000   3.121457   -3.479061
 0.230000   3.104064   -3.478227
 0.235000   3.086675   -3.477191
 0.240000   3.069292   -3.475953
 0.245000   3.051916   -3.474515
 0.250000   3.034547   -3.472879
 0.255000   3.017187   -3.471044
 0.260000   2.999836   -3.469013
 0.265000   2.982497   -3.466788
 0.270000   2.965168   -3.464368
 0.275000   2.947853   -3.461756
 0.280000   2.930551   -3.458953
 0.285000   2.913263   -3.455961
 0.290000   2.895991   -3.452780
 0.295000   2.878736   -3.449412
 0.300000   2.861497   -3.445859
 0.305000   2.844277   -3.442122
 0.310000   2.827076   -3.438203
 0.315000   2.809895   -3.434102
 0.320000   2.792735   -3.429822
 0.325000   2.775597   -3.425363
 0.330000   2.758481   -3.420728
 0.335000   2.741389   -3.415918
 0.340000   2.724322   -3.410934
 0.345000   2.707280   -3.405778
 0.350000   2.690264   -3.400451
 0.355000   2.673276   -3.394955
 0.360000   2.656315   -3.389292
 0.365000   2.639383   -3.383463
 0.370000   2.622480   -3.377470
 0.375000   2.605608   -3.371314
 0.380000   2.588767   -3.364996
 0.385000   2.571958   -3.358519
 0.390000   2.555182   -3.351885
 0.395000   2.538439   -3.345093
 0.400000   2.521731   -3.338148
 0.405000   2.505058   -3.331049
 0.410000   2.488420   -3.323799
 0.415000   2.471820   -3.316399
 0.420000   2.455256   -3.308851
 0.425000   2.438731   -3.301157
 0.430000   2.422245   -3.293317
 0.435000   2.405798   -3.285335
 0.440000   2.389392   -3.277212
 0.445000   2.373026   -3.268949
 0.450000   2.356702   -3.260547
 0.455000   2.340420   -3.252010
 0.460000   2.324182   -3.243338
 0.465000   2.307987   -3.234533
 0.470000   2.291837   -3.225597
 0.475000   2.275731   -3.216531
 0.480000   2.259671   -3.207338
 0.485000   2.243658   -3.198019
 0.490000   2.227691   -3.188575
 0.495000   2.211772   -3.179009
 0.500000   2.195901   -3.169322
 0.505000   2.180079   -3.159516
 0.510000   2.164306   -3.149593
 0.515000   2.148583   -3.139554
 0.520000   2.132910   -3.129401
 0.525000   2.117289   -3.119136
 0.530000   2.101719   -3.108761
 0.535000   2.086201   -3.098276
 0.540000   2.070736   -3.087685
 0.545000   2.055324   -3.076989
 0.550000   2.039966   -3.066190
 0.555000   2.024662   -3.055288
 0.560000   2.009413   -3.044287
 0.565000   1.994220   -3.033187
 0.570000   1.979082   -3.021991
 0.575000   1.964000   -3.010701
 0.580000   1.948975   -2.999317
 0.585000   1.934007   -2.987841
 0.590000   1.919096   -2.976277
 0.595000   1.904244   -2.964624
 0.600000   1.889450   -2.952885
 0.605000   1.874715   -2.941062
 0.610000   1.860039   -2.929156
 0.615000   1.845423   -2.917169
 0.620000   1.830868   -2.905103
 0.625000   1.816372   -2.892959
 0.630000   1.801938   -2.880739
 0.635000   1.787565   -2.868445
 0.640000   1.773254   -2.856079
 0.645000   1.759004   -2.843642
 0.650000   1.744817   -2.831135
 0.655000   1.730693   -2.818561
 0.660000   1.716631   -2.805922
 0.665000   1.702634   -2.793218
 0.670000   1.688699   -2.780451
 0.675000   1.674829   -2.767624
 0.680000   1.661023   -2.754738
 0.685000   1.647282   -2.741794
 0.690000   1.633605   -2.728794
 0.695000   1.619994   -2.715739
 0.700000   1.606448   -2.702632
 0.705000   1.592967   -2.689473
 0.710000   1.579553   -2.676265
 0.715000   1.566205   -2.663008
 0.720000   1.552923   -2.649704
 0.725000   1.539708   -2.636355
 0.730000   1.526559   -2.622962
 0.735000   1.513478   -2.609526
 0.740000   1.500464   -2.596048
 0.745000   1.487518   -2.582528
 0.750000   1.474639   -2.568969
 0.755000   1.461828   -2.555369
 0.760000   1.449085   -2.541728
 0.765000   1.436411   -2.528047
 0.770000   1.423805   -2.514323
 0.775000   1.411267   -2.500553
 0.780000   1.398799   -2.486734
 0.785000   1.386400   -2.472860
 0.790000   1.374071   -2.458922
 0.795000   1.361811   -2.444909
 0.800000   1.349621   -2.430805
 0.805000   1.337503   -2.416589
 0.810000   1.325456   -2.402233
 0.815000   1.313480   -2.387700
 0.820000   1.301579   -2.372941
 0.825000   1.289751   -2.357895
 0.830000   1.278000   -2.342481
 0.835000   1.266326   -2.326601
 0.840000   1.254734   -2.310131
 0.845000   1.243225   -2.292926
 0.850000   1.231804   -2.274815
 0.855000   1.220477   -2.255613
 0.860000   1.209248   -2.235134
 0.865000   1.198125   -2.213229
 0.870000   1.187116   -2.189847
 0.875000   1.176227   -2.165151
 0.880000   1.165464   -2.139704
 0.885000   1.154830   -2.114790
 0.890000   1.144317   -2.092929
 0.895000   1.133901   -2.078702
 0.900000   1.123530   -2.080052
 0.905000   1.113100   -2.110295
 0.910000   1.102427   -2.191168
 0.915000   1.091188   -2.357287
 0.920000   1.078854   -2.662318
 0.925000   1.064565   -3.186700
 0.930000   1.046987   -4.045310
 0.935000   1.024112   -5.389968
 0.940000   0.993087   -7.394960
 0.945000   0.950163   -10.204255
 0.950000   0.891044   -13.815377
 0.955000   0.812009   -17.902643
 0.960000   0.712018   -21.675359
 0.965000   0.595255   -23.989790
 0.970000   0.472120   -23.877513
 0.975000   0.356480   -21.225028
 0.980000   0.259870   -16.944064
 0.985000   0.187039   -12.371008
 0.990000   0.136160   -8.488084
 0.995000   0.102159   -5.637777
 1.000000   0.079782   -3.312863
201 psinorm ni(10^20/m^3) dni/dpsiN
 0.000000   0.301842   -0.547980
 0.005000   0.299325   -0.458811
 0.010000   0.297254   -0.379270
 0.015000   0.295532   -0.314545
 0.020000   0.294109   -0.258708
 0.025000   0.292945   -0.210275
 0.030000   0.292006   -0.169009
 0.035000   0.291255   -0.133802
 0.040000   0.290668   -0.103564
 0.045000   0.290220   -0.077044
 0.050000   0.289897   -0.054838
 0.055000   0.289671   -0.036799
 0.060000   0.289529   -0.021875
 0.065000   0.289453   -0.009958
 0.070000   0.289430   -0.000734
 0.075000   0.289445   0.006112
 0.080000   0.289491   0.011030
 0.085000   0.289555   0.013991
 0.090000   0.289631   0.015418
 0.095000   0.289710   0.015261
 0.100000   0.289783   0.013840
 0.105000   0.289848   0.011608
 0.110000   0.289899   0.008498
 0.115000   0.289933   0.004505
 0.120000   0.289945   -0.000194
 0.125000   0.289931   -0.005476
 0.130000   0.289890   -0.011228
 0.135000   0.289819   -0.017340
 0.140000   0.289716   -0.023875
 0.145000   0.289580   -0.030634
 0.150000   0.289410   -0.037372
 0.155000   0.289206   -0.044117
 0.160000   0.288969   -0.050872
 0.165000   0.288698   -0.057581
 0.170000   0.288393   -0.064160
 0.175000   0.288056   -0.070592
 0.180000   0.287687   -0.076797
 0.185000   0.287288   -0.082779
 0.190000   0.286859   -0.088593
 0.195000   0.286402   -0.094177
 0.200000   0.285918   -0.099502
 0.205000   0.285407   -0.104573
 0.210000   0.284872   -0.109379
 0.215000   0.284313   -0.114068
 0.220000   0.283731   -0.118911
 0.225000   0.283124   -0.123358
 0.230000   0.282498   -0.127100
 0.235000   0.281853   -0.130520
 0.240000   0.281192   -0.133663
 0.245000   0.280517   -0.136549
 0.250000   0.279827   -0.139428
 0.255000   0.279122   -0.142377
 0.260000   0.278403   -0.144824
 0.265000   0.277674   -0.146719
 0.270000   0.276936   -0.148422
 0.275000   0.276190   -0.149940
 0.280000   0.275437   -0.151631
 0.285000   0.274674   -0.153297
 0.290000   0.273904   -0.154472
 0.295000   0.273129   -0.155395
 0.300000   0.272350   -0.156234
 0.305000   0.271566   -0.157202
 0.310000   0.270778   -0.158234
 0.315000   0.269984   -0.158959
 0.320000   0.269188   -0.159460
 0.325000   0.268390   -0.159918
 0.330000   0.267589   -0.160523
 0.335000   0.266784   -0.161118
 0.340000   0.265978   -0.161440
 0.345000   0.265170   -0.161647
 0.350000   0.264361   -0.161849
 0.355000   0.263551   -0.162185
 0.360000   0.262739   -0.162451
 0.365000   0.261927   -0.162537
 0.370000   0.261114   -0.162645
 0.375000   0.260300   -0.162879
 0.380000   0.259485   -0.163174
 0.385000   0.258669   -0.163400
 0.390000   0.257851   -0.163627
 0.395000   0.257032   -0.163930
 0.400000   0.256212   -0.164301
 0.405000   0.255389   -0.164617
 0.410000   0.254566   -0.164860
 0.415000   0.253741   -0.165099
 0.420000   0.252915   -0.165390
 0.425000   0.252087   -0.165630
 0.430000   0.251258   -0.165737
 0.435000   0.250430   -0.165779
 0.440000   0.249601   -0.165831
 0.445000   0.248771   -0.165834
 0.450000   0.247942   -0.165704
 0.455000   0.247114   -0.165503
 0.460000   0.246287   -0.165299
 0.465000   0.245461   -0.165074
 0.470000   0.244637   -0.164758
 0.475000   0.243814   -0.164357
 0.480000   0.242993   -0.163910
 0.485000   0.242175   -0.163396
 0.490000   0.241359   -0.162726
 0.495000   0.240547   -0.161889
 0.500000   0.239740   -0.160931
 0.505000   0.238938   -0.159863
 0.510000   0.238141   -0.158613
 0.515000   0.237352   -0.157155
 0.520000   0.236570   -0.155543
 0.525000   0.235796   -0.153841
 0.530000   0.235032   -0.151971
 0.535000   0.234277   -0.149876
 0.540000   0.233533   -0.147637
 0.545000   0.232800   -0.145307
 0.550000   0.232080   -0.142846
 0.555000   0.231372   -0.140194
 0.560000   0.230678   -0.137395
 0.565000   0.229998   -0.134490
 0.570000   0.229333   -0.131469
 0.575000   0.228683   -0.128270
 0.580000   0.228050   -0.124896
 0.585000   0.227434   -0.121383
 0.590000   0.226836   -0.117768
 0.595000   0.226257   -0.114008
 0.600000   0.225696   -0.110079
 0.605000   0.225156   -0.106034
 0.610000   0.224636   -0.101900
 0.615000   0.224137   -0.097669
 0.620000   0.223659   -0.093292
 0.625000   0.223204   -0.088769
 0.630000   0.222772   -0.084117
 0.635000   0.222363   -0.079346
 0.640000   0.221978   -0.074444
 0.645000   0.221618   -0.069416
 0.650000   0.221284   -0.064260
 0.655000   0.220976   -0.059021
 0.660000   0.220694   -0.053759
 0.665000   0.220438   -0.048463
 0.670000   0.220209   -0.043064
 0.675000   0.220007   -0.037412
 0.680000   0.219835   -0.031055
 0.685000   0.219697   -0.023732
 0.690000   0.219598   -0.015651
 0.695000   0.219540   -0.006904
 0.700000   0.219529   0.002479
 0.705000   0.219565   0.012371
 0.710000   0.219652   0.022964
 0.715000   0.219795   0.033830
 0.720000   0.219991   0.044078
 0.725000   0.220236   0.053550
 0.730000   0.220526   0.062115
 0.735000   0.220857   0.069459
 0.740000   0.221221   0.075296
 0.745000   0.221610   0.079096
 0.750000   0.222012   0.080602
 0.755000   0.222416   0.080040
 0.760000   0.222812   0.077560
 0.765000   0.223191   0.073343
 0.770000   0.223545   0.067401
 0.775000   0.223865   0.060078
 0.780000   0.224146   0.052576
 0.785000   0.224391   0.045453
 0.790000   0.224601   0.038621
 0.795000   0.224777   0.032266
 0.800000   0.224923   0.026473
 0.805000   0.225042   0.021451
 0.810000   0.225138   0.017358
 0.815000   0.225216   0.013791
 0.820000   0.225276   0.010284
 0.825000   0.225318   0.006659
 0.830000   0.225342   0.002846
 0.835000   0.225347   -0.001147
 0.840000   0.225331   -0.005301
 0.845000   0.225294   -0.009558
 0.850000   0.225235   -0.013834
 0.855000   0.225156   -0.018078
 0.860000   0.225055   -0.022217
 0.865000   0.224933   -0.026060
 0.870000   0.224794   -0.029435
 0.875000   0.224639   -0.032365
 0.880000   0.224470   -0.034922
 0.885000   0.224290   -0.037115
 0.890000   0.224099   -0.038885
 0.895000   0.223901   -0.039835
 0.900000   0.223701   -0.039677
 0.905000   0.223504   -0.038014
 0.910000   0.223321   -0.033740
 0.915000   0.223167   -0.024859
 0.920000   0.223072   -0.007598
 0.925000   0.223091   0.025892
 0.930000   0.223331   0.083906
 0.935000   0.223930   0.168060
 0.940000   0.225012   0.246253
 0.945000   0.226392   0.163955
 0.950000   0.226651   -0.505599
 0.955000   0.221336   -2.296247
 0.960000   0.203689   -4.658180
 0.965000   0.174755   -5.624345
 0.970000   0.147445   -4.584670
 0.975000   0.128908   -3.043826
 0.980000   0.117007   -2.054675
 0.985000   0.108361   -1.590850
 0.990000   0.101099   -1.387062
 0.995000   0.094491   -1.273579
 1.000000   0.088363   -1.177545
201 psinorm ti(KeV) dti/dpsiN
 0.000000   5.501907   0.002632
 0.005000   5.501146   -0.306972
 0.010000   5.498838   -0.620335
 0.015000   5.494943   -0.940862
 0.020000   5.489429   -1.267800
 0.025000   5.482265   -1.600310
 0.030000   5.473426   -1.937495
 0.035000   5.462890   -2.278418
 0.040000   5.450642   -2.621891
 0.045000   5.436671   -2.966963
 0.050000   5.420972   -3.312835
 0.055000   5.403543   -3.658397
 0.060000   5.384388   -4.002454
 0.065000   5.363518   -4.343543
 0.070000   5.340953   -4.678889
 0.075000   5.316729   -5.006844
 0.080000   5.290884   -5.327379
 0.085000   5.263456   -5.639569
 0.090000   5.234488   -5.942485
 0.095000   5.204031   -6.235493
 0.100000   5.172134   -6.517006
 0.105000   5.138861   -6.787437
 0.110000   5.104259   -7.048329
 0.115000   5.068377   -7.299193
 0.120000   5.031267   -7.540139
 0.125000   4.992976   -7.772235
 0.130000   4.953545   -7.997339
 0.135000   4.913003   -8.216151
 0.140000   4.871383   -8.425964
 0.145000   4.828743   -8.624260
 0.150000   4.785141   -8.810354
 0.155000   4.740639   -8.983587
 0.160000   4.695305   -9.143403
 0.165000   4.649205   -9.288044
 0.170000   4.602424   -9.415410
 0.175000   4.555051   -9.524899
 0.180000   4.507175   -9.616306
 0.185000   4.458888   -9.689340
 0.190000   4.410282   -9.742879
 0.195000   4.361459   -9.775936
 0.200000   4.312523   -9.792515
 0.205000   4.263534   -9.796941
 0.210000   4.214553   -9.791087
 0.215000   4.165623   -9.777748
 0.220000   4.116776   -9.759429
 0.225000   4.068029   -9.739718
 0.230000   4.019379   -9.719176
 0.235000   3.970837   -9.695924
 0.240000   3.922419   -9.669839
 0.245000   3.874139   -9.640567
 0.250000   3.826014   -9.608333
 0.255000   3.778056   -9.574645
 0.260000   3.730267   -9.529838
 0.265000   3.682757   -9.467333
 0.270000   3.635594   -9.390821
 0.275000   3.588849   -9.299612
 0.280000   3.542598   -9.193324
 0.285000   3.496916   -9.071394
 0.290000   3.451884   -8.931314
 0.295000   3.407603   -8.773478
 0.300000   3.364149   -8.600084
 0.305000   3.321602   -8.411057
 0.310000   3.280039   -8.207165
 0.315000   3.239530   -7.987475
 0.320000   3.200164   -7.766254
 0.325000   3.161868   -7.555696
 0.330000   3.124607   -7.352406
 0.335000   3.088344   -7.156822
 0.340000   3.053039   -6.969253
 0.345000   3.018651   -6.792397
 0.350000   2.985115   -6.625974
 0.355000   2.952391   -6.466027
 0.360000   2.920454   -6.311195
 0.365000   2.889279   -6.160650
 0.370000   2.858848   -6.013300
 0.375000   2.829146   -5.872495
 0.380000   2.800123   -5.731761
 0.385000   2.771829   -5.580041
 0.390000   2.744322   -5.417229
 0.395000   2.717657   -5.243888
 0.400000   2.691884   -5.060563
 0.405000   2.667051   -4.866334
 0.410000   2.643220   -4.662277
 0.415000   2.620428   -4.455413
 0.420000   2.598666   -4.251010
 0.425000   2.577918   -4.050881
 0.430000   2.558157   -3.856796
 0.435000   2.539350   -3.666830
 0.440000   2.521489   -3.482900
 0.445000   2.504521   -3.312021
 0.450000   2.488369   -3.154504
 0.455000   2.472976   -3.008462
 0.460000   2.458284   -2.874278
 0.465000   2.444233   -2.751005
 0.470000   2.430774   -2.639953
 0.475000   2.417834   -2.544364
 0.480000   2.405331   -2.463030
 0.485000   2.393203   -2.393479
 0.490000   2.381396   -2.334569
 0.495000   2.369858   -2.284507
 0.500000   2.358551   -2.240375
 0.505000   2.347454   -2.200321
 0.510000   2.336547   -2.164985
 0.515000   2.325804   -2.135122
 0.520000   2.315196   -2.110820
 0.525000   2.304696   -2.092057
 0.530000   2.294276   -2.078814
 0.535000   2.283908   -2.070722
 0.540000   2.273568   -2.067421
 0.545000   2.263234   -2.068814
 0.550000   2.252880   -2.074665
 0.555000   2.242487   -2.084756
 0.560000   2.232033   -2.098966
 0.565000   2.221497   -2.116694
 0.570000   2.210866   -2.137433
 0.575000   2.200123   -2.161076
 0.580000   2.189255   -2.187265
 0.585000   2.178250   -2.215620
 0.590000   2.167099   -2.245823
 0.595000   2.155792   -2.277789
 0.600000   2.144321   -2.311702
 0.605000   2.132675   -2.347611
 0.610000   2.120845   -2.385292
 0.615000   2.108822   -2.424436
 0.620000   2.096600   -2.465426
 0.625000   2.084168   -2.507307
 0.630000   2.071527   -2.548765
 0.635000   2.058680   -2.589791
 0.640000   2.045629   -2.629916
 0.645000   2.032381   -2.668635
 0.650000   2.018943   -2.706390
 0.655000   2.005317   -2.742856
 0.660000   1.991515   -2.777602
 0.665000   1.977541   -2.811204
 0.670000   1.963403   -2.843436
 0.675000   1.949107   -2.873770
 0.680000   1.934665   -2.902595
 0.685000   1.920081   -2.926603
 0.690000   1.905399   -2.941874
 0.695000   1.890662   -2.949228
 0.700000   1.875907   -2.949646
 0.705000   1.861166   -2.943633
 0.710000   1.846470   -2.931403
 0.715000   1.831852   -2.912755
 0.720000   1.817343   -2.887966
 0.725000   1.802972   -2.857632
 0.730000   1.788766   -2.822099
 0.735000   1.774751   -2.781779
 0.740000   1.760949   -2.736585
 0.745000   1.747385   -2.687169
 0.750000   1.734077   -2.635879
 0.755000   1.721026   -2.584602
 0.760000   1.708231   -2.534509
 0.765000   1.695681   -2.486666
 0.770000   1.683364   -2.441951
 0.775000   1.671262   -2.399545
 0.780000   1.659369   -2.356168
 0.785000   1.647700   -2.310497
 0.790000   1.636264   -2.263412
 0.795000   1.625066   -2.215499
 0.800000   1.614109   -2.167599
 0.805000   1.603390   -2.121480
 0.810000   1.592894   -2.079481
 0.815000   1.582595   -2.042953
 0.820000   1.572464   -2.012403
 0.825000   1.562471   -1.988215
 0.830000   1.552582   -1.970997
 0.835000   1.542761   -1.961511
 0.840000   1.532967   -1.959196
 0.845000   1.523169   -1.966031
 0.850000   1.513307   -1.986238
 0.855000   1.503307   -2.022299
 0.860000   1.493084   -2.076863
 0.865000   1.482538   -2.156569
 0.870000   1.471518   -2.258031
 0.875000   1.459958   -2.378986
 0.880000   1.447728   -2.529148
 0.885000   1.434666   -2.716362
 0.890000   1.420565   -2.950865
 0.895000   1.405158   -3.265302
 0.900000   1.387912   -3.656788
 0.905000   1.368590   -4.116643
 0.910000   1.346745   -4.672271
 0.915000   1.321867   -5.335309
 0.920000   1.293392   -6.113470
 0.925000   1.260732   -7.059212
 0.930000   1.222800   -8.124426
 0.935000   1.179488   -9.222165
 0.940000   1.130578   -10.337018
 0.945000   1.076118   -11.404653
 0.950000   1.016532   -12.345833
 0.955000   0.952660   -13.118419
 0.960000   0.885348   -13.619814
 0.965000   0.816461   -13.756376
 0.970000   0.747784   -13.540518
 0.975000   0.681056   -12.989691
 0.980000   0.617887   -12.145983
 0.985000   0.559596   -11.075216
 0.990000   0.507135   -9.849158
 0.995000   0.461105   -8.559922
 1.000000   0.421536   -7.267769
201 psinorm nb(10^20/m^3) dnb/dpsiN
 0.000000   0.096923   0.161618
 0.005000   0.097514   0.074706
 0.010000   0.097670   -0.002587
 0.015000   0.097488   -0.065083
 0.020000   0.097019   -0.118706
 0.025000   0.096301   -0.164938
 0.030000   0.095370   -0.204011
 0.035000   0.094261   -0.237030
 0.040000   0.093000   -0.265082
 0.045000   0.091610   -0.289413
 0.050000   0.090105   -0.309426
 0.055000   0.088516   -0.325263
 0.060000   0.086853   -0.337974
 0.065000   0.085136   -0.347664
 0.070000   0.083376   -0.354646
 0.075000   0.081590   -0.359231
 0.080000   0.079784   -0.361869
 0.085000   0.077971   -0.362525
 0.090000   0.076159   -0.361623
 0.095000   0.074355   -0.359110
 0.100000   0.072568   -0.355303
 0.105000   0.070802   -0.350656
 0.110000   0.069061   -0.345101
 0.115000   0.067351   -0.338634
 0.120000   0.065675   -0.331430
 0.125000   0.064036   -0.323613
 0.130000   0.062439   -0.315297
 0.135000   0.060883   -0.306592
 0.140000   0.059373   -0.297438
 0.145000   0.057909   -0.288036
 0.150000   0.056492   -0.278632
 0.155000   0.055123   -0.269202
 0.160000   0.053800   -0.259742
 0.165000   0.052525   -0.250315
 0.170000   0.051297   -0.241007
 0.175000   0.050115   -0.231837
 0.180000   0.048979   -0.222889
 0.185000   0.047886   -0.214161
 0.190000   0.046837   -0.205603
 0.195000   0.045830   -0.197281
 0.200000   0.044864   -0.189226
 0.205000   0.043938   -0.181439
 0.210000   0.043050   -0.173933
 0.215000   0.042199   -0.166564
 0.220000   0.041384   -0.159063
 0.225000   0.040608   -0.151980
 0.230000   0.039864   -0.145622
 0.235000   0.039152   -0.139605
 0.240000   0.038468   -0.133892
 0.245000   0.037813   -0.128461
 0.250000   0.037184   -0.123067
 0.255000   0.036582   -0.117632
 0.260000   0.036007   -0.112742
 0.265000   0.035455   -0.108457
 0.270000   0.034923   -0.104420
 0.275000   0.034411   -0.100628
 0.280000   0.033917   -0.096731
 0.285000   0.033443   -0.092928
 0.290000   0.032987   -0.089702
 0.295000   0.032546   -0.086822
 0.300000   0.032119   -0.084119
 0.305000   0.031705   -0.081384
 0.310000   0.031305   -0.078686
 0.315000   0.030918   -0.076401
 0.320000   0.030541   -0.074444
 0.325000   0.030174   -0.072621
 0.330000   0.029815   -0.070738
 0.335000   0.029466   -0.068941
 0.340000   0.029126   -0.067485
 0.345000   0.028792   -0.066205
 0.350000   0.028464   -0.064983
 0.355000   0.028142   -0.063690
 0.360000   0.027827   -0.062536
 0.365000   0.027516   -0.061639
 0.370000   0.027210   -0.060802
 0.375000   0.026908   -0.059924
 0.380000   0.026611   -0.059073
 0.385000   0.026318   -0.058382
 0.390000   0.026027   -0.057766
 0.395000   0.025740   -0.057140
 0.400000   0.025456   -0.056499
 0.405000   0.025175   -0.055952
 0.410000   0.024896   -0.055499
 0.415000   0.024620   -0.055054
 0.420000   0.024346   -0.054545
 0.425000   0.024075   -0.054059
 0.430000   0.023805   -0.053664
 0.435000   0.023538   -0.053275
 0.440000   0.023272   -0.052818
 0.445000   0.023010   -0.052359
 0.450000   0.022749   -0.051986
 0.455000   0.022490   -0.051633
 0.460000   0.022233   -0.051236
 0.465000   0.021977   -0.050815
 0.470000   0.021724   -0.050448
 0.475000   0.021473   -0.050113
 0.480000   0.021223   -0.049745
 0.485000   0.020976   -0.049347
 0.490000   0.020730   -0.048994
 0.495000   0.020486   -0.048681
 0.500000   0.020243   -0.048348
 0.505000   0.020002   -0.047970
 0.510000   0.019763   -0.047616
 0.515000   0.019526   -0.047309
 0.520000   0.019290   -0.046996
 0.525000   0.019056   -0.046608
 0.530000   0.018824   -0.046227
 0.535000   0.018594   -0.045922
 0.540000   0.018365   -0.045622
 0.545000   0.018138   -0.045273
 0.550000   0.017912   -0.044919
 0.555000   0.017688   -0.044624
 0.560000   0.017466   -0.044346
 0.565000   0.017245   -0.044045
 0.570000   0.017025   -0.043727
 0.575000   0.016808   -0.043449
 0.580000   0.016591   -0.043208
 0.585000   0.016376   -0.042971
 0.590000   0.016161   -0.042708
 0.595000   0.015948   -0.042469
 0.600000   0.015737   -0.042289
 0.605000   0.015526   -0.042124
 0.610000   0.015315   -0.041952
 0.615000   0.015106   -0.041783
 0.620000   0.014897   -0.041652
 0.625000   0.014689   -0.041548
 0.630000   0.014482   -0.041459
 0.635000   0.014275   -0.041378
 0.640000   0.014068   -0.041320
 0.645000   0.013862   -0.041293
 0.650000   0.013655   -0.041280
 0.655000   0.013449   -0.041282
 0.660000   0.013242   -0.041305
 0.665000   0.013036   -0.041346
 0.670000   0.012829   -0.041396
 0.675000   0.012622   -0.041456
 0.680000   0.012414   -0.041528
 0.685000   0.012207   -0.041626
 0.690000   0.011998   -0.041740
 0.695000   0.011789   -0.041857
 0.700000   0.011580   -0.041983
 0.705000   0.011369   -0.042118
 0.710000   0.011158   -0.042283
 0.715000   0.010947   -0.042457
 0.720000   0.010734   -0.042615
 0.725000   0.010520   -0.042774
 0.730000   0.010306   -0.042935
 0.735000   0.010091   -0.043102
 0.740000   0.009875   -0.043282
 0.745000   0.009658   -0.043450
 0.750000   0.009441   -0.043595
 0.755000   0.009222   -0.043731
 0.760000   0.009003   -0.043854
 0.765000   0.008784   -0.043969
 0.770000   0.008564   -0.044075
 0.775000   0.008343   -0.044158
 0.780000   0.008122   -0.044219
 0.785000   0.007901   -0.044264
 0.790000   0.007679   -0.044290
 0.795000   0.007458   -0.044295
 0.800000   0.007236   -0.044276
 0.805000   0.007015   -0.044224
 0.810000   0.006794   -0.044147
 0.815000   0.006574   -0.044044
 0.820000   0.006354   -0.043913
 0.825000   0.006135   -0.043750
 0.830000   0.005916   -0.043552
 0.835000   0.005699   -0.043319
 0.840000   0.005483   -0.043030
 0.845000   0.005269   -0.042688
 0.850000   0.005056   -0.042312
 0.855000   0.004846   -0.041898
 0.860000   0.004637   -0.041440
 0.865000   0.004431   -0.040955
 0.870000   0.004228   -0.040469
 0.875000   0.004027   -0.039995
 0.880000   0.003828   -0.039537
 0.885000   0.003631   -0.039095
 0.890000   0.003437   -0.038671
 0.895000   0.003244   -0.038263
 0.900000   0.003054   -0.037885
 0.905000   0.002866   -0.037565
 0.910000   0.002678   -0.037317
 0.915000   0.002492   -0.037169
 0.920000   0.002307   -0.037161
 0.925000   0.002121   -0.037312
 0.930000   0.001934   -0.037601
 0.935000   0.001745   -0.037941
 0.940000   0.001554   -0.038122
 0.945000   0.001364   -0.037754
 0.950000   0.001177   -0.036312
 0.955000   0.001000   -0.033536
 0.960000   0.000841   -0.030192
 0.965000   0.000699   -0.027205
 0.970000   0.000569   -0.024086
 0.975000   0.000458   -0.020113
 0.980000   0.000368   -0.016015
 0.985000   0.000298   -0.013173
 0.990000   0.000236   -0.011767
 0.995000   0.000180   -0.011532
 1.000000   0.000121   -0.011955
201 psinorm pb(KPa) dpb/dpsiN
 0.000000   39.109189   54.263554
 0.005000   39.297721   21.149551
 0.010000   39.320684   -9.397121
 0.015000   39.203750   -34.978869
 0.020000   38.970895   -56.656587
 0.025000   38.637184   -75.244171
 0.030000   38.218454   -90.718559
 0.035000   37.729999   -103.640263
 0.040000   37.182051   -114.570714
 0.045000   36.584292   -123.960048
 0.050000   35.942451   -131.653246
 0.055000   35.267759   -137.645792
 0.060000   34.565993   -142.263993
 0.065000   33.845119   -145.647694
 0.070000   33.109516   -147.959905
 0.075000   32.365520   -149.316279
 0.080000   31.616353   -149.903615
 0.085000   30.866484   -149.726438
 0.090000   30.119089   -148.948286
 0.095000   29.377001   -147.539450
 0.100000   28.643694   -145.647009
 0.105000   27.920531   -143.471870
 0.110000   27.208975   -140.958574
 0.115000   26.510945   -138.081693
 0.120000   25.828158   -134.919812
 0.125000   25.161747   -131.537268
 0.130000   24.512786   -127.977135
 0.135000   23.881976   -124.284060
 0.140000   23.269945   -120.393669
 0.145000   22.678039   -116.421479
 0.150000   22.105730   -112.511624
 0.155000   21.552923   -108.615203
 0.160000   21.019578   -104.725990
 0.165000   20.505663   -100.866344
 0.170000   20.010915   -97.066411
 0.175000   19.534999   -93.336218
 0.180000   19.077553   -89.711850
 0.185000   18.637880   -86.186705
 0.190000   18.215686   -82.735406
 0.195000   17.810526   -79.385806
 0.200000   17.421828   -76.151307
 0.205000   17.049013   -73.032274
 0.210000   16.691505   -70.032318
 0.215000   16.348690   -67.095373
 0.220000   16.020551   -64.117833
 0.225000   15.707512   -61.303276
 0.230000   15.407518   -58.773927
 0.235000   15.119772   -56.390698
 0.240000   14.843611   -54.131682
 0.245000   14.578456   -51.985327
 0.250000   14.323758   -49.858475
 0.255000   14.079871   -47.723834
 0.260000   13.846520   -45.800129
 0.265000   13.621870   -44.109374
 0.270000   13.405426   -42.518676
 0.275000   13.196683   -41.028463
 0.280000   12.995141   -39.504924
 0.285000   12.801634   -38.015320
 0.290000   12.614988   -36.739898
 0.295000   12.434235   -35.596883
 0.300000   12.259019   -34.522662
 0.305000   12.089008   -33.439442
 0.310000   11.924625   -32.373961
 0.315000   11.765268   -31.466602
 0.320000   11.609959   -30.683978
 0.325000   11.458429   -29.954090
 0.330000   11.310418   -29.209054
 0.335000   11.166338   -28.499869
 0.340000   11.025419   -27.915706
 0.345000   10.887181   -27.396651
 0.350000   10.751453   -26.901364
 0.355000   10.618167   -26.383017
 0.360000   10.487623   -25.917127
 0.365000   10.358996   -25.545160
 0.370000   10.232171   -25.195755
 0.375000   10.107039   -24.833486
 0.380000   9.983836   -24.482318
 0.385000   9.862215   -24.185744
 0.390000   9.741979   -23.913241
 0.395000   9.623083   -23.635953
 0.400000   9.505619   -23.359183
 0.405000   9.389491   -23.121501
 0.410000   9.274404   -22.916241
 0.415000   9.160329   -22.714036
 0.420000   9.047264   -22.488897
 0.425000   8.935440   -22.270120
 0.430000   8.824563   -22.081881
 0.435000   8.714621   -21.895962
 0.440000   8.605603   -21.685105
 0.445000   8.497770   -21.474141
 0.450000   8.390862   -21.295838
 0.455000   8.284812   -21.126688
 0.460000   8.179595   -20.945717
 0.465000   8.075354   -20.756357
 0.470000   7.972031   -20.584158
 0.475000   7.869513   -20.424885
 0.480000   7.767782   -20.256528
 0.485000   7.666947   -20.080862
 0.490000   7.566974   -19.921537
 0.495000   7.467732   -19.775833
 0.500000   7.369215   -19.624872
 0.505000   7.271483   -19.461075
 0.510000   7.174605   -19.304618
 0.515000   7.078437   -19.162075
 0.520000   6.982984   -19.017032
 0.525000   6.888267   -18.843673
 0.530000   6.794547   -18.670235
 0.535000   6.701565   -18.523902
 0.540000   6.609308   -18.379626
 0.545000   6.517768   -18.221834
 0.550000   6.427090   -18.062348
 0.555000   6.337145   -17.918839
 0.560000   6.247901   -17.778855
 0.565000   6.159356   -17.631779
 0.570000   6.071584   -17.479251
 0.575000   5.984564   -17.338969
 0.580000   5.898194   -17.210180
 0.585000   5.812462   -17.082603
 0.590000   5.727368   -16.947218
 0.595000   5.642990   -16.820870
 0.600000   5.559159   -16.714457
 0.605000   5.475845   -16.613653
 0.610000   5.393023   -16.510541
 0.615000   5.310740   -16.406739
 0.620000   5.228955   -16.314208
 0.625000   5.147598   -16.231050
 0.630000   5.066645   -16.152032
 0.635000   4.986077   -16.075841
 0.640000   4.905886   -16.008666
 0.645000   4.825991   -15.951882
 0.650000   4.746368   -15.899742
 0.655000   4.666993   -15.852919
 0.660000   4.587838   -15.812498
 0.665000   4.508868   -15.777467
 0.670000   4.430064   -15.745466
 0.675000   4.351414   -15.715651
 0.680000   4.272907   -15.688753
 0.685000   4.194526   -15.669080
 0.690000   4.116216   -15.655968
 0.695000   4.037966   -15.645601
 0.700000   3.959760   -15.638429
 0.705000   3.881582   -15.634597
 0.710000   3.803414   -15.640569
 0.715000   3.725176   -15.649859
 0.720000   3.646916   -15.654644
 0.725000   3.568630   -15.659967
 0.730000   3.490316   -15.665631
 0.735000   3.411974   -15.673929
 0.740000   3.333577   -15.686060
 0.745000   3.255113   -15.693285
 0.750000   3.176644   -15.692500
 0.755000   3.098188   -15.687366
 0.760000   3.019770   -15.677011
 0.765000   2.941418   -15.662638
 0.770000   2.863144   -15.643764
 0.775000   2.784980   -15.617313
 0.780000   2.706971   -15.584341
 0.785000   2.629137   -15.546081
 0.790000   2.551510   -15.501175
 0.795000   2.474125   -15.449404
 0.800000   2.397016   -15.388568
 0.805000   2.320240   -15.315681
 0.810000   2.243859   -15.232972
 0.815000   2.167910   -15.141550
 0.820000   2.092444   -15.039292
 0.825000   2.017517   -14.925418
 0.830000   1.943190   -14.799247
 0.835000   1.869524   -14.660547
 0.840000   1.796584   -14.501705
 0.845000   1.724507   -14.323605
 0.850000   1.653348   -14.135764
 0.855000   1.583150   -13.936110
 0.860000   1.513987   -13.722071
 0.865000   1.445929   -13.497128
 0.870000   1.379016   -13.266991
 0.875000   1.313259   -13.035214
 0.880000   1.248663   -12.803085
 0.885000   1.185228   -12.571902
 0.890000   1.122944   -12.343603
 0.895000   1.061792   -12.115493
 0.900000   1.001790   -11.894631
 0.905000   0.942846   -11.698957
 0.910000   0.884800   -11.537900
 0.915000   0.827467   -11.423483
 0.920000   0.770565   -11.376879
 0.925000   0.713698   -11.417047
 0.930000   0.656395   -11.555286
 0.935000   0.598145   -11.782665
 0.940000   0.538568   -12.038825
 0.945000   0.477757   -12.164736
 0.950000   0.416921   -11.882877
 0.955000   0.358928   -10.997554
 0.960000   0.306945   -9.878843
 0.965000   0.260140   -9.224198
 0.970000   0.214703   -8.952785
 0.975000   0.170612   -8.303438
 0.980000   0.131669   -7.064723
 0.985000   0.099965   -5.686316
 0.990000   0.074806   -4.459516
 0.995000   0.055370   -3.629871
 1.000000   0.038507   -3.115213
201 psinorm ptot(KPa) dptot/dpsiN
 0.000000   98.168879   -44.347193
 0.005000   97.880899   -70.844901
 0.010000   97.460430   -95.631557
 0.015000   96.924583   -116.776594
 0.020000   96.292664   -134.821689
 0.025000   95.576366   -150.451298
 0.030000   94.788151   -163.621303
 0.035000   93.940153   -174.793145
 0.040000   93.040220   -184.428847
 0.045000   92.095865   -192.866264
 0.050000   91.111557   -199.998942
 0.055000   90.095875   -205.803980
 0.060000   89.053517   -210.509365
 0.065000   87.990782   -214.237481
 0.070000   86.911142   -217.108590
 0.075000   85.819696   -219.201530
 0.080000   84.719127   -220.661925
 0.085000   83.613077   -221.490200
 0.090000   82.504225   -221.806679
 0.095000   81.395010   -221.580062
 0.100000   80.288424   -220.920343
 0.105000   79.185806   -219.990165
 0.110000   78.088523   -218.745058
 0.115000   76.998356   -217.155280
 0.120000   75.916970   -215.283307
 0.125000   74.845523   -213.186511
 0.130000   73.785105   -210.906162
 0.135000   72.736461   -208.479894
 0.140000   71.700306   -205.833364
 0.145000   70.678127   -203.052673
 0.150000   69.669779   -200.258710
 0.155000   68.675540   -197.400922
 0.160000   67.695770   -194.470222
 0.165000   66.730838   -191.475785
 0.170000   65.781012   -188.431175
 0.175000   64.846526   -185.342565
 0.180000   63.927587   -182.239744
 0.185000   63.024129   -179.115794
 0.190000   62.136429   -175.944602
 0.195000   61.264683   -172.745802
 0.200000   60.408971   -169.551407
 0.205000   59.569169   -166.384186
 0.210000   58.745129   -163.257334
 0.215000   57.936596   -160.138983
 0.220000   57.143739   -156.956150
 0.225000   56.367034   -153.894013
 0.230000   55.604799   -151.058607
 0.235000   54.856448   -148.328607
 0.240000   54.121513   -145.685292
 0.245000   53.399595   -143.117847
 0.250000   52.690334   -140.550201
 0.255000   51.994093   -137.967141
 0.260000   51.310663   -135.507836
 0.265000   50.639015   -133.162066
 0.270000   49.979042   -130.837773
 0.275000   49.330637   -128.533931
 0.280000   48.693703   -126.136217
 0.285000   48.069275   -123.698997
 0.290000   47.456713   -121.365806
 0.295000   46.855617   -119.072005
 0.300000   46.265993   -116.774898
 0.305000   45.687868   -114.408714
 0.310000   45.121906   -112.000979
 0.315000   44.567858   -109.669292
 0.320000   44.025213   -107.451194
 0.325000   43.493346   -105.340429
 0.330000   42.971808   -103.262659
 0.335000   42.460719   -101.262793
 0.340000   41.959181   -99.418197
 0.345000   41.466537   -97.689016
 0.350000   40.982290   -96.037709
 0.355000   40.506160   -94.405650
 0.360000   40.038234   -92.852305
 0.365000   39.577637   -91.410041
 0.370000   39.124133   -90.012098
 0.375000   38.677516   -88.642217
 0.380000   38.237711   -87.292550
 0.385000   37.804591   -85.951982
 0.390000   37.378191   -84.593443
 0.395000   36.958656   -83.194466
 0.400000   36.546247   -81.762942
 0.405000   36.141027   -80.328739
 0.410000   35.742959   -78.889909
 0.415000   35.352128   -77.450961
 0.420000   34.968450   -76.011237
 0.425000   34.592016   -74.603506
 0.430000   34.222415   -73.256051
 0.435000   33.859455   -71.935220
 0.440000   33.503063   -70.624622
 0.445000   33.153209   -69.376203
 0.450000   32.809301   -68.219932
 0.455000   32.471009   -67.126288
 0.460000   32.138038   -66.077915
 0.465000   31.810230   -65.073027
 0.470000   31.487307   -64.139184
 0.475000   31.168838   -63.285404
 0.480000   30.854453   -62.485623
 0.485000   30.543982   -61.729956
 0.490000   30.237154   -61.033415
 0.495000   29.933648   -60.385191
 0.500000   29.633302   -59.755869
 0.505000   29.336089   -59.130569
 0.510000   29.041996   -58.529228
 0.515000   28.750797   -57.960409
 0.520000   28.462392   -57.409812
 0.525000   28.176699   -56.853770
 0.530000   27.893854   -56.317310
 0.535000   27.613526   -55.823783
 0.540000   27.335617   -55.349479
 0.545000   27.060031   -54.880196
 0.550000   26.786815   -54.425212
 0.555000   26.515779   -53.998976
 0.560000   26.246825   -53.590090
 0.565000   25.979878   -53.186905
 0.570000   25.714956   -52.788695
 0.575000   25.451991   -52.410518
 0.580000   25.190851   -52.050373
 0.585000   24.931487   -51.697748
 0.590000   24.673873   -51.343645
 0.595000   24.418051   -51.003129
 0.600000   24.163842   -50.686955
 0.605000   23.911181   -50.382846
 0.610000   23.660013   -50.083018
 0.615000   23.410351   -49.787605
 0.620000   23.162137   -49.508578
 0.625000   22.915265   -49.240592
 0.630000   22.669731   -48.974049
 0.635000   22.425525   -48.708058
 0.640000   22.182651   -48.446841
 0.645000   21.941057   -48.190076
 0.650000   21.700750   -47.934002
 0.655000   21.461717   -47.679406
 0.660000   21.223956   -47.427512
 0.665000   20.987441   -47.179282
 0.670000   20.752163   -46.929924
 0.675000   20.518142   -46.672840
 0.680000   20.285435   -46.398953
 0.685000   20.054153   -46.093934
 0.690000   19.824495   -45.748554
 0.695000   19.596667   -45.365227
 0.700000   19.370843   -44.949372
 0.705000   19.147173   -44.506764
 0.710000   18.925776   -44.040276
 0.715000   18.706771   -43.553598
 0.720000   18.490240   -43.061749
 0.725000   18.276153   -42.575160
 0.730000   18.064488   -42.097247
 0.735000   17.855181   -41.638389
 0.740000   17.648104   -41.205032
 0.745000   17.443130   -40.802018
 0.750000   17.240084   -40.439528
 0.755000   17.038735   -40.121458
 0.760000   16.838869   -39.846494
 0.765000   16.640270   -39.614543
 0.770000   16.442724   -39.427110
 0.775000   16.245999   -39.269435
 0.780000   16.050030   -39.102797
 0.785000   15.854971   -38.911007
 0.790000   15.660919   -38.698298
 0.795000   15.467988   -38.462882
 0.800000   15.276291   -38.204293
 0.805000   15.085945   -37.922172
 0.810000   14.897069   -37.624673
 0.815000   14.709698   -37.326894
 0.820000   14.523800   -37.038552
 0.825000   14.339313   -36.763779
 0.830000   14.156162   -36.505271
 0.835000   13.974260   -36.264939
 0.840000   13.793513   -36.032025
 0.845000   13.613940   -35.812923
 0.850000   13.435384   -35.630541
 0.855000   13.257635   -35.490194
 0.860000   13.080482   -35.396909
 0.865000   12.903665   -35.374672
 0.870000   12.726735   -35.412463
 0.875000   12.549541   -35.506304
 0.880000   12.371672   -35.698307
 0.885000   12.192558   -36.025483
 0.890000   12.011417   -36.538848
 0.895000   11.827169   -37.372586
 0.900000   11.637691   -38.553662
 0.905000   11.441633   -40.120587
 0.910000   11.236485   -42.265029
 0.915000   11.018982   -45.164159
 0.920000   10.784844   -49.047290
 0.925000   10.528509   -54.377661
 0.930000   10.241067   -61.444641
 0.935000   9.914063   -70.860445
 0.940000   9.532463   -84.717107
 0.945000   9.066892   -108.046337
 0.950000   8.451999   -150.771838
 0.955000   7.559174   -218.210617
 0.960000   6.269893   -279.366094
 0.965000   4.765513   -279.667644
 0.970000   3.473217   -221.153028
 0.975000   2.553982   -154.806291
 0.980000   1.925154   -106.672999
 0.985000   1.487252   -75.046182
 0.990000   1.174692   -54.024783
 0.995000   0.947005   -39.869194
 1.000000   0.776000   -28.532608
201 psinorm omeg(kRad/s) domeg/dpsiN
 0.000000   62.758420   0.034711
 0.005000   62.757967   -0.215828
 0.010000   62.756261   -0.525267
 0.015000   62.752714   -0.966564
 0.020000   62.746596   -1.564758
 0.025000   62.737067   -2.339514
 0.030000   62.723201   -3.304322
 0.035000   62.704023   -4.463784
 0.040000   62.678563   -5.799960
 0.045000   62.646024   -7.289981
 0.050000   62.605663   -8.913265
 0.055000   62.556891   -10.635419
 0.060000   62.499309   -12.417049
 0.065000   62.432721   -14.215722
 0.070000   62.357152   -15.934132
 0.075000   62.273379   -17.564362
 0.080000   62.181508   -19.167451
 0.085000   62.081705   -20.732199
 0.090000   61.974186   -22.263461
 0.095000   61.859070   -23.780750
 0.100000   61.736378   -25.261987
 0.105000   61.606450   -26.728504
 0.110000   61.469093   -28.216849
 0.115000   61.324282   -29.699672
 0.120000   61.172097   -31.179398
 0.125000   61.012488   -32.688090
 0.130000   60.845216   -34.263022
 0.135000   60.669858   -35.939239
 0.140000   60.485823   -37.699633
 0.145000   60.292861   -39.501138
 0.150000   60.090812   -41.334558
 0.155000   59.879516   -43.200914
 0.160000   59.658803   -45.104244
 0.165000   59.428473   -47.026551
 0.170000   59.188537   -48.923795
 0.175000   58.939235   -50.769321
 0.180000   58.680844   -52.552246
 0.185000   58.413713   -54.259065
 0.190000   58.138253   -55.866455
 0.195000   57.855048   -57.346013
 0.200000   57.564793   -58.710379
 0.205000   57.267945   -59.962760
 0.210000   56.965166   -61.078023
 0.215000   56.657164   -62.049867
 0.220000   56.344667   -62.857196
 0.225000   56.028592   -63.472080
 0.230000   55.709946   -63.983416
 0.235000   55.388758   -64.448583
 0.240000   55.065460   -64.836277
 0.245000   54.740395   -65.164069
 0.250000   54.413820   -65.439183
 0.255000   54.086004   -65.647568
 0.260000   53.757344   -65.842136
 0.265000   53.427582   -66.048752
 0.270000   53.096857   -66.233518
 0.275000   52.765247   -66.407841
 0.280000   52.432778   -66.582729
 0.285000   52.099420   -66.788439
 0.290000   51.764894   -67.038242
 0.295000   51.429037   -67.305350
 0.300000   51.091840   -67.551952
 0.305000   50.753518   -67.728448
 0.310000   50.414556   -67.777126
 0.315000   50.075747   -67.628554
 0.320000   49.738270   -67.240268
 0.325000   49.403344   -66.632201
 0.330000   49.071948   -65.832050
 0.335000   48.745023   -64.849722
 0.340000   48.423451   -63.698508
 0.345000   48.108038   -62.318484
 0.350000   47.800266   -60.787292
 0.355000   47.500165   -59.226093
 0.360000   47.208005   -57.613168
 0.365000   46.924034   -55.962837
 0.370000   46.648377   -54.298926
 0.375000   46.381044   -52.592447
 0.380000   46.122452   -50.908577
 0.385000   45.871959   -49.308170
 0.390000   45.629371   -47.726140
 0.395000   45.394697   -46.145000
 0.400000   45.167921   -44.573329
 0.405000   44.948964   -42.995236
 0.410000   44.737968   -41.502026
 0.415000   44.533944   -40.264610
 0.420000   44.335322   -39.352165
 0.425000   44.140422   -38.777805
 0.430000   43.947544   -38.525772
 0.435000   43.755164   -38.655542
 0.440000   43.560989   -39.092740
 0.445000   43.364237   -39.536928
 0.450000   43.165620   -39.880560
 0.455000   42.965431   -40.134682
 0.460000   42.764273   -40.241428
 0.465000   42.563017   -40.236412
 0.470000   42.361909   -40.054460
 0.475000   42.162472   -39.456761
 0.480000   41.967341   -38.450183
 0.485000   41.777971   -37.167178
 0.490000   41.595669   -35.644829
 0.495000   41.421522   -33.939989
 0.500000   41.256269   -32.090935
 0.505000   41.100613   -30.168117
 0.510000   40.954588   -28.310266
 0.515000   40.817510   -26.613887
 0.520000   40.688449   -25.121045
 0.525000   40.566300   -23.855327
 0.530000   40.449896   -22.822667
 0.535000   40.338073   -22.058446
 0.540000   40.229312   -21.586978
 0.545000   40.122203   -21.396472
 0.550000   40.015347   -21.483997
 0.555000   39.907363   -21.839433
 0.560000   39.796952   -22.439665
 0.565000   39.682967   -23.309041
 0.570000   39.563862   -24.461736
 0.575000   39.438349   -25.871127
 0.580000   39.305151   -27.536409
 0.585000   39.162985   -29.459222
 0.590000   39.010559   -31.640231
 0.595000   38.846583   -34.049561
 0.600000   38.670063   -36.629866
 0.605000   38.480284   -39.335437
 0.610000   38.276709   -42.131241
 0.615000   38.058972   -44.983130
 0.620000   37.826877   -47.821136
 0.625000   37.580761   -50.636110
 0.630000   37.320516   -53.442152
 0.635000   37.046339   -56.197212
 0.640000   36.758544   -58.880898
 0.645000   36.457530   -61.479137
 0.650000   36.143753   -63.961865
 0.655000   35.817911   -66.437917
 0.660000   35.479374   -69.039456
 0.665000   35.127517   -71.772641
 0.670000   34.761647   -74.652856
 0.675000   34.380988   -77.685422
 0.680000   33.984793   -80.946124
 0.685000   33.571527   -84.204391
 0.690000   33.142749   -87.079712
 0.695000   32.700730   -89.529785
 0.700000   32.247451   -91.580695
 0.705000   31.784923   -93.230011
 0.710000   31.315151   -94.497263
 0.715000   30.839950   -95.313690
 0.720000   30.362014   -95.593591
 0.725000   29.884014   -95.357300
 0.730000   29.408441   -94.624701
 0.735000   28.937767   -93.404977
 0.740000   28.474391   -91.700388
 0.745000   28.020764   -89.538309
 0.750000   27.579008   -87.061279
 0.755000   27.150151   -84.458615
 0.760000   26.734422   -81.866275
 0.765000   26.331488   -79.368011
 0.770000   25.940742   -77.043359
 0.775000   25.561054   -74.832663
 0.780000   25.192415   -72.439142
 0.785000   24.836663   -69.768152
 0.790000   24.494734   -66.944714
 0.795000   24.167216   -64.052960
 0.800000   23.854204   -61.223767
 0.805000   23.554978   -58.636423
 0.810000   23.267840   -56.418964
 0.815000   22.990789   -54.697375
 0.820000   22.720866   -53.619357
 0.825000   22.454595   -53.290662
 0.830000   22.187960   -53.840948
 0.835000   21.916186   -55.402625
 0.840000   21.633933   -57.983875
 0.845000   21.336347   -61.738147
 0.850000   21.016552   -66.977029
 0.855000   20.666577   -73.916287
 0.860000   20.277389   -82.795853
 0.865000   19.838618   -94.117737
 0.870000   19.336212   -107.659137
 0.875000   18.762027   -122.988730
 0.880000   18.106324   -140.101151
 0.885000   17.361015   -158.557187
 0.890000   16.520753   -177.704910
 0.895000   15.583966   -197.184106
 0.900000   14.548911   -215.133871
 0.905000   13.432627   -229.647026
 0.910000   12.252441   -240.075340
 0.915000   11.031874   -245.278452
 0.920000   9.799657   -244.387148
 0.925000   8.588002   -236.965991
 0.930000   7.429997   -222.759177
 0.935000   6.360411   -202.301663
 0.940000   5.406980   -177.110187
 0.945000   4.589309   -149.025632
 0.950000   3.916724   -120.159769
 0.955000   3.387711   -92.326178
 0.960000   2.993462   -67.530939
 0.965000   2.712402   -47.198021
 0.970000   2.521482   -31.458844
 0.975000   2.397813   -20.139734
 0.980000   2.320085   -12.795180
 0.985000   2.269861   -8.756126
 0.990000   2.232523   -7.317543
 0.995000   2.196686   -7.797720
 1.000000   2.154546   -9.058279
201 psinorm omegp(kRad/s) domegp/dpsiN
 0.000000   0.008715   107.786878
 0.005000   0.445853   67.068537
 0.010000   0.679400   45.042092
 0.015000   0.896274   43.019227
 0.020000   1.109592   42.397606
 0.025000   1.320250   41.529757
 0.030000   1.524890   39.986887
 0.035000   1.720119   38.309624
 0.040000   1.907986   36.725345
 0.045000   2.087372   35.096971
 0.050000   2.258956   33.731453
 0.055000   2.424687   32.839320
 0.060000   2.587349   32.366698
 0.065000   2.748354   32.048048
 0.070000   2.907829   31.788479
 0.075000   3.066239   31.415946
 0.080000   3.221989   30.737555
 0.085000   3.373614   29.787732
 0.090000   3.519866   28.475081
 0.095000   3.658365   26.920186
 0.100000   3.789068   25.256161
 0.105000   3.910927   23.570958
 0.110000   4.024778   22.010845
 0.115000   4.131035   20.577757
 0.120000   4.230555   19.476391
 0.125000   4.325799   18.766052
 0.130000   4.418216   18.307280
 0.135000   4.508872   17.958762
 0.140000   4.597803   17.616373
 0.145000   4.685036   17.220260
 0.150000   4.770006   16.601145
 0.155000   4.851047   15.770300
 0.160000   4.927709   14.720365
 0.165000   4.998251   13.562163
 0.170000   5.063331   12.234151
 0.175000   5.120592   10.717951
 0.180000   5.170510   9.112901
 0.185000   5.211721   7.407613
 0.190000   5.244586   5.777486
 0.195000   5.269496   4.126365
 0.200000   5.285850   2.662007
 0.205000   5.296116   1.308601
 0.210000   5.298936   0.086569
 0.215000   5.296982   -0.781671
 0.220000   5.291119   -1.619245
 0.225000   5.280789   -2.328111
 0.230000   5.267838   -3.015662
 0.235000   5.250633   -3.859910
 0.240000   5.229239   -4.684313
 0.245000   5.203790   -5.659184
 0.250000   5.172647   -6.720598
 0.255000   5.136584   -7.769122
 0.260000   5.094956   -8.956071
 0.265000   5.047023   -10.073494
 0.270000   4.994221   -11.141076
 0.275000   4.935612   -12.305859
 0.280000   4.871162   -13.332890
 0.285000   4.802283   -14.365433
 0.290000   4.727508   -15.544737
 0.295000   4.646836   -16.687145
 0.300000   4.560637   -17.940348
 0.305000   4.467432   -19.355241
 0.310000   4.367084   -20.782451
 0.315000   4.259608   -22.349359
 0.320000   4.143591   -24.084264
 0.325000   4.018765   -25.779118
 0.330000   3.885799   -27.401491
 0.335000   3.744750   -28.890016
 0.340000   3.596899   -30.092633
 0.345000   3.443824   -31.070727
 0.350000   3.286192   -31.742404
 0.355000   3.126400   -32.048125
 0.360000   2.965711   -32.223625
 0.365000   2.804164   -32.325531
 0.370000   2.642455   -32.287439
 0.375000   2.481289   -32.234125
 0.380000   2.320114   -32.252447
 0.385000   2.158765   -32.414802
 0.390000   1.995966   -32.824401
 0.395000   1.830521   -33.372678
 0.400000   1.662239   -33.897595
 0.405000   1.491545   -34.354145
 0.410000   1.318698   -34.894832
 0.415000   1.142597   -36.003015
 0.420000   0.958668   -38.204360
 0.425000   0.760553   -41.722071
 0.430000   0.541447   -46.595233
 0.435000   0.294601   -52.948760
 0.440000   0.011959   -61.242788
 0.445000   -0.317827   -70.217417
 0.450000   -0.690215   -78.691167
 0.455000   -1.104739   -86.793890
 0.460000   -1.558154   -93.965865
 0.465000   -2.044398   -99.737098
 0.470000   -2.555525   -103.134039
 0.475000   -3.075738   -103.190399
 0.480000   -3.587429   -100.182559
 0.485000   -4.077564   -94.746827
 0.490000   -4.534897   -87.244219
 0.495000   -4.950006   -77.709759
 0.500000   -5.311994   -66.889435
 0.505000   -5.618900   -56.560763
 0.510000   -5.877602   -47.422865
 0.515000   -6.093129   -39.484108
 0.520000   -6.272443   -32.975036
 0.525000   -6.422879   -27.939455
 0.530000   -6.551838   -24.815793
 0.535000   -6.671037   -23.407077
 0.540000   -6.785908   -22.619479
 0.545000   -6.897232   -21.955815
 0.550000   -7.005467   -21.385646
 0.555000   -7.111088   -20.853421
 0.560000   -7.214001   -20.185647
 0.565000   -7.312945   -19.330858
 0.570000   -7.407309   -18.403871
 0.575000   -7.496983   -17.339658
 0.580000   -7.580706   -16.095005
 0.585000   -7.657933   -14.789203
 0.590000   -7.728598   -13.414485
 0.595000   -7.792078   -11.948036
 0.600000   -7.848078   -10.475715
 0.605000   -7.896835   -9.101587
 0.610000   -7.939094   -7.770965
 0.615000   -7.974545   -6.432393
 0.620000   -8.003418   -5.245402
 0.625000   -8.026999   -4.224072
 0.630000   -8.045659   -3.264022
 0.635000   -8.059639   -2.374987
 0.640000   -8.069409   -1.626203
 0.645000   -8.075901   -0.939672
 0.650000   -8.078806   -0.238664
 0.655000   -8.078288   0.403825
 0.660000   -8.074767   0.988233
 0.665000   -8.068406   1.570855
 0.670000   -8.059059   2.151688
 0.675000   -8.046889   2.661891
 0.680000   -8.032440   3.160536
 0.685000   -8.015283   3.730492
 0.690000   -7.995135   4.355483
 0.695000   -7.971729   5.032604
 0.700000   -7.944809   5.830810
 0.705000   -7.913421   6.771560
 0.710000   -7.877093   7.740128
 0.715000   -7.836019   8.688703
 0.720000   -7.790206   9.608292
 0.725000   -7.739936   10.428830
 0.730000   -7.685918   11.047686
 0.735000   -7.629459   11.417735
 0.740000   -7.571741   11.544750
 0.745000   -7.514012   11.426741
 0.750000   -7.457473   11.087218
 0.755000   -7.403140   10.591430
 0.760000   -7.351559   9.966731
 0.765000   -7.303472   9.341991
 0.770000   -7.258139   8.887419
 0.775000   -7.214598   8.609442
 0.780000   -7.172045   8.475513
 0.785000   -7.129843   8.424034
 0.790000   -7.087804   8.481660
 0.795000   -7.045027   8.501504
 0.800000   -7.002789   8.267153
 0.805000   -6.962355   7.766972
 0.810000   -6.925119   7.014358
 0.815000   -6.892211   6.044954
 0.820000   -6.864670   4.890244
 0.825000   -6.843309   3.644252
 0.830000   -6.828227   2.440456
 0.835000   -6.818904   1.364474
 0.840000   -6.814583   0.437301
 0.845000   -6.814531   -0.309364
 0.850000   -6.817676   -0.852289
 0.855000   -6.823054   -1.256692
 0.860000   -6.830243   -1.596769
 0.865000   -6.839022   -1.873327
 0.870000   -6.848976   -2.101722
 0.875000   -6.860039   -2.343182
 0.880000   -6.872408   -2.639343
 0.885000   -6.886433   -2.953938
 0.890000   -6.901948   -3.238015
 0.895000   -6.918813   -3.504991
 0.900000   -6.936998   -3.742331
 0.905000   -6.956236   -3.944221
 0.910000   -6.976440   -4.147794
 0.915000   -6.997714   -4.353047
 0.920000   -7.019970   -4.598680
 0.925000   -7.043701   -4.943726
 0.930000   -7.069407   -5.258837
 0.935000   -7.096289   -3.780925
 0.940000   -7.107217   -1.841334
 0.945000   -7.114703   0.155665
 0.950000   -7.105660   6.391269
 0.955000   -7.050790   20.950325
 0.960000   -6.896157   47.564166
 0.965000   -6.575148   92.876581
 0.970000   -5.967391   161.651351
 0.975000   -4.958635   249.881534
 0.980000   -3.468576   344.593444
 0.985000   -1.512700   419.150567
 0.990000   0.722930   443.621375
 0.995000   2.923513   400.017320
 1.000000   4.723103   319.818566
201 psinorm omgvb(kRad/s) domgvb/dpsiN
 0.000000   62.767134   107.821589
 0.005000   63.203820   66.852709
 0.010000   63.435661   44.516825
 0.015000   63.648988   42.052663
 0.020000   63.856188   40.832848
 0.025000   64.057317   39.190242
 0.030000   64.248090   36.682565
 0.035000   64.424142   33.845841
 0.040000   64.586549   30.925385
 0.045000   64.733396   27.806990
 0.050000   64.864619   24.818188
 0.055000   64.981578   22.203902
 0.060000   65.086658   19.949649
 0.065000   65.181075   17.832326
 0.070000   65.264981   15.854347
 0.075000   65.339618   13.851584
 0.080000   65.403497   11.570104
 0.085000   65.455319   9.055533
 0.090000   65.494052   6.211620
 0.095000   65.517435   3.139437
 0.100000   65.525446   -0.005826
 0.105000   65.517377   -3.157546
 0.110000   65.493871   -6.206004
 0.115000   65.455317   -9.121915
 0.120000   65.402652   -11.703007
 0.125000   65.338287   -13.922037
 0.130000   65.263431   -15.955742
 0.135000   65.178729   -17.980477
 0.140000   65.083627   -20.083260
 0.145000   64.977897   -22.280878
 0.150000   64.860818   -24.733413
 0.155000   64.730563   -27.430613
 0.160000   64.586512   -30.383879
 0.165000   64.426724   -33.464388
 0.170000   64.251868   -36.689644
 0.175000   64.059828   -40.051371
 0.180000   63.851354   -43.439345
 0.185000   63.625434   -46.851452
 0.190000   63.382840   -50.088969
 0.195000   63.124544   -53.219648
 0.200000   62.850643   -56.048371
 0.205000   62.564061   -58.654159
 0.210000   62.264102   -60.991454
 0.215000   61.954146   -62.831538
 0.220000   61.635786   -64.476441
 0.225000   61.309382   -65.800191
 0.230000   60.977784   -66.999078
 0.235000   60.639391   -68.308493
 0.240000   60.294699   -69.520590
 0.245000   59.944185   -70.823252
 0.250000   59.586467   -72.159781
 0.255000   59.222587   -73.416690
 0.260000   58.852300   -74.798207
 0.265000   58.474605   -76.122246
 0.270000   58.091078   -77.374594
 0.275000   57.700859   -78.713700
 0.280000   57.303941   -79.915620
 0.285000   56.901703   -81.153872
 0.290000   56.492402   -82.582980
 0.295000   56.075873   -83.992496
 0.300000   55.652477   -85.492300
 0.305000   55.220950   -87.083689
 0.310000   54.781640   -88.559577
 0.315000   54.335354   -89.977912
 0.320000   53.881861   -91.324532
 0.325000   53.422109   -92.411319
 0.330000   52.957748   -93.233541
 0.335000   52.489774   -93.739737
 0.340000   52.020350   -93.791141
 0.345000   51.551862   -93.389212
 0.350000   51.086458   -92.529696
 0.355000   50.626565   -91.274218
 0.360000   50.173716   -89.836793
 0.365000   49.728197   -88.288369
 0.370000   49.290832   -86.586365
 0.375000   48.862334   -84.826572
 0.380000   48.442567   -83.161024
 0.385000   48.030724   -81.722972
 0.390000   47.625337   -80.550540
 0.395000   47.225218   -79.517678
 0.400000   46.830160   -78.470924
 0.405000   46.440509   -77.349381
 0.410000   46.056666   -76.396858
 0.415000   45.676540   -76.267625
 0.420000   45.293990   -77.556525
 0.425000   44.900975   -80.499876
 0.430000   44.488991   -85.121005
 0.435000   44.049765   -91.604302
 0.440000   43.572948   -100.335528
 0.445000   43.046410   -109.754345
 0.450000   42.475405   -118.571728
 0.455000   41.860692   -126.928572
 0.460000   41.206119   -134.207293
 0.465000   40.518620   -139.973510
 0.470000   39.806384   -143.188499
 0.475000   39.086735   -142.647160
 0.480000   38.379912   -138.632742
 0.485000   37.700407   -131.914005
 0.490000   37.060772   -122.889048
 0.495000   36.471517   -111.649748
 0.500000   35.944275   -98.980370
 0.505000   35.481713   -86.728880
 0.510000   35.076986   -75.733131
 0.515000   34.724382   -66.097995
 0.520000   34.416006   -58.096081
 0.525000   34.143421   -51.794781
 0.530000   33.898058   -47.638460
 0.535000   33.667036   -45.465522
 0.540000   33.443403   -44.206457
 0.545000   33.224972   -43.352287
 0.550000   33.009880   -42.869643
 0.555000   32.796275   -42.692854
 0.560000   32.582952   -42.625312
 0.565000   32.370022   -42.639899
 0.570000   32.156553   -42.865606
 0.575000   31.941366   -43.210785
 0.580000   31.724445   -43.631414
 0.585000   31.505052   -44.248425
 0.590000   31.281961   -45.054716
 0.595000   31.054505   -45.997597
 0.600000   30.821985   -47.105581
 0.605000   30.583449   -48.437024
 0.610000   30.337614   -49.902206
 0.615000   30.084427   -51.415523
 0.620000   29.823459   -53.066538
 0.625000   29.553761   -54.860182
 0.630000   29.274857   -56.706175
 0.635000   28.986700   -58.572200
 0.640000   28.689135   -60.507101
 0.645000   28.381629   -62.418809
 0.650000   28.064947   -64.200529
 0.655000   27.739623   -66.034091
 0.660000   27.404606   -68.051223
 0.665000   27.059111   -70.201786
 0.670000   26.702588   -72.501168
 0.675000   26.334100   -75.023530
 0.680000   25.952353   -77.785589
 0.685000   25.556244   -80.473900
 0.690000   25.147614   -82.724229
 0.695000   24.729001   -84.497181
 0.700000   24.302642   -85.749884
 0.705000   23.871502   -86.458451
 0.710000   23.438058   -86.757134
 0.715000   23.003931   -86.624988
 0.720000   22.571808   -85.985299
 0.725000   22.144078   -84.928470
 0.730000   21.722523   -83.577015
 0.735000   21.308308   -81.987242
 0.740000   20.902651   -80.155638
 0.745000   20.506752   -78.111568
 0.750000   20.121535   -75.974062
 0.755000   19.747011   -73.867185
 0.760000   19.382863   -71.899544
 0.765000   19.028016   -70.026020
 0.770000   18.682603   -68.155941
 0.775000   18.346456   -66.223221
 0.780000   18.020371   -63.963629
 0.785000   17.706820   -61.344118
 0.790000   17.406930   -58.463055
 0.795000   17.122189   -55.551456
 0.800000   16.851415   -52.956614
 0.805000   16.592623   -50.869450
 0.810000   16.342721   -49.404605
 0.815000   16.098577   -48.652421
 0.820000   15.856196   -48.729113
 0.825000   15.611286   -49.646410
 0.830000   15.359732   -51.400493
 0.835000   15.097281   -54.038150
 0.840000   14.819351   -57.546573
 0.845000   14.521815   -62.047511
 0.850000   14.198876   -67.829319
 0.855000   13.843522   -75.172979
 0.860000   13.447146   -84.392621
 0.865000   12.999596   -95.991063
 0.870000   12.487235   -109.760859
 0.875000   11.901987   -125.331912
 0.880000   11.233916   -142.740493
 0.885000   10.474582   -161.511125
 0.890000   9.618805   -180.942925
 0.895000   8.665153   -200.689097
 0.900000   7.611914   -218.876203
 0.905000   6.476391   -233.591247
 0.910000   5.276001   -244.223134
 0.915000   4.034160   -249.631499
 0.920000   2.779686   -248.985828
 0.925000   1.544302   -241.909717
 0.930000   0.360589   -228.018013
 0.935000   -0.735879   -206.082588
 0.940000   -1.700237   -178.951521
 0.945000   -2.525394   -148.869967
 0.950000   -3.188936   -113.768499
 0.955000   -3.663079   -71.375853
 0.960000   -3.902695   -19.966772
 0.965000   -3.862747   45.678560
 0.970000   -3.445909   130.192507
 0.975000   -2.560821   229.741800
 0.980000   -1.148491   331.798264
 0.985000   0.757161   410.394441
 0.990000   2.955453   436.303832
 0.995000   5.120199   392.219600
 1.000000   6.877649   310.760286
201 psinorm omgpp(kRad/s) domgpp/dpsiN
 0.000000   -0.039269   -19.395939
 0.005000   -0.157764   -28.001830
 0.010000   -0.319288   -32.708901
 0.015000   -0.484853   -33.486074
 0.020000   -0.654149   -34.191837
 0.025000   -0.826771   -34.816490
 0.030000   -1.002313   -35.366949
 0.035000   -1.180441   -35.837661
 0.040000   -1.360690   -36.215271
 0.045000   -1.542593   -36.499690
 0.050000   -1.725687   -36.680492
 0.055000   -1.909398   -36.739701
 0.060000   -2.093084   -36.684467
 0.065000   -2.276243   -36.459031
 0.070000   -2.457674   -36.032489
 0.075000   -2.636568   -35.457027
 0.080000   -2.812245   -34.736380
 0.085000   -2.983932   -33.853865
 0.090000   -3.150783   -33.077775
 0.095000   -3.314710   -32.347852
 0.100000   -3.474262   -31.452953
 0.105000   -3.629239   -30.522683
 0.110000   -3.779489   -29.552980
 0.115000   -3.924769   -28.561529
 0.120000   -4.065104   -27.879600
 0.125000   -4.203565   -27.410609
 0.130000   -4.339210   -26.807901
 0.135000   -4.471644   -26.088059
 0.140000   -4.600090   -25.181311
 0.145000   -4.723457   -24.153169
 0.150000   -4.841622   -22.892760
 0.155000   -4.952385   -21.441819
 0.160000   -5.056040   -19.947072
 0.165000   -5.151855   -18.299246
 0.170000   -5.239033   -16.499624
 0.175000   -5.316852   -14.404560
 0.180000   -5.383078   -12.252599
 0.185000   -5.439377   -10.243006
 0.190000   -5.485508   -8.210072
 0.195000   -5.521478   -6.223283
 0.200000   -5.547741   -4.369308
 0.205000   -5.565171   -2.646873
 0.210000   -5.574210   -1.688675
 0.215000   -5.582058   -1.298598
 0.220000   -5.587196   -0.761835
 0.225000   -5.589676   -0.269008
 0.230000   -5.589886   0.157463
 0.235000   -5.588102   0.142563
 0.240000   -5.588460   0.199805
 0.245000   -5.586104   0.935689
 0.250000   -5.579104   1.892384
 0.255000   -5.567180   3.018141
 0.260000   -5.548922   4.412683
 0.265000   -5.523053   5.758085
 0.270000   -5.491341   7.572397
 0.275000   -5.447329   10.003954
 0.280000   -5.391302   12.218404
 0.285000   -5.325145   14.239894
 0.290000   -5.248903   16.245803
 0.295000   -5.162687   18.392792
 0.300000   -5.064975   20.868786
 0.305000   -4.953999   23.102851
 0.310000   -4.833946   24.608961
 0.315000   -4.707910   25.445626
 0.320000   -4.579490   25.613582
 0.325000   -4.451774   25.352797
 0.330000   -4.325962   24.602305
 0.335000   -4.205751   23.465920
 0.340000   -4.091303   22.513456
 0.345000   -3.980616   21.785219
 0.350000   -3.873451   21.117787
 0.355000   -3.769438   20.345888
 0.360000   -3.669992   19.374614
 0.365000   -3.575692   19.145621
 0.370000   -3.478536   19.473158
 0.375000   -3.380961   19.687596
 0.380000   -3.281660   20.181282
 0.385000   -3.179148   20.945079
 0.390000   -3.072209   22.174413
 0.395000   -2.957404   23.935902
 0.400000   -2.832850   25.365102
 0.405000   -2.703753   26.108593
 0.410000   -2.571764   26.502420
 0.415000   -2.438728   26.582008
 0.420000   -2.305944   26.745812
 0.425000   -2.171270   26.002607
 0.430000   -2.045918   24.522518
 0.435000   -1.926045   23.373028
 0.440000   -1.812188   22.130038
 0.445000   -1.704745   20.815142
 0.450000   -1.604036   19.881679
 0.455000   -1.505928   18.282531
 0.460000   -1.421211   16.162664
 0.465000   -1.344301   14.598731
 0.470000   -1.275224   13.028180
 0.475000   -1.214019   11.442177
 0.480000   -1.160802   9.814267
 0.485000   -1.115877   8.040096
 0.490000   -1.080401   6.496915
 0.495000   -1.050908   5.406220
 0.500000   -1.026339   4.456598
 0.505000   -1.006342   3.529486
 0.510000   -0.991044   2.519116
 0.515000   -0.981150   1.449306
 0.520000   -0.976551   0.411644
 0.525000   -0.977034   -0.591113
 0.530000   -0.982462   -1.562288
 0.535000   -0.992657   -2.495477
 0.540000   -1.007417   -3.415707
 0.545000   -1.026814   -4.270063
 0.550000   -1.050117   -5.035021
 0.555000   -1.077164   -5.778282
 0.560000   -1.107900   -6.497509
 0.565000   -1.142139   -7.182008
 0.570000   -1.179720   -7.843141
 0.575000   -1.220571   -8.455245
 0.580000   -1.264273   -8.996291
 0.585000   -1.310534   -9.492396
 0.590000   -1.359197   -9.956026
 0.595000   -1.410094   -10.390112
 0.600000   -1.463098   -10.826665
 0.605000   -1.518361   -11.269226
 0.610000   -1.575790   -11.645662
 0.615000   -1.634817   -11.963318
 0.620000   -1.695423   -12.257988
 0.625000   -1.757397   -12.512018
 0.630000   -1.820543   -12.779992
 0.635000   -1.885197   -13.037335
 0.640000   -1.950917   -13.060923
 0.645000   -2.015806   -12.946779
 0.650000   -2.080384   -12.871097
 0.655000   -2.144517   -12.764983
 0.660000   -2.208034   -12.698263
 0.665000   -2.271500   -12.835065
 0.670000   -2.336385   -13.090040
 0.675000   -2.402400   -13.651327
 0.680000   -2.472898   -14.594085
 0.685000   -2.548341   -15.578855
 0.690000   -2.628687   -16.706873
 0.695000   -2.715410   -18.503326
 0.700000   -2.813720   -19.028430
 0.705000   -2.905694   -18.371891
 0.710000   -2.997439   -18.131124
 0.715000   -3.087005   -17.455122
 0.720000   -3.171990   -16.333722
 0.725000   -3.250343   -15.012908
 0.730000   -3.322119   -11.723268
 0.735000   -3.367575   -7.169328
 0.740000   -3.393812   -3.121741
 0.745000   -3.398793   1.254284
 0.750000   -3.381270   5.776702
 0.755000   -3.341026   11.276314
 0.760000   -3.268507   15.835208
 0.765000   -3.182674   18.562812
 0.770000   -3.082878   20.970816
 0.775000   -2.972965   22.593083
 0.780000   -2.856948   23.425407
 0.785000   -2.738711   24.304604
 0.790000   -2.613902   23.403774
 0.795000   -2.504674   20.948697
 0.800000   -2.404415   19.127991
 0.805000   -2.313394   17.247153
 0.810000   -2.231943   15.409334
 0.815000   -2.159300   13.782654
 0.820000   -2.094116   12.900744
 0.825000   -2.030293   12.665814
 0.830000   -1.967458   12.370625
 0.835000   -1.906587   11.875900
 0.840000   -1.848699   11.129377
 0.845000   -1.795293   9.763446
 0.850000   -1.751065   7.800968
 0.855000   -1.717283   5.623850
 0.860000   -1.694826   3.066951
 0.865000   -1.686614   0.049367
 0.870000   -1.694333   -3.292082
 0.875000   -1.719534   -7.733781
 0.880000   -1.771671   -13.105237
 0.885000   -1.850587   -18.552988
 0.890000   -1.957200   -25.216104
 0.895000   -2.102748   -33.790293
 0.900000   -2.295103   -44.142008
 0.905000   -2.544168   -59.341300
 0.910000   -2.888516   -79.847676
 0.915000   -3.342645   -101.033211
 0.920000   -3.898848   -128.310701
 0.925000   -4.625752   -169.023693
 0.930000   -5.589085   -224.650229
 0.935000   -6.872254   -303.103731
 0.940000   -8.620123   -404.610432
 0.945000   -10.918358   -498.345165
 0.950000   -13.603574   -568.986363
 0.955000   -16.608222   -601.931218
 0.960000   -19.622887   -556.379877
 0.965000   -22.172021   -414.155863
 0.970000   -23.764445   -178.056509
 0.975000   -23.952586   123.208477
 0.980000   -22.532360   398.085664
 0.985000   -19.971729   571.491766
 0.990000   -16.817443   630.743543
 0.995000   -13.664294   585.737172
 1.000000   -10.960071   495.951928
201 psinorm omgeb(kRad/s) domgeb/dpsiN
 0.000000   62.727865   88.425650
 0.005000   63.046056   38.850878
 0.010000   63.116374   11.807924
 0.015000   63.164135   8.566589
 0.020000   63.202039   6.641011
 0.025000   63.230545   4.373752
 0.030000   63.245777   1.315616
 0.035000   63.243702   -1.991821
 0.040000   63.225859   -5.289885
 0.045000   63.190803   -8.692700
 0.050000   63.138932   -11.862304
 0.055000   63.072180   -14.535799
 0.060000   62.993574   -16.734818
 0.065000   62.904832   -18.626705
 0.070000   62.807307   -20.178143
 0.075000   62.703050   -21.605443
 0.080000   62.591252   -23.166276
 0.085000   62.471387   -24.798331
 0.090000   62.343269   -26.866155
 0.095000   62.202726   -29.208415
 0.100000   62.051185   -31.458779
 0.105000   61.888138   -33.680229
 0.110000   61.714383   -35.758984
 0.115000   61.530548   -37.683444
 0.120000   61.337548   -39.582607
 0.125000   61.134722   -41.332646
 0.130000   60.924222   -42.763642
 0.135000   60.707086   -44.068536
 0.140000   60.483536   -45.264570
 0.145000   60.254440   -46.434047
 0.150000   60.019196   -47.626173
 0.155000   59.778178   -48.872432
 0.160000   59.530471   -50.330952
 0.165000   59.274869   -51.763634
 0.170000   59.012835   -53.189268
 0.175000   58.742976   -54.455931
 0.180000   58.468276   -55.691944
 0.185000   58.186057   -57.094458
 0.190000   57.897331   -58.299042
 0.195000   57.603066   -59.442931
 0.200000   57.302902   -60.417679
 0.205000   56.998889   -61.301032
 0.210000   56.689892   -62.680128
 0.215000   56.372088   -64.130136
 0.220000   56.048590   -65.238276
 0.225000   55.719705   -66.069199
 0.230000   55.387898   -66.841615
 0.235000   55.051289   -68.165931
 0.240000   54.706239   -69.320785
 0.245000   54.358081   -69.887564
 0.250000   54.007363   -70.267397
 0.255000   53.655407   -70.398549
 0.260000   53.303378   -70.385524
 0.265000   52.951552   -70.364161
 0.270000   52.599736   -69.802198
 0.275000   52.253530   -68.709746
 0.280000   51.912639   -67.697215
 0.285000   51.576558   -66.913978
 0.290000   51.243499   -66.337177
 0.295000   50.913186   -65.599704
 0.300000   50.587502   -64.623513
 0.305000   50.266951   -63.980838
 0.310000   49.947694   -63.950616
 0.315000   49.627445   -64.532286
 0.320000   49.302371   -65.710950
 0.325000   48.970335   -67.058522
 0.330000   48.631785   -68.631236
 0.335000   48.284023   -70.273817
 0.340000   47.929047   -71.277685
 0.345000   47.571246   -71.603993
 0.350000   47.213007   -71.411908
 0.355000   46.857127   -70.928330
 0.360000   46.503724   -70.462179
 0.365000   46.152505   -69.142747
 0.370000   45.812297   -67.113206
 0.375000   45.481373   -65.138976
 0.380000   45.160907   -62.979742
 0.385000   44.851576   -60.777893
 0.390000   44.553128   -58.376128
 0.395000   44.267815   -55.581776
 0.400000   43.997310   -53.105822
 0.405000   43.736756   -51.240788
 0.410000   43.484902   -49.894438
 0.415000   43.237812   -49.685617
 0.420000   42.988046   -50.810714
 0.425000   42.729705   -54.497269
 0.430000   42.443073   -60.598487
 0.435000   42.123720   -68.231274
 0.440000   41.760761   -78.205490
 0.445000   41.341665   -88.939203
 0.450000   40.871369   -98.690049
 0.455000   40.354765   -108.646041
 0.460000   39.784908   -118.044629
 0.465000   39.174318   -125.374779
 0.470000   38.531160   -130.160319
 0.475000   37.872715   -131.204984
 0.480000   37.219111   -128.818475
 0.485000   36.584530   -123.873909
 0.490000   35.980371   -116.392133
 0.495000   35.420609   -106.243528
 0.500000   34.917936   -94.523772
 0.505000   34.475371   -83.199394
 0.510000   34.085942   -73.214015
 0.515000   33.743231   -64.648689
 0.520000   33.439455   -57.684437
 0.525000   33.166387   -52.385894
 0.530000   32.915596   -49.200748
 0.535000   32.674379   -47.960999
 0.540000   32.435986   -47.622164
 0.545000   32.198158   -47.622350
 0.550000   31.959763   -47.904664
 0.555000   31.719111   -48.471137
 0.560000   31.475052   -49.122821
 0.565000   31.227883   -49.821907
 0.570000   30.976833   -50.708747
 0.575000   30.720795   -51.666031
 0.580000   30.460172   -52.627705
 0.585000   30.194518   -53.740822
 0.590000   29.922764   -55.010742
 0.595000   29.644411   -56.387709
 0.600000   29.358887   -57.932247
 0.605000   29.065088   -59.706251
 0.610000   28.761824   -61.547867
 0.615000   28.449610   -63.378841
 0.620000   28.128036   -65.324526
 0.625000   27.796364   -67.372201
 0.630000   27.454314   -69.486167
 0.635000   27.101503   -71.609535
 0.640000   26.738219   -73.568024
 0.645000   26.365823   -75.365588
 0.650000   25.984563   -77.071626
 0.655000   25.595106   -78.799074
 0.660000   25.196572   -80.749486
 0.665000   24.787611   -83.036851
 0.670000   24.366204   -85.591208
 0.675000   23.931699   -88.674858
 0.680000   23.479455   -92.379674
 0.685000   23.007903   -96.052755
 0.690000   22.518927   -99.431102
 0.695000   22.013592   -103.000508
 0.700000   21.488922   -104.778315
 0.705000   20.965808   -104.830343
 0.710000   20.440619   -104.888259
 0.715000   19.916926   -104.080109
 0.720000   19.399818   -102.319021
 0.725000   18.893736   -99.941378
 0.730000   18.400404   -95.300284
 0.735000   17.940733   -89.156570
 0.740000   17.508838   -83.277379
 0.745000   17.107959   -76.857284
 0.750000   16.740265   -70.197359
 0.755000   16.405985   -62.590871
 0.760000   16.114357   -56.064336
 0.765000   15.845342   -51.463209
 0.770000   15.599725   -47.185125
 0.775000   15.373491   -43.630137
 0.780000   15.163423   -40.538221
 0.785000   14.968109   -37.039514
 0.790000   14.793028   -35.059281
 0.795000   14.617516   -34.602759
 0.800000   14.447001   -33.828624
 0.805000   14.279230   -33.622298
 0.810000   14.110778   -33.995272
 0.815000   13.939277   -34.869768
 0.820000   13.762080   -35.828369
 0.825000   13.580993   -36.980596
 0.830000   13.392274   -39.029868
 0.835000   13.190694   -42.162250
 0.840000   12.970651   -46.417196
 0.845000   12.726523   -52.284066
 0.850000   12.447811   -60.028351
 0.855000   12.126239   -69.549129
 0.860000   11.752320   -81.325671
 0.865000   11.312982   -95.941696
 0.870000   10.792903   -113.052940
 0.875000   10.182453   -133.065693
 0.880000   9.462246   -155.845730
 0.885000   8.623996   -180.064113
 0.890000   7.661604   -206.159029
 0.895000   6.562405   -234.479390
 0.900000   5.316811   -263.018211
 0.905000   3.932223   -292.932547
 0.910000   2.387485   -324.070811
 0.915000   0.691515   -350.664710
 0.920000   -1.119162   -377.296528
 0.925000   -3.081450   -410.933410
 0.930000   -5.228496   -452.668243
 0.935000   -7.608133   -509.186318
 0.940000   -10.320359   -583.561953
 0.945000   -13.443752   -647.215133
 0.950000   -16.792511   -682.754863
 0.955000   -20.271301   -673.307071
 0.960000   -23.525581   -576.346649
 0.965000   -26.034767   -368.477303
 0.970000   -27.210354   -47.864003
 0.975000   -26.513407   352.950276
 0.980000   -23.680852   729.883928
 0.985000   -19.214568   981.886206
 0.990000   -13.861990   1067.047375
 0.995000   -8.544094   977.956772
 1.000000   -4.082422   806.712214
201 psinorm er(kV/m) der/dpsiN
 0.000000   1.014890   1125.654035
 0.005000   5.559822   692.318747
 0.010000   7.938077   423.112545
 0.015000   9.790947   339.990018
 0.020000   11.337978   292.038884
 0.025000   12.711336   261.772174
 0.030000   13.955699   238.658066
 0.035000   15.097917   219.864230
 0.040000   16.154342   204.417633
 0.045000   17.142093   191.900254
 0.050000   18.073344   180.731760
 0.055000   18.949411   169.942646
 0.060000   19.772771   159.492747
 0.065000   20.544338   153.021915
 0.070000   21.302990   147.051865
 0.075000   22.014857   137.207834
 0.080000   22.675068   132.560048
 0.085000   23.340457   127.633382
 0.090000   23.951402   120.089205
 0.095000   24.541349   116.309239
 0.100000   25.114494   108.962627
 0.105000   25.630976   105.335396
 0.110000   26.167848   99.538766
 0.115000   26.626363   95.283961
 0.120000   27.120688   90.796709
 0.125000   27.534330   86.567947
 0.130000   27.986367   82.171616
 0.135000   28.356047   78.817506
 0.140000   28.774542   74.325959
 0.145000   29.099306   70.701419
 0.150000   29.481557   68.095019
 0.155000   29.780256   63.225991
 0.160000   30.113817   61.774185
 0.165000   30.397998   56.056937
 0.170000   30.674386   55.062794
 0.175000   30.948626   49.341472
 0.180000   31.167801   48.423304
 0.185000   31.432859   43.302555
 0.190000   31.600826   39.438597
 0.195000   31.827245   40.716235
 0.200000   32.007989   33.729474
 0.205000   32.164540   34.616182
 0.210000   32.354150   28.231606
 0.215000   32.446856   24.851257
 0.220000   32.602663   27.067359
 0.225000   32.717530   19.737301
 0.230000   32.800036   20.185195
 0.235000   32.919382   16.291009
 0.240000   32.962946   11.726826
 0.245000   33.036650   14.793779
 0.250000   33.110884   7.860197
 0.255000   33.115252   6.353010
 0.260000   33.174414   8.930823
 0.265000   33.204560   2.536344
 0.270000   33.199777   3.297856
 0.275000   33.237539   3.745587
 0.280000   33.237233   -0.534302
 0.285000   33.232196   1.744891
 0.290000   33.254682   -0.221040
 0.295000   33.229985   -3.448572
 0.300000   33.220196   -0.143912
 0.305000   33.228546   -3.292400
 0.310000   33.187272   -6.191743
 0.315000   33.166629   -3.641138
 0.320000   33.150861   -8.361702
 0.325000   33.083012   -11.773327
 0.330000   33.033128   -10.103956
 0.335000   32.981972   -14.887964
 0.340000   32.884248   -17.935635
 0.345000   32.802616   -15.895635
 0.350000   32.725292   -18.732825
 0.355000   32.615287   -20.767784
 0.360000   32.517614   -18.774064
 0.365000   32.427547   -19.854410
 0.370000   32.319070   -20.898352
 0.375000   32.218563   -18.496425
 0.380000   32.134106   -17.855507
 0.385000   32.040008   -18.893943
 0.390000   31.945166   -16.870862
 0.395000   31.871300   -14.747142
 0.400000   31.797695   -15.551006
 0.405000   31.715790   -14.470779
 0.410000   31.652987   -12.647325
 0.415000   31.589316   -14.969768
 0.420000   31.503289   -16.561424
 0.425000   31.423702   -18.179501
 0.430000   31.321494   -24.606753
 0.435000   31.177635   -31.450553
 0.440000   31.006989   -38.321616
 0.445000   30.794418   -47.298181
 0.450000   30.534007   -56.123934
 0.455000   30.233179   -63.923362
 0.460000   29.894773   -71.256881
 0.465000   29.520610   -78.413148
 0.470000   29.110642   -82.875175
 0.475000   28.691858   -83.665065
 0.480000   28.273991   -83.268647
 0.485000   27.859172   -80.572269
 0.490000   27.468268   -74.944742
 0.495000   27.109725   -67.885045
 0.500000   26.789418   -60.027439
 0.505000   26.509450   -51.748671
 0.510000   26.271931   -44.093562
 0.515000   26.068515   -38.478323
 0.520000   25.887148   -33.635777
 0.525000   25.732157   -29.347082
 0.530000   25.593677   -27.464320
 0.535000   25.457514   -27.194695
 0.540000   25.321730   -26.998502
 0.545000   25.187529   -27.063881
 0.550000   25.051092   -28.092400
 0.555000   24.906605   -28.887943
 0.560000   24.762212   -29.177590
 0.565000   24.614829   -30.342557
 0.570000   24.458787   -31.632307
 0.575000   24.298506   -32.319624
 0.580000   24.135590   -33.177616
 0.585000   23.966729   -34.863197
 0.590000   23.786958   -36.136697
 0.595000   23.605362   -36.943977
 0.600000   23.417519   -38.810766
 0.605000   23.217255   -40.802421
 0.610000   23.009494   -42.130225
 0.615000   22.795953   -43.631929
 0.620000   22.573175   -46.069386
 0.625000   22.335259   -47.958597
 0.630000   22.093589   -49.259836
 0.635000   21.842660   -51.578446
 0.640000   21.577805   -53.804148
 0.645000   21.304619   -55.110912
 0.650000   21.026695   -56.333563
 0.655000   20.741283   -58.763126
 0.660000   20.439064   -60.645104
 0.665000   20.134832   -61.925712
 0.670000   19.819807   -64.507778
 0.675000   19.489754   -67.805632
 0.680000   19.141751   -70.763371
 0.685000   18.782121   -73.426098
 0.690000   18.407490   -77.139736
 0.695000   18.010723   -80.526666
 0.700000   17.602223   -81.473391
 0.705000   17.195989   -81.681208
 0.710000   16.785411   -82.792690
 0.715000   16.368063   -82.223082
 0.720000   15.963180   -80.143381
 0.725000   15.566629   -78.917982
 0.730000   15.174000   -75.810952
 0.735000   14.808519   -70.385159
 0.740000   14.470149   -65.181857
 0.745000   14.156701   -60.976126
 0.750000   13.860388   -55.757774
 0.755000   13.599123   -48.659291
 0.760000   13.373795   -43.463656
 0.765000   13.164486   -40.535282
 0.770000   12.968442   -36.895069
 0.775000   12.795536   -33.284088
 0.780000   12.635601   -31.249203
 0.785000   12.483044   -28.825588
 0.790000   12.347345   -26.840234
 0.795000   12.214641   -26.165131
 0.800000   12.085694   -26.179387
 0.805000   11.952847   -26.207809
 0.810000   11.823616   -26.029170
 0.815000   11.692556   -26.801916
 0.820000   11.555597   -28.211375
 0.825000   11.410442   -29.195414
 0.830000   11.263642   -30.479937
 0.835000   11.105643   -33.402623
 0.840000   10.929616   -37.397494
 0.845000   10.731668   -42.243639
 0.850000   10.507180   -48.564036
 0.855000   10.246027   -57.020949
 0.860000   9.936970   -67.273840
 0.865000   9.573289   -79.484769
 0.870000   9.142123   -93.965265
 0.875000   8.633636   -111.532167
 0.880000   8.026801   -131.121249
 0.885000   7.322424   -151.487442
 0.890000   6.511927   -173.930443
 0.895000   5.583119   -198.781779
 0.900000   4.524109   -223.340864
 0.905000   3.349711   -248.673292
 0.910000   2.037376   -275.812393
 0.915000   0.591587   -299.377918
 0.920000   -0.956403   -322.161294
 0.925000   -2.630026   -350.672874
 0.930000   -4.463132   -387.677698
 0.935000   -6.506803   -437.772294
 0.940000   -8.840855   -501.491927
 0.945000   -11.521722   -555.407064
 0.950000   -14.394926   -612.718231
 0.955000   -17.648905   -619.377917
 0.960000   -20.588705   -517.949702
 0.965000   -22.828402   -331.217886
 0.970000   -23.900884   -86.739874
 0.975000   -23.695801   268.431323
 0.980000   -21.216571   645.452229
 0.985000   -17.241278   875.744337
 0.990000   -12.459127   959.292470
 0.995000   -7.648354   879.412706
 1.000000   -3.665000   713.928699
201 psinorm ommvb() dommvb/dpsiN
 0.000000   -49.886926   17021.124676
 0.005000   26.168139   13400.901214
 0.010000   84.122086   11248.272482
 0.015000   138.650864   10103.866783
 0.020000   185.160754   8825.385871
 0.025000   226.904722   7655.177270
 0.030000   261.712527   6556.352332
 0.035000   292.468246   5834.460343
 0.040000   320.057130   5272.201806
 0.045000   345.190264   4737.145674
 0.050000   367.428587   4135.855347
 0.055000   386.548817   3716.424982
 0.060000   404.592837   3227.539265
 0.065000   418.824210   2775.816782
 0.070000   432.351004   2491.301032
 0.075000   443.737220   2122.970512
 0.080000   453.580710   1834.701988
 0.085000   462.084240   1560.344910
 0.090000   469.184159   1301.672223
 0.095000   475.100962   1077.383914
 0.100000   479.957998   880.949044
 0.105000   483.910453   653.221981
 0.110000   486.490218   382.366206
 0.115000   487.734115   189.430875
 0.120000   488.384526   39.577536
 0.125000   488.129890   -139.073150
 0.130000   486.993795   -303.614952
 0.135000   485.093741   -488.869859
 0.140000   482.105096   -677.666727
 0.145000   478.317073   -783.998296
 0.150000   474.265113   -861.238326
 0.155000   469.704690   -967.358182
 0.160000   464.591531   -1072.939693
 0.165000   458.975293   -1162.743129
 0.170000   452.964100   -1238.490391
 0.175000   446.590389   -1300.340093
 0.180000   439.960699   -1337.611594
 0.185000   433.214273   -1395.364626
 0.190000   426.007053   -1500.004477
 0.195000   418.214228   -1662.794907
 0.200000   409.379104   -1652.451122
 0.205000   401.689717   -1539.134277
 0.210000   393.987761   -1540.281968
 0.215000   386.286898   -1537.608065
 0.220000   378.611681   -1540.538967
 0.225000   370.881508   -1548.132030
 0.230000   363.130360   -1546.840891
 0.235000   355.413099   -1709.310628
 0.240000   346.037254   -1640.076296
 0.245000   339.012336   -1387.445970
 0.250000   332.162794   -1350.006663
 0.255000   325.512269   -1310.260715
 0.260000   319.060187   -1270.501460
 0.265000   312.807255   -1447.776585
 0.270000   304.582421   -1375.992070
 0.275000   299.047334   -1074.629907
 0.280000   293.836122   -1025.888338
 0.285000   288.788451   -991.842565
 0.290000   283.917697   -1064.065822
 0.295000   278.147792   -1085.140899
 0.300000   273.066288   -895.326673
 0.305000   269.194526   -751.319897
 0.310000   265.553089   -705.340734
 0.315000   262.141118   -755.709856
 0.320000   257.995990   -752.655692
 0.325000   254.614561   -579.019077
 0.330000   252.205799   -464.613329
 0.335000   249.968428   -432.313591
 0.340000   247.882663   -504.743272
 0.345000   244.920995   -459.948660
 0.350000   243.283177   -298.529014
 0.355000   241.935705   -255.554780
 0.360000   240.727629   -263.601742
 0.365000   239.299688   -278.077730
 0.370000   237.946852   -198.053826
 0.375000   237.319150   -115.244364
 0.380000   236.794408   -94.658856
 0.385000   236.372561   -152.640795
 0.390000   235.268000   -133.225555
 0.395000   235.040306   -28.821483
 0.400000   234.979785   1.658271
 0.405000   235.056888   -16.389685
 0.410000   234.815888   -16.407318
 0.415000   234.892815   34.037655
 0.420000   235.156265   52.839219
 0.425000   235.421207   24.519322
 0.430000   235.401458   -6.919303
 0.435000   235.352014   14.645406
 0.440000   235.547912   34.970258
 0.445000   235.701717   14.400387
 0.450000   235.691916   -20.174845
 0.455000   235.499968   -1.189939
 0.460000   235.680017   30.245835
 0.465000   235.802427   13.103369
 0.470000   235.811050   -32.127616
 0.475000   235.481151   -17.525554
 0.480000   235.635795   35.714455
 0.485000   235.838295   46.466714
 0.490000   236.100462   19.907726
 0.495000   236.037372   32.378048
 0.500000   236.424242   89.070041
 0.505000   236.928073   106.916500
 0.510000   237.493407   85.971978
 0.515000   237.787793   80.390238
 0.520000   238.297310   109.497293
 0.525000   238.882765   116.896296
 0.530000   239.466273   102.802717
 0.535000   239.910793   91.015832
 0.540000   240.376431   122.633258
 0.545000   241.137125   152.877393
 0.550000   241.905205   145.735837
 0.555000   242.594484   106.733195
 0.560000   242.972537   119.991628
 0.565000   243.794400   166.868069
 0.570000   244.641218   171.874799
 0.575000   245.513148   145.083598
 0.580000   246.092054   149.394762
 0.585000   247.007095   197.524719
 0.590000   248.067301   218.697261
 0.595000   249.194068   223.548044
 0.600000   250.302781   232.343277
 0.605000   251.517501   264.986549
 0.610000   252.952647   292.433406
 0.615000   254.441835   304.901460
 0.620000   256.001661   312.237136
 0.625000   257.564206   336.896077
 0.630000   259.370622   378.799527
 0.635000   261.352202   410.020813
 0.640000   263.470830   438.472966
 0.645000   265.736931   468.177825
 0.650000   268.152609   505.784514
 0.655000   270.794776   542.111576
 0.660000   273.573724   570.989070
 0.665000   276.504667   605.226350
 0.670000   279.625988   646.232910
 0.675000   282.966996   677.357189
 0.680000   286.399560   704.361588
 0.685000   290.010612   744.414610
 0.690000   293.843706   795.034521
 0.695000   297.960957   865.979227
 0.700000   302.503498   917.040420
 0.705000   307.131361   951.481988
 0.710000   312.018318   1004.669351
 0.715000   317.178055   1060.147265
 0.720000   322.619791   1139.289802
 0.725000   328.570953   1210.578962
 0.730000   334.725580   1256.367299
 0.735000   341.134626   1315.293091
 0.740000   347.878511   1383.154657
 0.745000   354.966173   1452.599079
 0.750000   362.404502   1539.430033
 0.755000   370.360473   1601.611160
 0.760000   378.420613   1645.547055
 0.765000   386.815943   1714.914359
 0.770000   395.569757   1789.401744
 0.775000   404.709961   1871.401101
 0.780000   414.283768   1961.609882
 0.785000   424.326060   2041.812039
 0.790000   434.701888   2117.924109
 0.795000   445.505301   2205.716174
 0.800000   456.759050   2295.355111
 0.805000   468.458852   2386.389404
 0.810000   480.622944   2483.155199
 0.815000   493.290404   2569.102892
 0.820000   506.313973   2626.444657
 0.825000   519.554850   2719.291062
 0.830000   533.506884   2842.417852
 0.835000   547.979029   2947.004483
 0.840000   562.976929   3050.218196
 0.845000   578.481211   3150.372990
 0.850000   594.480659   3249.991324
 0.855000   610.981124   3351.552179
 0.860000   627.996180   3413.462537
 0.865000   645.115749   3499.416831
 0.870000   662.990349   3785.743778
 0.875000   682.973187   4156.502970
 0.880000   704.555378   4509.789362
 0.885000   728.071081   4939.996483
 0.890000   753.955343   5470.015172
 0.895000   782.771233   6149.339624
 0.900000   815.448739   7058.982259
 0.905000   853.361055   8299.305273
 0.910000   898.441792   10038.678418
 0.915000   953.747839   12552.309836
 0.920000   1023.964890   16170.030321
 0.925000   1115.448143   21223.638268
 0.930000   1236.201273   28048.182932
 0.935000   1395.929972   36574.849610
 0.940000   1601.949769   45292.575573
 0.945000   1848.855728   49551.150523
 0.950000   2097.461275   42711.580967
 0.955000   2275.971537   30406.478532
 0.960000   2401.526060   42938.270090
 0.965000   2705.354238   87167.817572
 0.970000   3273.204236   108207.970318
 0.975000   3787.433941   71282.865493
 0.980000   3986.032890   18090.072738
 0.985000   3968.334669   -5885.397806
 0.990000   3927.178912   -971.191221
 0.995000   3958.622757   203683.695454
 1.000000   5964.015867   598473.548709
201 psinorm ommpp() dommpp/dpsiN
 0.000000   112.614791   -16932.699026
 0.005000   36.877917   -13362.050335
 0.010000   -21.005713   -11236.464558
 0.015000   -75.486728   -10095.300194
 0.020000   -121.958715   -8818.744860
 0.025000   -163.674177   -7650.803518
 0.030000   -198.466750   -6555.036716
 0.035000   -229.224544   -5836.452163
 0.040000   -256.831271   -5277.491691
 0.045000   -281.999461   -4745.838374
 0.050000   -304.289655   -4147.717651
 0.055000   -323.476637   -3730.960782
 0.060000   -341.599263   -3244.274083
 0.065000   -355.919378   -2794.443487
 0.070000   -369.543698   -2511.479175
 0.075000   -381.034170   -2144.575955
 0.080000   -390.989457   -1857.868265
 0.085000   -399.612853   -1585.143241
 0.090000   -406.840890   -1328.538379
 0.095000   -412.898236   -1106.592329
 0.100000   -417.906813   -912.407823
 0.105000   -422.022315   -686.902210
 0.110000   -424.775835   -418.125190
 0.115000   -426.203567   -227.114320
 0.120000   -427.046978   -79.160142
 0.125000   -426.995168   97.740504
 0.130000   -426.069573   260.851309
 0.135000   -424.386655   444.801323
 0.140000   -421.621560   632.402157
 0.145000   -418.062633   737.564249
 0.150000   -414.245918   813.612153
 0.155000   -409.926512   918.485750
 0.160000   -405.061060   1022.608741
 0.165000   -399.700424   1110.979495
 0.170000   -393.951265   1185.301122
 0.175000   -387.847413   1245.884162
 0.180000   -381.492423   1281.919649
 0.185000   -375.028217   1338.270168
 0.190000   -368.109722   1441.705436
 0.195000   -360.611162   1603.351976
 0.200000   -352.076202   1592.033442
 0.205000   -344.690828   1477.833245
 0.210000   -337.297870   1477.601839
 0.215000   -329.914809   1473.477928
 0.220000   -322.563090   1475.300691
 0.225000   -315.161803   1482.062831
 0.230000   -307.742462   1479.999276
 0.235000   -300.361810   1641.144697
 0.240000   -291.331015   1570.755510
 0.245000   -284.654255   1317.558406
 0.250000   -278.155431   1279.739265
 0.255000   -271.856862   1239.862167
 0.260000   -265.756809   1200.115936
 0.265000   -259.855703   1377.412424
 0.270000   -251.982685   1306.189872
 0.275000   -246.793804   1005.920161
 0.280000   -241.923483   958.191123
 0.285000   -237.211893   924.928587
 0.290000   -232.674198   997.728645
 0.295000   -227.234606   1019.541195
 0.300000   -222.478786   830.703159
 0.305000   -218.927575   687.339059
 0.310000   -215.605395   641.390118
 0.315000   -212.513673   691.177570
 0.320000   -208.693619   686.944742
 0.325000   -205.644226   511.960556
 0.330000   -203.574014   395.982093
 0.335000   -201.684405   362.039773
 0.340000   -199.953616   433.465587
 0.345000   -197.349749   388.344668
 0.350000   -196.070169   227.117106
 0.355000   -195.078578   184.626450
 0.360000   -194.223905   193.139563
 0.365000   -193.147183   208.934983
 0.370000   -192.134555   130.940620
 0.375000   -191.837776   50.105388
 0.380000   -191.633501   31.679115
 0.385000   -191.520985   91.862902
 0.390000   -190.714872   74.849427
 0.395000   -190.772491   -26.760293
 0.400000   -190.982475   -54.764094
 0.405000   -191.320132   -34.851103
 0.410000   -191.330986   -33.487120
 0.415000   -191.655003   -83.723272
 0.420000   -192.168219   -103.649933
 0.425000   -192.691502   -79.016591
 0.430000   -192.958385   -53.679184
 0.435000   -193.228294   -82.876680
 0.440000   -193.787152   -113.175748
 0.445000   -194.360052   -103.339590
 0.450000   -194.820547   -78.515204
 0.455000   -195.145204   -107.456101
 0.460000   -195.895108   -148.290463
 0.465000   -196.628108   -138.478149
 0.470000   -197.279890   -98.032703
 0.475000   -197.608435   -113.679430
 0.480000   -198.416684   -164.532930
 0.485000   -199.253765   -170.340623
 0.490000   -200.120090   -136.299858
 0.495000   -200.616763   -138.621576
 0.500000   -201.506306   -183.593813
 0.505000   -202.452701   -190.115894
 0.510000   -203.407465   -159.185994
 0.515000   -204.044561   -145.038927
 0.520000   -204.857854   -167.181729
 0.525000   -205.716379   -169.282190
 0.530000   -206.550676   -152.003464
 0.535000   -207.236413   -138.976831
 0.540000   -207.940445   -170.255423
 0.545000   -208.938968   -200.499743
 0.550000   -209.945442   -193.640502
 0.555000   -210.875373   -155.204332
 0.560000   -211.497485   -169.114449
 0.565000   -212.566517   -216.689977
 0.570000   -213.664385   -222.583547
 0.575000   -214.792353   -196.749629
 0.580000   -215.631881   -202.022467
 0.585000   -216.812577   -251.265540
 0.590000   -218.144537   -273.708003
 0.595000   -219.549657   -279.935753
 0.600000   -220.943894   -290.275524
 0.605000   -222.452412   -324.692799
 0.610000   -224.190822   -353.981273
 0.615000   -225.992225   -368.280300
 0.620000   -227.873625   -377.561662
 0.625000   -229.767842   -404.268278
 0.630000   -231.916308   -448.285694
 0.635000   -234.250699   -481.630347
 0.640000   -236.732612   -512.040989
 0.645000   -239.371109   -543.543413
 0.650000   -242.168046   -582.856141
 0.655000   -245.199670   -620.910650
 0.660000   -248.377152   -651.738556
 0.665000   -251.717056   -688.263200
 0.670000   -255.259784   -731.824118
 0.675000   -259.035297   -766.032047
 0.680000   -262.920105   -796.741262
 0.685000   -267.002709   -840.467364
 0.690000   -271.324778   -894.465623
 0.695000   -275.947366   -968.979735
 0.700000   -281.014576   -1021.818734
 0.705000   -286.165553   -1056.312331
 0.710000   -291.577699   -1109.557610
 0.715000   -297.261129   -1164.227374
 0.720000   -303.219973   -1241.608823
 0.725000   -309.677217   -1310.520340
 0.730000   -316.325176   -1351.667582
 0.735000   -323.193893   -1404.449661
 0.740000   -330.369673   -1466.432036
 0.745000   -337.858213   -1529.456363
 0.750000   -345.664236   -1609.627392
 0.755000   -353.954487   -1664.202031
 0.760000   -362.306257   -1701.611391
 0.765000   -370.970601   -1766.377568
 0.770000   -379.970032   -1836.586868
 0.775000   -389.336470   -1915.031238
 0.780000   -399.120345   -2002.148103
 0.785000   -409.357951   -2078.851553
 0.790000   -419.908860   -2152.983390
 0.795000   -430.887785   -2240.318933
 0.800000   -442.312050   -2329.183735
 0.805000   -454.179622   -2420.011701
 0.810000   -466.512167   -2517.150470
 0.815000   -479.351127   -2603.972660
 0.820000   -492.551893   -2662.273026
 0.825000   -505.973857   -2756.271658
 0.830000   -520.114610   -2881.447721
 0.835000   -534.788334   -2989.166733
 0.840000   -550.006277   -3096.635392
 0.845000   -565.754688   -3202.657056
 0.850000   -582.032848   -3310.019674
 0.855000   -598.854885   -3421.101308
 0.860000   -616.243861   -3494.788207
 0.865000   -633.802767   -3595.358527
 0.870000   -652.197446   -3898.796718
 0.875000   -672.790734   -4289.568663
 0.880000   -695.093133   -4665.635092
 0.885000   -719.447085   -5120.060596
 0.890000   -746.293739   -5676.174201
 0.895000   -776.208827   -6383.819015
 0.900000   -810.131929   -7322.000470
 0.905000   -849.428832   -8592.237820
 0.910000   -896.054307   -10362.749229
 0.915000   -953.056324   -12902.974545
 0.920000   -1025.084052   -16547.326849
 0.925000   -1118.529593   -21634.571679
 0.930000   -1241.429769   -28500.851175
 0.935000   -1403.538105   -37084.035928
 0.940000   -1612.270129   -45876.137526
 0.945000   -1862.299480   -50198.365655
 0.950000   -2114.253785   -43394.335830
 0.955000   -2296.242838   -31079.785603
 0.960000   -2425.051641   -43514.616739
 0.965000   -2731.389005   -87536.294875
 0.970000   -3300.414590   -108255.834321
 0.975000   -3813.947349   -70929.915217
 0.980000   -4009.713742   -17360.188810
 0.985000   -3987.549237   6867.284012
 0.990000   -3941.040902   2038.238597
 0.995000   -3967.166851   -202705.738682
 1.000000   -5968.098289   -597666.836494
201 psinorm omevb() domevb/dpsiN
 0.000000   41.692924   93.968320
 0.005000   42.044001   46.462494
 0.010000   42.157549   20.517831
 0.015000   42.249179   17.403652
 0.020000   42.331585   15.604259
 0.025000   42.405222   13.462203
 0.030000   42.466207   10.528279
 0.035000   42.510505   7.344054
 0.040000   42.539648   4.168191
 0.045000   42.552187   0.886558
 0.050000   42.548514   -2.162891
 0.055000   42.530558   -4.717270
 0.060000   42.501341   -6.798218
 0.065000   42.462576   -8.573090
 0.070000   42.415610   -10.008574
 0.075000   42.362490   -11.320993
 0.080000   42.302400   -12.768024
 0.085000   42.234810   -14.287364
 0.090000   42.159526   -16.243567
 0.095000   42.072374   -18.475309
 0.100000   41.974773   -20.616265
 0.105000   41.866211   -22.729424
 0.110000   41.747479   -24.701012
 0.115000   41.619201   -26.519436
 0.120000   41.482285   -28.313700
 0.125000   41.336064   -29.959985
 0.130000   41.182685   -31.288377
 0.135000   41.023180   -32.491823
 0.140000   40.857767   -33.587572
 0.145000   40.687305   -34.657931
 0.150000   40.511187   -35.752113
 0.155000   40.329784   -36.901608
 0.160000   40.142171   -38.264547
 0.165000   39.947138   -39.602839
 0.170000   39.746143   -40.935277
 0.175000   39.537785   -42.109942
 0.180000   39.325043   -43.255162
 0.185000   39.105234   -44.568090
 0.190000   38.879363   -45.684299
 0.195000   38.648391   -46.741031
 0.200000   38.411952   -47.629841
 0.205000   38.172092   -48.428479
 0.210000   37.927667   -49.724088
 0.215000   37.674851   -51.091838
 0.220000   37.416749   -52.118953
 0.225000   37.153662   -52.870088
 0.230000   36.888048   -53.563954
 0.235000   36.618022   -54.810961
 0.240000   36.339939   -55.889752
 0.245000   36.059125   -56.381712
 0.250000   35.776121   -56.687975
 0.255000   35.492245   -56.746806
 0.260000   35.208653   -56.662712
 0.265000   34.925618   -56.571533
 0.270000   34.642938   -55.941008
 0.275000   34.366208   -54.781250
 0.280000   34.095126   -53.702670
 0.285000   33.829181   -52.854640
 0.290000   33.566579   -52.214304
 0.295000   33.307038   -51.414555
 0.300000   33.052434   -50.377347
 0.305000   32.803265   -49.674912
 0.310000   32.555685   -49.586191
 0.315000   32.307403   -50.110620
 0.320000   32.054578   -51.233300
 0.325000   31.795070   -52.526146
 0.330000   31.529317   -54.045392
 0.335000   31.254616   -55.635761
 0.340000   30.972959   -56.588671
 0.345000   30.688729   -56.865274
 0.350000   30.404306   -56.624739
 0.355000   30.122482   -56.093961
 0.360000   29.843367   -55.581859
 0.365000   29.566663   -54.217723
 0.370000   29.301190   -52.144724
 0.375000   29.045216   -50.128280
 0.380000   28.799907   -47.928072
 0.385000   28.565935   -45.686488
 0.390000   28.343042   -43.246224
 0.395000   28.133473   -40.414608
 0.400000   27.938896   -37.902619
 0.405000   27.754447   -36.002776
 0.410000   27.578868   -34.622843
 0.415000   27.408218   -34.381659
 0.420000   27.235052   -35.475611
 0.425000   27.053462   -39.132235
 0.430000   26.843729   -45.204731
 0.435000   26.601415   -52.810004
 0.440000   26.315629   -62.757906
 0.445000   25.973836   -73.466504
 0.450000   25.580964   -83.193428
 0.455000   25.141901   -93.126688
 0.460000   24.649697   -102.503728
 0.465000   24.116864   -109.813511
 0.470000   23.551562   -114.579858
 0.475000   22.971066   -115.606500
 0.480000   22.395497   -113.203134
 0.485000   21.839034   -108.242871
 0.490000   21.313068   -100.746552
 0.495000   20.831569   -90.584553
 0.500000   20.407223   -78.852547
 0.505000   20.043043   -67.517057
 0.510000   19.732052   -57.521698
 0.515000   19.467826   -48.947518
 0.520000   19.242577   -41.975532
 0.525000   19.048071   -36.670370
 0.530000   18.875873   -33.479712
 0.535000   18.713274   -32.235552
 0.540000   18.553518   -31.893402
 0.545000   18.394340   -31.891361
 0.550000   18.234604   -32.172530
 0.555000   18.072615   -32.738932
 0.560000   17.907215   -33.391615
 0.565000   17.738698   -34.092761
 0.570000   17.566287   -34.982715
 0.575000   17.388871   -35.944159
 0.580000   17.206846   -36.911034
 0.585000   17.019761   -38.030384
 0.590000   16.826542   -39.307562
 0.595000   16.626685   -40.692804
 0.600000   16.419614   -42.246628
 0.605000   16.204219   -44.030920
 0.610000   15.979305   -45.883820
 0.615000   15.745381   -47.727062
 0.620000   15.502034   -49.685996
 0.625000   15.248521   -51.747889
 0.630000   14.984555   -53.877037
 0.635000   14.709751   -56.016540
 0.640000   14.424390   -57.992110
 0.645000   14.129829   -59.807693
 0.650000   13.826313   -61.532679
 0.655000   13.514503   -63.279993
 0.660000   13.193513   -65.251182
 0.665000   12.861991   -67.560225
 0.670000   12.517911   -70.137151
 0.675000   12.160619   -73.244250
 0.680000   11.785468   -76.973384
 0.685000   11.390885   -80.671640
 0.690000   10.978752   -84.076005
 0.695000   10.550125   -87.672256
 0.700000   10.102029   -89.477718
 0.705000   9.655348   -89.558189
 0.710000   9.206447   -89.645311
 0.715000   8.758895   -88.867098
 0.720000   8.317776   -87.136638
 0.725000   7.887529   -84.790262
 0.730000   7.469874   -80.181011
 0.735000   7.085719   -74.069630
 0.740000   6.729177   -68.223150
 0.745000   6.403487   -61.835996
 0.750000   6.110817   -55.209047
 0.755000   5.851397   -47.635309
 0.760000   5.634464   -41.140954
 0.765000   5.439987   -36.570978
 0.770000   5.268755   -32.322407
 0.775000   5.116763   -28.794485
 0.780000   4.980810   -25.726117
 0.785000   4.859502   -22.246028
 0.790000   4.758349   -20.277625
 0.795000   4.656726   -19.823717
 0.800000   4.560112   -19.039812
 0.805000   4.466328   -18.807245
 0.810000   4.372040   -19.132261
 0.815000   4.275005   -19.930432
 0.820000   4.172736   -20.776015
 0.825000   4.067245   -21.768291
 0.830000   3.955053   -23.598378
 0.835000   3.831261   -26.438051
 0.840000   3.690672   -30.310991
 0.845000   3.528151   -35.690588
 0.850000   3.333766   -42.828848
 0.855000   3.099863   -51.618826
 0.860000   2.817578   -62.550055
 0.865000   2.474362   -76.247824
 0.870000   2.055100   -92.465668
 0.875000   1.549705   -111.804434
 0.880000   0.937055   -134.486001
 0.885000   0.204845   -159.801024
 0.890000   -0.660955   -189.228531
 0.895000   -1.687440   -224.819120
 0.900000   -2.909146   -267.283816
 0.905000   -4.360278   -322.026226
 0.910000   -6.129408   -395.383323
 0.915000   -8.314111   -491.286279
 0.920000   -11.042271   -628.590366
 0.925000   -14.600015   -835.462375
 0.930000   -19.396895   -1146.921138
 0.935000   -26.069226   -1633.843415
 0.940000   -35.735329   -2442.208055
 0.945000   -50.491307   -3839.315844
 0.950000   -74.128487   -6057.135356
 0.955000   -111.062661   -7960.760317
 0.960000   -153.736091   -6288.996766
 0.965000   -173.952628   -597.632998
 0.970000   -159.712421   4383.822549
 0.975000   -130.114403   6028.434888
 0.980000   -99.428072   5806.655623
 0.985000   -72.047846   4985.475560
 0.990000   -49.573316   3959.917175
 0.995000   -32.448675   2931.051425
 1.000000   -20.262802   1943.297734
201 psinorm omepp() domepp/dpsiN
 0.000000   21.034941   -5.542671
 0.005000   21.002055   -7.611615
 0.010000   20.958825   -8.709907
 0.015000   20.914956   -8.837063
 0.020000   20.870454   -8.963248
 0.025000   20.825323   -9.088451
 0.030000   20.779569   -9.212663
 0.035000   20.733197   -9.335875
 0.040000   20.686211   -9.458076
 0.045000   20.638616   -9.579259
 0.050000   20.590418   -9.699413
 0.055000   20.541622   -9.818529
 0.060000   20.492233   -9.936600
 0.065000   20.442256   -10.053616
 0.070000   20.391697   -10.169569
 0.075000   20.340560   -10.284450
 0.080000   20.288852   -10.398253
 0.085000   20.236578   -10.510968
 0.090000   20.183742   -10.622588
 0.095000   20.130352   -10.733106
 0.100000   20.076411   -10.842514
 0.105000   20.021927   -10.950805
 0.110000   19.966903   -11.057972
 0.115000   19.911347   -11.164008
 0.120000   19.855263   -11.268906
 0.125000   19.798658   -11.372661
 0.130000   19.741537   -11.475265
 0.135000   19.683905   -11.576713
 0.140000   19.625770   -11.676999
 0.145000   19.567135   -11.776116
 0.150000   19.508008   -11.874060
 0.155000   19.448395   -11.970824
 0.160000   19.388300   -12.066404
 0.165000   19.327731   -12.160795
 0.170000   19.266692   -12.253991
 0.175000   19.205191   -12.345989
 0.180000   19.143232   -12.436782
 0.185000   19.080823   -12.526368
 0.190000   19.017969   -12.614742
 0.195000   18.954676   -12.701900
 0.200000   18.890950   -12.787838
 0.205000   18.826797   -12.872553
 0.210000   18.762224   -12.956041
 0.215000   18.697237   -13.038298
 0.220000   18.631841   -13.119323
 0.225000   18.566044   -13.199111
 0.230000   18.499850   -13.277661
 0.235000   18.433267   -13.354969
 0.240000   18.366300   -13.431033
 0.245000   18.298957   -13.505852
 0.250000   18.231242   -13.579422
 0.255000   18.163162   -13.651743
 0.260000   18.094724   -13.722812
 0.265000   18.025934   -13.792628
 0.270000   17.956798   -13.861190
 0.275000   17.887322   -13.928496
 0.280000   17.817513   -13.994546
 0.285000   17.747377   -14.059338
 0.290000   17.676920   -14.122873
 0.295000   17.606148   -14.185149
 0.300000   17.535068   -14.246166
 0.305000   17.463686   -14.305925
 0.310000   17.392009   -14.364425
 0.315000   17.320042   -14.421667
 0.320000   17.247792   -14.477650
 0.325000   17.175266   -14.532375
 0.330000   17.102469   -14.585844
 0.335000   17.029407   -14.638057
 0.340000   16.956088   -14.689014
 0.345000   16.882517   -14.738718
 0.350000   16.808701   -14.787169
 0.355000   16.734645   -14.834370
 0.360000   16.660357   -14.880320
 0.365000   16.585842   -14.925024
 0.370000   16.511107   -14.968482
 0.375000   16.436157   -15.010696
 0.380000   16.361000   -15.051670
 0.385000   16.285641   -15.091405
 0.390000   16.210086   -15.129903
 0.395000   16.134342   -15.167169
 0.400000   16.058414   -15.203204
 0.405000   15.982310   -15.238011
 0.410000   15.906034   -15.271595
 0.415000   15.829594   -15.303958
 0.420000   15.752995   -15.335103
 0.425000   15.676243   -15.365034
 0.430000   15.599344   -15.393755
 0.435000   15.522305   -15.421271
 0.440000   15.445131   -15.447584
 0.445000   15.367829   -15.472699
 0.450000   15.290404   -15.496621
 0.455000   15.212863   -15.519353
 0.460000   15.135211   -15.540901
 0.465000   15.057454   -15.561268
 0.470000   14.979598   -15.580461
 0.475000   14.901649   -15.598483
 0.480000   14.823613   -15.615341
 0.485000   14.745496   -15.631038
 0.490000   14.667303   -15.645581
 0.495000   14.589040   -15.658975
 0.500000   14.510713   -15.671225
 0.505000   14.432328   -15.682337
 0.510000   14.353890   -15.692317
 0.515000   14.275405   -15.701171
 0.520000   14.196878   -15.708905
 0.525000   14.118316   -15.715525
 0.530000   14.039723   -15.721036
 0.535000   13.961105   -15.725447
 0.540000   13.882469   -15.728762
 0.545000   13.803818   -15.730989
 0.550000   13.725159   -15.732134
 0.555000   13.646496   -15.732204
 0.560000   13.567837   -15.731206
 0.565000   13.489184   -15.729146
 0.570000   13.410545   -15.726033
 0.575000   13.331924   -15.721872
 0.580000   13.253326   -15.716671
 0.585000   13.174757   -15.710438
 0.590000   13.096222   -15.703180
 0.595000   13.017726   -15.694904
 0.600000   12.939273   -15.685618
 0.605000   12.860869   -15.675330
 0.610000   12.782520   -15.664048
 0.615000   12.704229   -15.651778
 0.620000   12.626002   -15.638530
 0.625000   12.547844   -15.624312
 0.630000   12.469759   -15.609130
 0.635000   12.391752   -15.592995
 0.640000   12.313829   -15.575914
 0.645000   12.235993   -15.557895
 0.650000   12.158250   -15.538948
 0.655000   12.080604   -15.519081
 0.660000   12.003059   -15.498304
 0.665000   11.925621   -15.476626
 0.670000   11.848293   -15.454057
 0.675000   11.771080   -15.430608
 0.680000   11.693987   -15.406289
 0.685000   11.617017   -15.381115
 0.690000   11.540176   -15.355097
 0.695000   11.463466   -15.328252
 0.700000   11.386893   -15.300597
 0.705000   11.310460   -15.272154
 0.710000   11.234172   -15.242948
 0.715000   11.158031   -15.213011
 0.720000   11.082041   -15.182384
 0.725000   11.006207   -15.151116
 0.730000   10.930530   -15.119272
 0.735000   10.855014   -15.086940
 0.740000   10.779661   -15.054229
 0.745000   10.704472   -15.021288
 0.750000   10.629448   -14.988312
 0.755000   10.554589   -14.955562
 0.760000   10.479892   -14.923382
 0.765000   10.405355   -14.892231
 0.770000   10.330970   -14.862718
 0.775000   10.256728   -14.835653
 0.780000   10.182614   -14.812105
 0.785000   10.108607   -14.793486
 0.790000   10.034679   -14.781655
 0.795000   9.960790   -14.779042
 0.800000   9.886888   -14.788811
 0.805000   9.812902   -14.815053
 0.810000   9.738738   -14.863010
 0.815000   9.664272   -14.939336
 0.820000   9.589344   -15.052354
 0.825000   9.513748   -15.212305
 0.830000   9.437221   -15.431490
 0.835000   9.359434   -15.724199
 0.840000   9.279979   -16.106206
 0.845000   9.198371   -16.593477
 0.850000   9.114045   -17.199502
 0.855000   9.026376   -17.930303
 0.860000   8.934742   -18.775615
 0.865000   8.838620   -19.693872
 0.870000   8.737803   -20.587272
 0.875000   8.632748   -21.261260
 0.880000   8.525190   -21.359729
 0.885000   8.419150   -20.263088
 0.890000   8.322559   -16.930498
 0.895000   8.249845   -9.660270
 0.900000   8.225957   4.265605
 0.905000   8.292501   29.093679
 0.910000   8.516893   71.312512
 0.915000   9.005626   140.621569
 0.920000   9.923109   251.293838
 0.925000   11.518565   424.528964
 0.930000   14.168399   694.252896
 0.935000   18.461094   1124.657096
 0.940000   25.414970   1858.646102
 0.945000   37.047555   3192.100711
 0.950000   57.335977   5374.380493
 0.955000   90.791360   7287.453246
 0.960000   130.210509   5712.650117
 0.965000   147.917861   229.155695
 0.970000   132.502066   -4431.686551
 0.975000   103.600995   -5675.484612
 0.980000   75.747220   -5076.771694
 0.985000   52.833278   -4003.589354
 0.990000   35.711327   -2892.869800
 0.995000   23.904580   -1953.094653
 1.000000   16.180380   -1136.585520
201 psinorm kpol(km/s/T) dkpol/dpsiN
 0.000000   0.008582   109.238204
 0.005000   0.456032   69.741905
 0.010000   0.706001   48.657662
 0.015000   0.942609   47.258303
 0.020000   1.178584   47.186210
 0.025000   1.414471   46.789513
 0.030000   1.646479   45.610359
 0.035000   1.870574   44.206473
 0.040000   2.088544   42.842562
 0.045000   2.299000   41.393239
 0.050000   2.502476   40.190472
 0.055000   2.700905   39.471948
 0.060000   2.897195   39.202261
 0.065000   3.092927   39.100412
 0.070000   3.288200   39.046904
 0.075000   3.483396   38.849576
 0.080000   3.676695   38.300427
 0.085000   3.866400   37.425669
 0.090000   4.050952   36.107864
 0.095000   4.227479   34.489586
 0.100000   4.395848   32.727203
 0.105000   4.554751   30.911767
 0.110000   4.704966   29.215811
 0.115000   4.846909   27.653898
 0.120000   4.981505   26.465151
 0.125000   5.111561   25.721290
 0.130000   5.238717   25.267274
 0.135000   5.364234   24.942178
 0.140000   5.488139   24.619996
 0.145000   5.610433   24.227277
 0.150000   5.730412   23.562865
 0.155000   5.846062   22.636517
 0.160000   5.956777   21.434359
 0.165000   6.060406   20.088751
 0.170000   6.157665   18.527663
 0.175000   6.245682   16.723050
 0.180000   6.324895   14.789585
 0.185000   6.393578   12.720439
 0.190000   6.452100   10.727234
 0.195000   6.500851   8.691748
 0.200000   6.539017   6.868849
 0.205000   6.569539   5.172315
 0.210000   6.590740   3.631187
 0.215000   6.605851   2.515027
 0.220000   6.615890   1.433028
 0.225000   6.620181   0.505905
 0.230000   6.620949   -0.402915
 0.235000   6.616152   -1.511894
 0.240000   6.605831   -2.604498
 0.245000   6.590107   -3.892182
 0.250000   6.566909   -5.299022
 0.255000   6.537117   -6.700522
 0.260000   6.499904   -8.282053
 0.265000   6.454296   -9.787149
 0.270000   6.402032   -11.239544
 0.275000   6.341901   -12.820459
 0.280000   6.273827   -14.236550
 0.285000   6.199535   -15.669811
 0.290000   6.117129   -17.296779
 0.295000   6.026568   -18.887243
 0.300000   5.928257   -20.630547
 0.305000   5.820262   -22.592884
 0.310000   5.702328   -24.585835
 0.315000   5.574404   -26.771833
 0.320000   5.434610   -29.189211
 0.325000   5.282512   -31.570071
 0.330000   5.118909   -33.866960
 0.335000   4.943842   -35.998320
 0.340000   4.758926   -37.766248
 0.345000   4.566180   -39.243794
 0.350000   4.366488   -40.317891
 0.355000   4.163001   -40.911718
 0.360000   3.957371   -41.333373
 0.365000   3.749667   -41.654772
 0.370000   3.540823   -41.789586
 0.375000   3.331771   -41.902914
 0.380000   3.121794   -42.109717
 0.385000   2.910674   -42.512002
 0.390000   2.696674   -43.248932
 0.395000   2.478185   -44.174513
 0.400000   2.254929   -45.073450
 0.405000   2.027450   -45.882995
 0.410000   1.796099   -46.809242
 0.415000   1.559358   -48.515451
 0.420000   1.310944   -51.726900
 0.425000   1.042089   -56.760403
 0.430000   0.743340   -63.684328
 0.435000   0.405245   -72.685690
 0.440000   0.016483   -84.414889
 0.445000   -0.438904   -97.148718
 0.450000   -0.955004   -109.260132
 0.455000   -1.531505   -120.923042
 0.460000   -2.164234   -131.356251
 0.465000   -2.845067   -139.893215
 0.470000   -3.563166   -145.159315
 0.475000   -4.296660   -145.781640
 0.480000   -5.020983   -142.111290
 0.485000   -5.717773   -135.005597
 0.490000   -6.371039   -124.950849
 0.495000   -6.967282   -111.976579
 0.500000   -7.490805   -97.106895
 0.505000   -7.938351   -82.847273
 0.510000   -8.319277   -70.198609
 0.515000   -8.640337   -59.176152
 0.520000   -8.911039   -50.121341
 0.525000   -9.141550   -43.118520
 0.530000   -9.342224   -38.806475
 0.535000   -9.529615   -36.915803
 0.540000   -9.711382   -35.904520
 0.545000   -9.888660   -35.069524
 0.550000   -10.062077   -34.359775
 0.555000   -10.232258   -33.698450
 0.560000   -10.399062   -32.840680
 0.565000   -10.560665   -31.708715
 0.570000   -10.716149   -30.461077
 0.575000   -10.865276   -29.007135
 0.580000   -11.006220   -27.288369
 0.585000   -11.138159   -25.467404
 0.590000   -11.260894   -23.532607
 0.595000   -11.373485   -21.458143
 0.600000   -11.475476   -19.365126
 0.605000   -11.567137   -17.398791
 0.610000   -11.649464   -15.487150
 0.615000   -11.722008   -13.558894
 0.620000   -11.785053   -11.840026
 0.625000   -11.840408   -10.354193
 0.630000   -11.888595   -8.954460
 0.635000   -11.929953   -7.655370
 0.640000   -11.965148   -6.551867
 0.645000   -11.995472   -5.534570
 0.650000   -12.020494   -4.497329
 0.655000   -12.040445   -3.539023
 0.660000   -12.055884   -2.658723
 0.665000   -12.067032   -1.780161
 0.670000   -12.073686   -0.903109
 0.675000   -12.076063   -0.122363
 0.680000   -12.074909   0.645866
 0.685000   -12.069605   1.520052
 0.690000   -12.059709   2.481725
 0.695000   -12.044787   3.532303
 0.700000   -12.024386   4.770010
 0.705000   -11.997087   6.224623
 0.710000   -11.962140   7.732998
 0.715000   -11.919757   9.220517
 0.720000   -11.869935   10.667119
 0.725000   -11.813086   11.967086
 0.730000   -11.750264   12.970381
 0.735000   -11.683382   13.597663
 0.740000   -11.614287   13.848301
 0.745000   -11.544899   13.724892
 0.750000   -11.477038   13.263781
 0.755000   -11.412261   12.556643
 0.760000   -11.351472   11.642677
 0.765000   -11.295835   10.727796
 0.770000   -11.244194   10.073977
 0.775000   -11.195095   9.687253
 0.780000   -11.147321   9.520092
 0.785000   -11.099894   9.486265
 0.790000   -11.052459   9.622385
 0.795000   -11.003670   9.693877
 0.800000   -10.955520   9.369244
 0.805000   -10.909978   8.629557
 0.810000   -10.869224   7.488278
 0.815000   -10.835095   5.996009
 0.820000   -10.809264   4.207552
 0.825000   -10.793019   2.268747
 0.830000   -10.786577   0.383743
 0.835000   -10.789182   -1.310016
 0.840000   -10.799677   -2.771568
 0.845000   -10.816898   -3.952590
 0.850000   -10.839203   -4.819691
 0.855000   -10.865095   -5.470499
 0.860000   -10.893908   -6.016846
 0.865000   -10.925263   -6.465118
 0.870000   -10.958559   -6.842980
 0.875000   -10.993693   -7.241495
 0.880000   -11.030974   -7.726576
 0.885000   -11.070959   -8.245513
 0.890000   -11.113429   -8.721267
 0.895000   -11.158171   -9.168271
 0.900000   -11.205112   -9.567461
 0.905000   -11.253846   -9.913958
 0.910000   -11.304251   -10.266084
 0.915000   -11.356507   -10.618076
 0.920000   -11.410432   -11.037037
 0.925000   -11.466877   -11.625737
 0.930000   -11.526689   -12.170881
 0.935000   -11.588586   -9.781622
 0.940000   -11.624506   -6.625410
 0.945000   -11.654840   -3.354786
 0.950000   -11.658053   6.901414
 0.955000   -11.585826   30.905722
 0.960000   -11.348996   74.872501
 0.965000   -10.837101   149.883063
 0.970000   -9.850166   263.983763
 0.975000   -8.197263   410.766430
 0.980000   -5.742501   568.916671
 0.985000   -2.508096   694.290779
 0.990000   1.200406   736.967884
 0.995000   4.861582   666.533114
 1.000000   7.865738   535.128990
201 psinorm omghb() domghb/dpsiN
 0.000000   -0.000032   0.011356
 0.005000   -0.000085   -0.032363
 0.010000   -0.000356   -0.032858
 0.015000   -0.000413   -0.004785
 0.020000   -0.000404   0.009285
 0.025000   -0.000320   0.025454
 0.030000   -0.000149   0.051139
 0.035000   0.000191   0.081615
 0.040000   0.000667   0.109882
 0.045000   0.001290   0.128725
 0.050000   0.001954   0.135123
 0.055000   0.002641   0.137027
 0.060000   0.003325   0.132166
 0.065000   0.003963   0.129000
 0.070000   0.004615   0.140474
 0.075000   0.005368   0.154551
 0.080000   0.006160   0.168690
 0.085000   0.007054   0.188030
 0.090000   0.008040   0.211499
 0.095000   0.009169   0.230456
 0.100000   0.010345   0.263864
 0.105000   0.011808   0.289586
 0.110000   0.013241   0.270510
 0.115000   0.014513   0.259524
 0.120000   0.015836   0.261749
 0.125000   0.017131   0.278403
 0.130000   0.018620   0.271404
 0.135000   0.019845   0.250817
 0.140000   0.021128   0.247353
 0.145000   0.022318   0.263893
 0.150000   0.023767   0.281737
 0.155000   0.025136   0.301636
 0.160000   0.026784   0.318044
 0.165000   0.028316   0.310492
 0.170000   0.029889   0.324014
 0.175000   0.031556   0.325161
 0.180000   0.033140   0.333756
 0.185000   0.034894   0.314135
 0.190000   0.036281   0.293432
 0.195000   0.037828   0.336308
 0.200000   0.039645   0.349408
 0.205000   0.041322   0.344828
 0.210000   0.043093   0.330917
 0.215000   0.044631   0.333076
 0.220000   0.046424   0.372817
 0.225000   0.048359   0.349451
 0.230000   0.049918   0.325183
 0.235000   0.051611   0.308416
 0.240000   0.053002   0.295990
 0.245000   0.054571   0.334577
 0.250000   0.056348   0.355748
 0.255000   0.058129   0.176384
 0.260000   0.058112   0.060183
 0.265000   0.058730   0.096234
 0.270000   0.059074   0.077655
 0.275000   0.059507   0.067012
 0.280000   0.059744   0.038812
 0.285000   0.059895   -0.003495
 0.290000   0.059709   0.001173
 0.295000   0.059907   0.051026
 0.300000   0.060220   0.075593
 0.305000   0.060663   0.080218
 0.310000   0.061022   0.031352
 0.315000   0.060976   0.334845
 0.320000   0.064370   0.572114
 0.325000   0.066697   0.460258
 0.330000   0.068973   0.431383
 0.335000   0.071011   0.352777
 0.340000   0.072501   0.331493
 0.345000   0.074326   0.264142
 0.350000   0.075142   0.086417
 0.355000   0.075190   -0.032128
 0.360000   0.074821   -0.125366
 0.365000   0.073937   -0.207476
 0.370000   0.072746   -0.122328
 0.375000   0.072713   -0.251707
 0.380000   0.070229   -0.503225
 0.385000   0.067681   -0.482204
 0.390000   0.065407   -0.439296
 0.395000   0.063288   -0.397426
 0.400000   0.061433   -0.421517
 0.405000   0.059073   -0.379667
 0.410000   0.057636   -0.102158
 0.415000   0.058052   0.233949
 0.420000   0.059975   0.734072
 0.425000   0.065392   1.369663
 0.430000   0.073672   1.737076
 0.435000   0.082763   2.089731
 0.440000   0.094569   2.536327
 0.445000   0.108126   2.720146
 0.450000   0.121771   2.929100
 0.455000   0.137417   2.790880
 0.460000   0.149680   2.129893
 0.465000   0.158716   1.566370
 0.470000   0.165343   0.989305
 0.475000   0.168609   0.213464
 0.480000   0.167478   -0.754726
 0.485000   0.161062   -1.635274
 0.490000   0.151125   -2.211371
 0.495000   0.138948   -2.578939
 0.500000   0.125336   -2.739114
 0.505000   0.111557   -2.697438
 0.510000   0.098362   -2.642280
 0.515000   0.085134   -2.155205
 0.520000   0.076809   -1.432798
 0.525000   0.070806   -0.961342
 0.530000   0.067196   -0.522494
 0.535000   0.065581   -0.179562
 0.540000   0.065400   0.029394
 0.545000   0.065875   0.119133
 0.550000   0.066592   0.186470
 0.555000   0.067740   0.234122
 0.560000   0.068933   0.242689
 0.565000   0.070167   0.290557
 0.570000   0.071839   0.331444
 0.575000   0.073481   0.330706
 0.580000   0.075146   0.357031
 0.585000   0.077052   0.414786
 0.590000   0.079293   0.456133
 0.595000   0.081613   0.486289
 0.600000   0.084156   0.539363
 0.605000   0.087007   0.581552
 0.610000   0.089972   0.603923
 0.615000   0.093046   0.665721
 0.620000   0.096629   0.694980
 0.625000   0.099996   0.670877
 0.630000   0.103338   0.666286
 0.635000   0.106659   0.663639
 0.640000   0.109974   0.654193
 0.645000   0.113200   0.672830
 0.650000   0.116703   0.624119
 0.655000   0.119442   0.593307
 0.660000   0.122636   0.661437
 0.665000   0.126056   0.769653
 0.670000   0.130332   0.947592
 0.675000   0.135532   1.327132
 0.680000   0.143603   1.385757
 0.685000   0.149390   1.046826
 0.690000   0.154072   0.918453
 0.695000   0.158574   0.800962
 0.700000   0.162081   0.561894
 0.705000   0.164193   0.526864
 0.710000   0.167350   0.105460
 0.715000   0.165248   -0.631997
 0.720000   0.161030   -0.858158
 0.725000   0.156666   -1.027911
 0.730000   0.150751   -1.346081
 0.735000   0.143205   -1.663549
 0.740000   0.134115   -2.087257
 0.745000   0.122333   -2.235746
 0.750000   0.111758   -2.074795
 0.755000   0.101585   -1.957802
 0.760000   0.092180   -1.765798
 0.765000   0.083927   -1.717931
 0.770000   0.075001   -1.542497
 0.775000   0.068502   -0.883526
 0.780000   0.066165   -0.626160
 0.785000   0.062240   -0.697155
 0.790000   0.059194   -0.568545
 0.795000   0.056555   -0.468670
 0.800000   0.054507   -0.129202
 0.805000   0.055263   0.265002
 0.810000   0.057157   0.259717
 0.815000   0.057860   0.225861
 0.820000   0.059416   0.399200
 0.825000   0.061852   0.624858
 0.830000   0.065664   0.925222
 0.835000   0.071104   1.222791
 0.840000   0.077892   1.668966
 0.845000   0.087794   2.303889
 0.850000   0.100931   2.984697
 0.855000   0.117641   3.744471
 0.860000   0.138376   4.785131
 0.865000   0.165492   5.488278
 0.870000   0.193259   6.121106
 0.875000   0.226703   7.265796
 0.880000   0.265917   8.262217
 0.885000   0.309325   8.989400
 0.890000   0.355811   10.541475
 0.895000   0.414740   10.310488
 0.900000   0.458915   9.429051
 0.905000   0.509030   9.966397
 0.910000   0.558579   9.809532
 0.915000   0.607126   9.814536
 0.920000   0.656725   13.850564
 0.925000   0.745631   14.840918
 0.930000   0.805134   15.107512
 0.935000   0.896707   20.920531
 0.940000   1.014339   24.377759
 0.945000   1.140484   22.636886
 0.950000   1.240708   18.032929
 0.955000   1.320813   -13.616948
 0.960000   1.104539   -63.361325
 0.965000   0.687200   -103.557669
 0.970000   0.068962   -136.175740
 0.975000   -0.674557   -147.195979
 0.980000   -1.402998   -125.296175
 0.985000   -1.927519   -71.603934
 0.990000   -2.119037   -0.186919
 0.995000   -1.929388   62.750536
 1.000000   -1.491532   112.392001
201 psinorm nz1(10^20/m^3) dnz1/dpsiN
 0.000000   0.016418   -0.000002
 0.005000   0.016418   0.000066
 0.010000   0.016418   0.000133
 0.015000   0.016419   0.000201
 0.020000   0.016420   0.000267
 0.025000   0.016422   0.000333
 0.030000   0.016424   0.000397
 0.035000   0.016426   0.000459
 0.040000   0.016428   0.000518
 0.045000   0.016431   0.000573
 0.050000   0.016434   0.000625
 0.055000   0.016437   0.000672
 0.060000   0.016441   0.000715
 0.065000   0.016444   0.000752
 0.070000   0.016448   0.000784
 0.075000   0.016452   0.000809
 0.080000   0.016456   0.000829
 0.085000   0.016460   0.000842
 0.090000   0.016465   0.000848
 0.095000   0.016469   0.000846
 0.100000   0.016473   0.000837
 0.105000   0.016477   0.000820
 0.110000   0.016481   0.000796
 0.115000   0.016485   0.000764
 0.120000   0.016489   0.000724
 0.125000   0.016492   0.000676
 0.130000   0.016496   0.000621
 0.135000   0.016499   0.000559
 0.140000   0.016501   0.000490
 0.145000   0.016504   0.000414
 0.150000   0.016505   0.000331
 0.155000   0.016507   0.000243
 0.160000   0.016508   0.000150
 0.165000   0.016508   0.000051
 0.170000   0.016508   -0.000052
 0.175000   0.016508   -0.000158
 0.180000   0.016507   -0.000268
 0.185000   0.016505   -0.000381
 0.190000   0.016503   -0.000496
 0.195000   0.016500   -0.000612
 0.200000   0.016497   -0.000729
 0.205000   0.016493   -0.000846
 0.210000   0.016488   -0.000963
 0.215000   0.016483   -0.001079
 0.220000   0.016478   -0.001193
 0.225000   0.016471   -0.001306
 0.230000   0.016465   -0.001417
 0.235000   0.016457   -0.001528
 0.240000   0.016449   -0.001637
 0.245000   0.016441   -0.001743
 0.250000   0.016432   -0.001846
 0.255000   0.016422   -0.001947
 0.260000   0.016412   -0.002043
 0.265000   0.016402   -0.002132
 0.270000   0.016391   -0.002214
 0.275000   0.016380   -0.002287
 0.280000   0.016368   -0.002352
 0.285000   0.016356   -0.002407
 0.290000   0.016344   -0.002449
 0.295000   0.016332   -0.002479
 0.300000   0.016319   -0.002494
 0.305000   0.016307   -0.002495
 0.310000   0.016294   -0.002481
 0.315000   0.016282   -0.002452
 0.320000   0.016270   -0.002407
 0.325000   0.016258   -0.002349
 0.330000   0.016246   -0.002278
 0.335000   0.016235   -0.002196
 0.340000   0.016224   -0.002105
 0.345000   0.016214   -0.002006
 0.350000   0.016204   -0.001899
 0.355000   0.016195   -0.001784
 0.360000   0.016187   -0.001659
 0.365000   0.016179   -0.001523
 0.370000   0.016171   -0.001375
 0.375000   0.016165   -0.001214
 0.380000   0.016159   -0.001041
 0.385000   0.016154   -0.000854
 0.390000   0.016151   -0.000656
 0.395000   0.016148   -0.000449
 0.400000   0.016146   -0.000235
 0.405000   0.016145   -0.000016
 0.410000   0.016146   0.000206
 0.415000   0.016148   0.000426
 0.420000   0.016150   0.000642
 0.425000   0.016154   0.000853
 0.430000   0.016159   0.001054
 0.435000   0.016165   0.001245
 0.440000   0.016171   0.001424
 0.445000   0.016179   0.001593
 0.450000   0.016187   0.001753
 0.455000   0.016196   0.001902
 0.460000   0.016206   0.002043
 0.465000   0.016217   0.002174
 0.470000   0.016228   0.002298
 0.475000   0.016240   0.002412
 0.480000   0.016252   0.002511
 0.485000   0.016265   0.002592
 0.490000   0.016278   0.002653
 0.495000   0.016291   0.002692
 0.500000   0.016305   0.002706
 0.505000   0.016318   0.002693
 0.510000   0.016332   0.002652
 0.515000   0.016345   0.002583
 0.520000   0.016358   0.002485
 0.525000   0.016370   0.002360
 0.530000   0.016381   0.002205
 0.535000   0.016392   0.002025
 0.540000   0.016401   0.001820
 0.545000   0.016410   0.001591
 0.550000   0.016417   0.001338
 0.555000   0.016423   0.001061
 0.560000   0.016428   0.000761
 0.565000   0.016431   0.000439
 0.570000   0.016432   0.000093
 0.575000   0.016432   -0.000276
 0.580000   0.016430   -0.000670
 0.585000   0.016425   -0.001088
 0.590000   0.016419   -0.001529
 0.595000   0.016410   -0.001990
 0.600000   0.016399   -0.002471
 0.605000   0.016385   -0.002971
 0.610000   0.016369   -0.003487
 0.615000   0.016350   -0.004020
 0.620000   0.016329   -0.004572
 0.625000   0.016305   -0.005146
 0.630000   0.016277   -0.005739
 0.635000   0.016247   -0.006352
 0.640000   0.016214   -0.006984
 0.645000   0.016177   -0.007633
 0.650000   0.016138   -0.008302
 0.655000   0.016094   -0.008983
 0.660000   0.016048   -0.009666
 0.665000   0.015998   -0.010353
 0.670000   0.015944   -0.011056
 0.675000   0.015887   -0.011801
 0.680000   0.015826   -0.012662
 0.685000   0.015761   -0.013681
 0.690000   0.015689   -0.014825
 0.695000   0.015612   -0.016080
 0.700000   0.015529   -0.017440
 0.705000   0.015438   -0.018885
 0.710000   0.015340   -0.020443
 0.715000   0.015233   -0.022045
 0.720000   0.015119   -0.023549
 0.725000   0.014998   -0.024923
 0.730000   0.014870   -0.026148
 0.735000   0.014737   -0.027168
 0.740000   0.014598   -0.027936
 0.745000   0.014457   -0.028368
 0.750000   0.014315   -0.028422
 0.755000   0.014173   -0.028133
 0.760000   0.014033   -0.027528
 0.765000   0.013898   -0.026636
 0.770000   0.013767   -0.025459
 0.775000   0.013643   -0.024056
 0.780000   0.013526   -0.022628
 0.785000   0.013417   -0.021266
 0.790000   0.013314   -0.019958
 0.795000   0.013217   -0.018732
 0.800000   0.013126   -0.017606
 0.805000   0.013041   -0.016614
 0.810000   0.012960   -0.015782
 0.815000   0.012883   -0.015043
 0.820000   0.012810   -0.014319
 0.825000   0.012740   -0.013582
 0.830000   0.012674   -0.012819
 0.835000   0.012612   -0.012034
 0.840000   0.012554   -0.011232
 0.845000   0.012500   -0.010422
 0.850000   0.012450   -0.009615
 0.855000   0.012403   -0.008821
 0.860000   0.012361   -0.008053
 0.865000   0.012323   -0.007339
 0.870000   0.012288   -0.006704
 0.875000   0.012256   -0.006141
 0.880000   0.012227   -0.005638
 0.885000   0.012200   -0.005193
 0.890000   0.012175   -0.004812
 0.895000   0.012151   -0.004559
 0.900000   0.012129   -0.004470
 0.905000   0.012107   -0.004585
 0.910000   0.012083   -0.005043
 0.915000   0.012056   -0.006085
 0.920000   0.012022   -0.008183
 0.925000   0.011974   -0.012450
 0.930000   0.011898   -0.020313
 0.935000   0.011771   -0.033616
 0.940000   0.011562   -0.054800
 0.945000   0.011223   -0.085769
 0.950000   0.010704   -0.126468
 0.955000   0.009959   -0.174345
 0.960000   0.008961   -0.219121
 0.965000   0.007767   -0.246911
 0.970000   0.006491   -0.250190
 0.975000   0.005266   -0.229266
 0.980000   0.004199   -0.192056
 0.985000   0.003345   -0.149413
 0.990000   0.002705   -0.110113
 0.995000   0.002244   -0.079040
 1.000000   0.001914   -0.052813
201 psinorm vtor1(km/s) dvtor1/dpsiN
 0.000000   109.873515   542.438844
 0.005000   111.977300   299.075308
 0.010000   112.864268   155.954929
 0.015000   113.536850   122.590872
 0.020000   114.090177   102.835397
 0.025000   114.565203   89.628306
 0.030000   114.986460   79.692984
 0.035000   115.362133   70.807592
 0.040000   115.694536   62.840504
 0.045000   115.990538   55.841414
 0.050000   116.252950   49.207871
 0.055000   116.482617   42.698768
 0.060000   116.679937   36.512827
 0.065000   116.847745   30.767941
 0.070000   116.987617   25.320674
 0.075000   117.100952   20.157838
 0.080000   117.189195   15.326589
 0.085000   117.254218   10.753727
 0.090000   117.296733   6.246675
 0.095000   117.316685   1.887940
 0.100000   117.315612   -2.207206
 0.105000   117.294613   -6.273202
 0.110000   117.252880   -10.342829
 0.115000   117.191184   -14.279001
 0.120000   117.110090   -18.149648
 0.125000   117.009688   -22.077213
 0.130000   116.889318   -26.091117
 0.135000   116.748777   -30.225354
 0.140000   116.587064   -34.500207
 0.145000   116.403775   -38.843181
 0.150000   116.198632   -43.220620
 0.155000   115.971568   -47.628424
 0.160000   115.722348   -52.116091
 0.165000   115.450408   -56.621878
 0.170000   115.156129   -61.032939
 0.175000   114.840078   -65.340102
 0.180000   114.502728   -69.541570
 0.185000   114.144662   -73.575309
 0.190000   113.766975   -77.382501
 0.195000   113.370837   -80.956786
 0.200000   112.957407   -84.303605
 0.205000   112.527801   -87.396289
 0.210000   112.083445   -90.207321
 0.215000   111.625728   -92.748804
 0.220000   111.155956   -94.952815
 0.225000   110.676200   -96.748148
 0.230000   110.188475   -98.343941
 0.235000   109.692761   -99.845985
 0.240000   109.190015   -101.170469
 0.245000   108.681056   -102.357734
 0.250000   108.166438   -103.448739
 0.255000   107.646569   -104.396864
 0.260000   107.122469   -105.290221
 0.265000   106.593666   -106.205796
 0.270000   106.060411   -107.077850
 0.275000   105.522888   -107.913950
 0.280000   104.981272   -108.740795
 0.285000   104.435480   -109.636627
 0.290000   103.884905   -110.609965
 0.295000   103.329380   -111.597551
 0.300000   102.768930   -112.539946
 0.305000   102.203981   -113.343632
 0.310000   101.635494   -113.884806
 0.315000   101.065133   -114.018154
 0.320000   100.495312   -113.662222
 0.325000   99.928510   -112.850525
 0.330000   99.366807   -111.632563
 0.335000   98.812185   -110.036879
 0.340000   98.266438   -108.099734
 0.345000   97.731188   -105.679357
 0.350000   97.209644   -102.924496
 0.355000   96.701943   -100.099472
 0.360000   96.208650   -97.164596
 0.365000   95.730297   -94.135135
 0.370000   95.267298   -91.053316
 0.375000   94.819763   -87.875936
 0.380000   94.388539   -84.735977
 0.385000   93.972404   -81.748169
 0.390000   93.571057   -78.781742
 0.395000   93.184586   -75.806101
 0.400000   92.812996   -72.840059
 0.405000   92.456186   -69.845337
 0.410000   92.114543   -67.012035
 0.415000   91.786065   -64.696223
 0.420000   91.467581   -63.041838
 0.425000   91.155647   -62.076087
 0.430000   90.846820   -61.770182
 0.435000   90.537945   -62.254097
 0.440000   90.224279   -63.371985
 0.445000   89.904225   -64.503016
 0.450000   89.579249   -65.427866
 0.455000   89.249947   -66.168366
 0.460000   88.917565   -66.598067
 0.465000   88.583966   -66.794211
 0.470000   88.249623   -66.624520
 0.475000   87.917721   -65.580213
 0.480000   87.593821   -63.674355
 0.485000   87.280977   -61.189753
 0.490000   86.981923   -58.193479
 0.495000   86.699042   -54.797835
 0.500000   86.433945   -51.096718
 0.505000   86.188075   -47.229422
 0.510000   85.961651   -43.477258
 0.515000   85.753303   -40.058484
 0.520000   85.561066   -37.059304
 0.525000   85.382710   -34.522525
 0.530000   85.215841   -32.470646
 0.535000   85.058003   -30.980933
 0.540000   84.906031   -30.100931
 0.545000   84.756994   -29.811474
 0.550000   84.607917   -30.108796
 0.555000   84.455906   -30.972073
 0.560000   84.298196   -32.357111
 0.565000   84.132335   -34.313821
 0.570000   83.955058   -36.875083
 0.575000   83.763584   -39.991567
 0.580000   83.555142   -43.656929
 0.585000   83.327015   -47.876879
 0.590000   83.076373   -52.661614
 0.595000   82.800398   -57.942398
 0.600000   82.496949   -63.599641
 0.605000   82.164402   -69.540913
 0.610000   81.801540   -75.687831
 0.615000   81.407524   -81.969955
 0.620000   80.981841   -88.237361
 0.625000   80.525150   -94.470216
 0.630000   80.037138   -100.701106
 0.635000   79.518139   -106.835211
 0.640000   78.968786   -112.829884
 0.645000   78.389840   -118.657722
 0.650000   77.782209   -124.248158
 0.655000   77.147359   -129.837478
 0.660000   76.483834   -135.712170
 0.665000   75.790237   -141.883115
 0.670000   75.065003   -148.386507
 0.675000   74.306372   -155.234085
 0.680000   73.512662   -162.591820
 0.685000   72.680454   -169.962123
 0.690000   71.813041   -176.516980
 0.695000   70.915284   -182.166583
 0.700000   69.991375   -186.962629
 0.705000   69.045658   -190.894047
 0.710000   68.082435   -194.004176
 0.715000   67.105616   -196.139009
 0.720000   66.121045   -197.108701
 0.725000   65.134529   -196.953426
 0.730000   64.151510   -195.712532
 0.735000   63.177404   -193.404623
 0.740000   62.217464   -190.028427
 0.745000   61.277119   -185.640957
 0.750000   60.361055   -180.553142
 0.755000   59.471588   -175.174952
 0.760000   58.609305   -169.804818
 0.765000   57.773540   -164.626575
 0.770000   56.963039   -159.816036
 0.775000   56.175379   -155.243106
 0.780000   55.410608   -150.254027
 0.785000   54.672839   -144.642037
 0.790000   53.964188   -138.679003
 0.795000   53.286049   -132.548803
 0.800000   52.638700   -126.541531
 0.805000   52.020634   -121.052676
 0.810000   51.428173   -116.368041
 0.815000   50.856953   -112.767740
 0.820000   50.300496   -110.583721
 0.825000   49.751116   -110.055073
 0.830000   49.199945   -111.473145
 0.835000   48.636385   -115.139814
 0.840000   48.048547   -121.079862
 0.845000   47.425586   -129.641971
 0.850000   46.752127   -141.527441
 0.855000   46.010312   -157.227585
 0.860000   45.179851   -177.289981
 0.865000   44.237412   -202.847062
 0.870000   43.151381   -233.418560
 0.875000   41.903226   -268.057406
 0.880000   40.470807   -306.763138
 0.885000   38.835595   -348.565316
 0.890000   36.985153   -392.012931
 0.895000   34.915465   -436.304513
 0.900000   32.622108   -477.265822
 0.905000   30.142807   -510.606693
 0.910000   27.516041   -534.846472
 0.915000   24.794343   -547.391243
 0.920000   22.042129   -546.247994
 0.925000   19.331863   -530.393052
 0.930000   16.738198   -499.204286
 0.935000   14.339820   -453.843070
 0.940000   12.199768   -397.691583
 0.945000   10.362904   -334.875436
 0.950000   8.851013   -270.147040
 0.955000   7.661434   -207.602938
 0.960000   6.774984   -151.791475
 0.965000   6.143519   -105.961126
 0.970000   5.715373   -70.440876
 0.975000   5.439110   -44.867816
 0.980000   5.266695   -28.261719
 0.985000   5.156493   -19.128362
 0.990000   5.075411   -15.887109
 0.995000   4.997622   -17.004787
 1.000000   4.905363   -19.898676
201 psinorm vpol1(km/s) dvpol1/dpsiN
 0.000000   0.000046   4.013574
 0.005000   0.022395   4.926270
 0.010000   0.049308   5.833594
 0.015000   0.080731   6.707129
 0.020000   0.116380   7.504614
 0.025000   0.155777   8.188037
 0.030000   0.198260   8.707739
 0.035000   0.242855   9.094946
 0.040000   0.289209   9.405762
 0.045000   0.336912   9.654785
 0.050000   0.385757   9.881396
 0.055000   0.435726   10.125781
 0.060000   0.487015   10.417310
 0.065000   0.539899   10.732861
 0.070000   0.594344   11.024512
 0.075000   0.650145   11.266577
 0.080000   0.707010   11.442798
 0.085000   0.764573   11.524292
 0.090000   0.822252   11.485669
 0.095000   0.879429   11.355762
 0.100000   0.935810   11.167944
 0.105000   0.991109   10.936597
 0.110000   1.045176   10.691602
 0.115000   1.098025   10.460620
 0.120000   1.149782   10.289258
 0.125000   1.200917   10.201953
 0.130000   1.251802   10.171216
 0.135000   1.302629   10.166162
 0.140000   1.353463   10.157568
 0.145000   1.404205   10.117700
 0.150000   1.454640   10.009814
 0.155000   1.504303   9.816187
 0.160000   1.552802   9.548950
 0.165000   1.599793   9.215112
 0.170000   1.644953   8.819287
 0.175000   1.687986   8.343848
 0.180000   1.728392   7.800610
 0.185000   1.765992   7.226440
 0.190000   1.800656   6.633667
 0.195000   1.832328   6.038159
 0.200000   1.861038   5.457080
 0.205000   1.886899   4.901099
 0.210000   1.910049   4.412842
 0.215000   1.931028   4.002222
 0.220000   1.950071   3.628296
 0.225000   1.967311   3.268701
 0.230000   1.982758   2.902441
 0.235000   1.996335   2.512793
 0.240000   2.007886   2.082153
 0.245000   2.017156   1.606152
 0.250000   2.023948   1.093262
 0.255000   2.028089   0.549390
 0.260000   2.029441   -0.017114
 0.265000   2.027918   -0.594360
 0.270000   2.023498   -1.171655
 0.275000   2.016201   -1.745386
 0.280000   2.006044   -2.319507
 0.285000   1.993006   -2.903174
 0.290000   1.977012   -3.508301
 0.295000   1.957923   -4.151392
 0.300000   1.935498   -4.839819
 0.305000   1.909525   -5.575903
 0.310000   1.879739   -6.365967
 0.315000   1.845865   -7.212183
 0.320000   1.807617   -8.120337
 0.325000   1.764662   -9.055371
 0.330000   1.717064   -9.954150
 0.335000   1.665121   -10.784741
 0.340000   1.609216   -11.526562
 0.345000   1.549855   -12.160425
 0.350000   1.487612   -12.639233
 0.355000   1.423463   -12.980640
 0.360000   1.357806   -13.253394
 0.365000   1.290929   -13.468848
 0.370000   1.223117   -13.641602
 0.375000   1.154513   -13.799878
 0.380000   1.085118   -13.965308
 0.385000   1.014860   -14.218994
 0.390000   0.942928   -14.587280
 0.395000   0.868987   -15.000122
 0.400000   0.792927   -15.417505
 0.405000   0.714812   -15.805078
 0.410000   0.634876   -16.220605
 0.415000   0.552606   -16.917456
 0.420000   0.465702   -18.154749
 0.425000   0.371058   -20.040442
 0.430000   0.265297   -22.610120
 0.435000   0.144957   -25.938892
 0.440000   0.005909   -30.261658
 0.445000   -0.157660   -34.967310
 0.450000   -0.343765   -39.467505
 0.455000   -0.552335   -43.824500
 0.460000   -0.782010   -47.762598
 0.465000   -1.029961   -51.018848
 0.470000   -1.292198   -53.090503
 0.475000   -1.560866   -53.489966
 0.480000   -1.827098   -52.319666
 0.485000   -2.084062   -49.863147
 0.490000   -2.325729   -46.320740
 0.495000   -2.547270   -41.710980
 0.500000   -2.742839   -36.343018
 0.505000   -2.910700   -31.169604
 0.510000   -3.054535   -26.603241
 0.515000   -3.176732   -22.590778
 0.520000   -3.280443   -19.265851
 0.525000   -3.369391   -16.708362
 0.530000   -3.447526   -15.147101
 0.535000   -3.520862   -14.435681
 0.540000   -3.591883   -14.051831
 0.545000   -3.661380   -13.769513
 0.550000   -3.729578   -13.502441
 0.555000   -3.796404   -13.237134
 0.560000   -3.861950   -12.926697
 0.565000   -3.925671   -12.519009
 0.570000   -3.987140   -12.031912
 0.575000   -4.045991   -11.473779
 0.580000   -4.101878   -10.849719
 0.585000   -4.154488   -10.157364
 0.590000   -4.203451   -9.407155
 0.595000   -4.248559   -8.631055
 0.600000   -4.289762   -7.852597
 0.605000   -4.327085   -7.087074
 0.610000   -4.360632   -6.346516
 0.615000   -4.390550   -5.630528
 0.620000   -4.416938   -4.969395
 0.625000   -4.440244   -4.380675
 0.630000   -4.460744   -3.845271
 0.635000   -4.478697   -3.358554
 0.640000   -4.494330   -2.913907
 0.645000   -4.507836   -2.502681
 0.650000   -4.519357   -2.114029
 0.655000   -4.528976   -1.740738
 0.660000   -4.536764   -1.381139
 0.665000   -4.542788   -1.035587
 0.670000   -4.547120   -0.705293
 0.675000   -4.549841   -0.388770
 0.680000   -4.551008   -0.073630
 0.685000   -4.550577   0.259610
 0.690000   -4.548412   0.628818
 0.695000   -4.544289   1.047620
 0.700000   -4.537935   1.531644
 0.705000   -4.528972   2.082196
 0.710000   -4.517114   2.664777
 0.715000   -4.502325   3.246191
 0.720000   -4.484652   3.801221
 0.725000   -4.464313   4.294855
 0.730000   -4.441703   4.690662
 0.735000   -4.417406   4.944476
 0.740000   -4.392258   5.041821
 0.745000   -4.366988   5.001562
 0.750000   -4.342243   4.841089
 0.755000   -4.318577   4.583313
 0.760000   -4.296410   4.239368
 0.765000   -4.276183   3.901587
 0.770000   -4.257394   3.665735
 0.775000   -4.239526   3.524097
 0.780000   -4.222153   3.462158
 0.785000   -4.204904   3.459741
 0.790000   -4.187555   3.521790
 0.795000   -4.169686   3.550232
 0.800000   -4.152053   3.430908
 0.805000   -4.135377   3.160498
 0.810000   -4.120448   2.735132
 0.815000   -4.108026   2.170117
 0.820000   -4.098747   1.497754
 0.825000   -4.093048   0.771973
 0.830000   -4.091027   0.061133
 0.835000   -4.092437   -0.581250
 0.840000   -4.096840   -1.127490
 0.845000   -4.103712   -1.565967
 0.850000   -4.112499   -1.893677
 0.855000   -4.122649   -2.139648
 0.860000   -4.133896   -2.336426
 0.865000   -4.146013   -2.497192
 0.870000   -4.158868   -2.640820
 0.875000   -4.172421   -2.787866
 0.880000   -4.186746   -2.959985
 0.885000   -4.202021   -3.149341
 0.890000   -4.218240   -3.330054
 0.895000   -4.235322   -3.491504
 0.900000   -4.253155   -3.629248
 0.905000   -4.271614   -3.755249
 0.910000   -4.290707   -3.888843
 0.915000   -4.310502   -4.031421
 0.920000   -4.331021   -4.201318
 0.925000   -4.352516   -4.426709
 0.930000   -4.375289   -4.694482
 0.935000   -4.399460   -4.977100
 0.940000   -4.425060   -4.911963
 0.945000   -4.448580   -3.667773
 0.950000   -4.461737   0.026074
 0.955000   -4.448319   8.360156
 0.960000   -4.378136   24.796436
 0.965000   -4.200355   54.256348
 0.970000   -3.835572   99.774512
 0.975000   -3.202610   158.934033
 0.980000   -2.246232   222.037793
 0.985000   -0.982232   271.689844
 0.990000   0.470667   288.795117
 0.995000   1.905719   260.577344
 1.000000   3.076440   207.710937
3 N Z A of ION SPECIES
 6.000000   6.000000   12.010700
 1.000000   1.000000   2.000000
 1.000000   1.000000   2.000000
