201 psinorm ne(10^20/m^3) dne/dpsiN
 0.000000   0.437765   -0.361931
 0.005000   0.435961   -0.359577
 0.010000   0.434169   -0.357231
 0.015000   0.432389   -0.354902
 0.020000   0.430620   -0.352589
 0.025000   0.428863   -0.350293
 0.030000   0.427117   -0.348014
 0.035000   0.425383   -0.345750
 0.040000   0.423659   -0.343503
 0.045000   0.421947   -0.341272
 0.050000   0.420247   -0.339056
 0.055000   0.418557   -0.336856
 0.060000   0.416878   -0.334672
 0.065000   0.415210   -0.332503
 0.070000   0.413553   -0.330349
 0.075000   0.411907   -0.328211
 0.080000   0.410271   -0.326088
 0.085000   0.408646   -0.323979
 0.090000   0.407031   -0.321886
 0.095000   0.405427   -0.319807
 0.100000   0.403833   -0.317742
 0.105000   0.402250   -0.315692
 0.110000   0.400676   -0.313657
 0.115000   0.399113   -0.311635
 0.120000   0.397560   -0.309628
 0.125000   0.396017   -0.307635
 0.130000   0.394483   -0.305655
 0.135000   0.392960   -0.303689
 0.140000   0.391447   -0.301737
 0.145000   0.389943   -0.299799
 0.150000   0.388449   -0.297874
 0.155000   0.386964   -0.295962
 0.160000   0.385489   -0.294063
 0.165000   0.384023   -0.292178
 0.170000   0.382567   -0.290305
 0.175000   0.381120   -0.288445
 0.180000   0.379683   -0.286599
 0.185000   0.378254   -0.284764
 0.190000   0.376835   -0.282943
 0.195000   0.375425   -0.281134
 0.200000   0.374024   -0.279337
 0.205000   0.372632   -0.277552
 0.210000   0.371248   -0.275780
 0.215000   0.369874   -0.274020
 0.220000   0.368508   -0.272271
 0.225000   0.367151   -0.270535
 0.230000   0.365803   -0.268810
 0.235000   0.364463   -0.267097
 0.240000   0.363132   -0.265396
 0.245000   0.361809   -0.263706
 0.250000   0.360495   -0.262027
 0.255000   0.359189   -0.260360
 0.260000   0.357891   -0.258704
 0.265000   0.356602   -0.257060
 0.270000   0.355320   -0.255426
 0.275000   0.354047   -0.253803
 0.280000   0.352782   -0.252191
 0.285000   0.351526   -0.250590
 0.290000   0.350277   -0.249000
 0.295000   0.349036   -0.247420
 0.300000   0.347802   -0.245851
 0.305000   0.346577   -0.244292
 0.310000   0.345359   -0.242743
 0.315000   0.344150   -0.241205
 0.320000   0.342947   -0.239677
 0.325000   0.341753   -0.238159
 0.330000   0.340566   -0.236651
 0.335000   0.339386   -0.235153
 0.340000   0.338214   -0.233665
 0.345000   0.337050   -0.232187
 0.350000   0.335892   -0.230718
 0.355000   0.334742   -0.229259
 0.360000   0.333600   -0.227810
 0.365000   0.332464   -0.226370
 0.370000   0.331336   -0.224940
 0.375000   0.330215   -0.223519
 0.380000   0.329101   -0.222107
 0.385000   0.327994   -0.220704
 0.390000   0.326894   -0.219311
 0.395000   0.325801   -0.217926
 0.400000   0.324715   -0.216551
 0.405000   0.323635   -0.215184
 0.410000   0.322563   -0.213826
 0.415000   0.321497   -0.212477
 0.420000   0.320438   -0.211137
 0.425000   0.319386   -0.209805
 0.430000   0.318340   -0.208482
 0.435000   0.317301   -0.207167
 0.440000   0.316268   -0.205861
 0.445000   0.315242   -0.204563
 0.450000   0.314223   -0.203273
 0.455000   0.313210   -0.201992
 0.460000   0.312203   -0.200718
 0.465000   0.311202   -0.199453
 0.470000   0.310208   -0.198196
 0.475000   0.309220   -0.196947
 0.480000   0.308239   -0.195706
 0.485000   0.307263   -0.194472
 0.490000   0.306294   -0.193247
 0.495000   0.305331   -0.192029
 0.500000   0.304374   -0.190818
 0.505000   0.303423   -0.189616
 0.510000   0.302478   -0.188421
 0.515000   0.301538   -0.187233
 0.520000   0.300605   -0.186053
 0.525000   0.299678   -0.184880
 0.530000   0.298756   -0.183714
 0.535000   0.297841   -0.182556
 0.540000   0.296931   -0.181405
 0.545000   0.296027   -0.180261
 0.550000   0.295128   -0.179124
 0.555000   0.294235   -0.177994
 0.560000   0.293348   -0.176871
 0.565000   0.292467   -0.175755
 0.570000   0.291591   -0.174645
 0.575000   0.290720   -0.173543
 0.580000   0.289855   -0.172447
 0.585000   0.288996   -0.171358
 0.590000   0.288142   -0.170276
 0.595000   0.287293   -0.169200
 0.600000   0.286450   -0.168131
 0.605000   0.285612   -0.167068
 0.610000   0.284779   -0.166012
 0.615000   0.283952   -0.164962
 0.620000   0.283129   -0.163919
 0.625000   0.282312   -0.162881
 0.630000   0.281501   -0.161850
 0.635000   0.280694   -0.160826
 0.640000   0.279892   -0.159807
 0.645000   0.279096   -0.158794
 0.650000   0.278304   -0.157788
 0.655000   0.277518   -0.156787
 0.660000   0.276737   -0.155793
 0.665000   0.275960   -0.154804
 0.670000   0.275189   -0.153821
 0.675000   0.274422   -0.152844
 0.680000   0.273660   -0.151873
 0.685000   0.272903   -0.150907
 0.690000   0.272151   -0.149947
 0.695000   0.271404   -0.148993
 0.700000   0.270661   -0.148044
 0.705000   0.269923   -0.147101
 0.710000   0.269190   -0.146163
 0.715000   0.268462   -0.145230
 0.720000   0.267738   -0.144303
 0.725000   0.267019   -0.143381
 0.730000   0.266304   -0.142463
 0.735000   0.265594   -0.141551
 0.740000   0.264888   -0.140643
 0.745000   0.264188   -0.139739
 0.750000   0.263491   -0.138839
 0.755000   0.262799   -0.137943
 0.760000   0.262112   -0.137048
 0.765000   0.261429   -0.136155
 0.770000   0.260750   -0.135262
 0.775000   0.260076   -0.134366
 0.780000   0.259406   -0.133465
 0.785000   0.258741   -0.132554
 0.790000   0.258081   -0.131628
 0.795000   0.257425   -0.130680
 0.800000   0.256774   -0.129697
 0.805000   0.256128   -0.128665
 0.810000   0.255487   -0.127564
 0.815000   0.254853   -0.126364
 0.820000   0.254224   -0.125026
 0.825000   0.253602   -0.123495
 0.830000   0.252989   -0.121698
 0.835000   0.252385   -0.119531
 0.840000   0.251794   -0.116858
 0.845000   0.251217   -0.113490
 0.850000   0.250659   -0.109174
 0.855000   0.250125   -0.103572
 0.860000   0.249623   -0.096233
 0.865000   0.249163   -0.086563
 0.870000   0.248757   -0.073790
 0.875000   0.248425   -0.056923
 0.880000   0.248188   -0.034720
 0.885000   0.248078   -0.005673
 0.890000   0.248131   0.031967
 0.895000   0.248397   0.080057
 0.900000   0.248932   0.140239
 0.905000   0.249800   0.213242
 0.910000   0.251064   0.297515
 0.915000   0.252775   0.386703
 0.920000   0.254931   0.465347
 0.925000   0.257428   0.502332
 0.930000   0.259955   0.442937
 0.935000   0.261858   0.204483
 0.940000   0.262000   -0.311369
 0.945000   0.258744   -1.170576
 0.950000   0.250294   -2.321582
 0.955000   0.235528   -3.532704
 0.960000   0.214967   -4.457152
 0.965000   0.190957   -4.833184
 0.970000   0.166635   -4.644185
 0.975000   0.144515   -4.082128
 0.980000   0.125814   -3.385489
 0.985000   0.110660   -2.720246
 0.990000   0.098611   -2.159798
 0.995000   0.089062   -1.716489
 1.000000   0.081446   -1.329727
201 psinorm te(KeV) dte/dpsiN
 0.000000   4.855944   -9.148395
 0.005000   4.810453   -9.047800
 0.010000   4.765466   -8.947820
 0.015000   4.720975   -8.849061
 0.020000   4.676975   -8.751507
 0.025000   4.633460   -8.655143
 0.030000   4.590424   -8.559952
 0.035000   4.547861   -8.465919
 0.040000   4.505765   -8.373029
 0.045000   4.464130   -8.281267
 0.050000   4.422952   -8.190618
 0.055000   4.382224   -8.101067
 0.060000   4.341941   -8.012600
 0.065000   4.302098   -7.925202
 0.070000   4.262689   -7.838861
 0.075000   4.223709   -7.753561
 0.080000   4.185154   -7.669289
 0.085000   4.147017   -7.586032
 0.090000   4.109293   -7.503777
 0.095000   4.071979   -7.422509
 0.100000   4.035068   -7.342218
 0.105000   3.998557   -7.262889
 0.110000   3.962439   -7.184511
 0.115000   3.926712   -7.107070
 0.120000   3.891369   -7.030555
 0.125000   3.856406   -6.954954
 0.130000   3.821819   -6.880255
 0.135000   3.787603   -6.806446
 0.140000   3.753755   -6.733516
 0.145000   3.720268   -6.661453
 0.150000   3.687140   -6.590246
 0.155000   3.654366   -6.519884
 0.160000   3.621941   -6.450356
 0.165000   3.589862   -6.381652
 0.170000   3.558125   -6.313760
 0.175000   3.526725   -6.246671
 0.180000   3.495658   -6.180374
 0.185000   3.464921   -6.114858
 0.190000   3.434509   -6.050115
 0.195000   3.404420   -5.986133
 0.200000   3.374648   -5.922904
 0.205000   3.345191   -5.860417
 0.210000   3.316044   -5.798664
 0.215000   3.287204   -5.737634
 0.220000   3.258668   -5.677318
 0.225000   3.230431   -5.617708
 0.230000   3.202491   -5.558794
 0.235000   3.174843   -5.500568
 0.240000   3.147485   -5.443021
 0.245000   3.120413   -5.386143
 0.250000   3.093623   -5.329928
 0.255000   3.067114   -5.274365
 0.260000   3.040880   -5.219448
 0.265000   3.014919   -5.165168
 0.270000   2.989228   -5.111516
 0.275000   2.963804   -5.058485
 0.280000   2.938643   -5.006067
 0.285000   2.913743   -4.954255
 0.290000   2.889101   -4.903040
 0.295000   2.864713   -4.852415
 0.300000   2.840577   -4.802373
 0.305000   2.816689   -4.752907
 0.310000   2.793047   -4.704008
 0.315000   2.769649   -4.655671
 0.320000   2.746491   -4.607888
 0.325000   2.723570   -4.560652
 0.330000   2.700884   -4.513956
 0.335000   2.678431   -4.467793
 0.340000   2.656206   -4.422158
 0.345000   2.634209   -4.377042
 0.350000   2.612436   -4.332441
 0.355000   2.590885   -4.288347
 0.360000   2.569552   -4.244754
 0.365000   2.548437   -4.201656
 0.370000   2.527536   -4.159046
 0.375000   2.506847   -4.116920
 0.380000   2.486367   -4.075270
 0.385000   2.466094   -4.034090
 0.390000   2.446026   -3.993376
 0.395000   2.426160   -3.953121
 0.400000   2.406495   -3.913319
 0.405000   2.387027   -3.873966
 0.410000   2.367755   -3.835055
 0.415000   2.348676   -3.796581
 0.420000   2.329789   -3.758538
 0.425000   2.311091   -3.720922
 0.430000   2.292580   -3.683727
 0.435000   2.274254   -3.646948
 0.440000   2.256110   -3.610579
 0.445000   2.238148   -3.574617
 0.450000   2.220364   -3.539055
 0.455000   2.202757   -3.503889
 0.460000   2.185325   -3.469114
 0.465000   2.168066   -3.434726
 0.470000   2.150978   -3.400719
 0.475000   2.134059   -3.367089
 0.480000   2.117307   -3.333832
 0.485000   2.100721   -3.300942
 0.490000   2.084298   -3.268416
 0.495000   2.068037   -3.236249
 0.500000   2.051935   -3.204436
 0.505000   2.035992   -3.172974
 0.510000   2.020206   -3.141858
 0.515000   2.004574   -3.111084
 0.520000   1.989095   -3.080648
 0.525000   1.973767   -3.050545
 0.530000   1.958589   -3.020772
 0.535000   1.943559   -2.991325
 0.540000   1.928676   -2.962199
 0.545000   1.913937   -2.933392
 0.550000   1.899342   -2.904899
 0.555000   1.884888   -2.876716
 0.560000   1.870575   -2.848839
 0.565000   1.856400   -2.821266
 0.570000   1.842362   -2.793992
 0.575000   1.828460   -2.767014
 0.580000   1.814692   -2.740327
 0.585000   1.801057   -2.713930
 0.590000   1.787553   -2.687818
 0.595000   1.774179   -2.661988
 0.600000   1.760933   -2.636437
 0.605000   1.747814   -2.611160
 0.610000   1.734821   -2.586156
 0.615000   1.721953   -2.561421
 0.620000   1.709207   -2.536951
 0.625000   1.696583   -2.512743
 0.630000   1.684080   -2.488795
 0.635000   1.671695   -2.465103
 0.640000   1.659429   -2.441664
 0.645000   1.647279   -2.418475
 0.650000   1.635244   -2.395534
 0.655000   1.623323   -2.372837
 0.660000   1.611516   -2.350382
 0.665000   1.599819   -2.328165
 0.670000   1.588234   -2.306184
 0.675000   1.576758   -2.284437
 0.680000   1.565390   -2.262919
 0.685000   1.554128   -2.241629
 0.690000   1.542973   -2.220565
 0.695000   1.531923   -2.199722
 0.700000   1.520976   -2.179100
 0.705000   1.510132   -2.158694
 0.710000   1.499389   -2.138503
 0.715000   1.488747   -2.118525
 0.720000   1.478204   -2.098756
 0.725000   1.467759   -2.079194
 0.730000   1.457412   -2.059838
 0.735000   1.447161   -2.040683
 0.740000   1.437005   -2.021729
 0.745000   1.426944   -2.002973
 0.750000   1.416975   -1.984412
 0.755000   1.407099   -1.966044
 0.760000   1.397315   -1.947868
 0.765000   1.387621   -1.929880
 0.770000   1.378016   -1.912078
 0.775000   1.368500   -1.894461
 0.780000   1.359071   -1.877026
 0.785000   1.349730   -1.859770
 0.790000   1.340474   -1.842692
 0.795000   1.331303   -1.825789
 0.800000   1.322216   -1.809058
 0.805000   1.313212   -1.792496
 0.810000   1.304291   -1.776101
 0.815000   1.295451   -1.759867
 0.820000   1.286692   -1.743791
 0.825000   1.278013   -1.727866
 0.830000   1.269414   -1.712084
 0.835000   1.260892   -1.696434
 0.840000   1.252449   -1.680903
 0.845000   1.244083   -1.665472
 0.850000   1.235795   -1.650114
 0.855000   1.227582   -1.634799
 0.860000   1.219447   -1.619483
 0.865000   1.211387   -1.604117
 0.870000   1.203405   -1.588648
 0.875000   1.195501   -1.573029
 0.880000   1.187675   -1.557250
 0.885000   1.179928   -1.541394
 0.890000   1.172261   -1.525753
 0.895000   1.164671   -1.511045
 0.900000   1.157151   -1.498821
 0.905000   1.149683   -1.492202
 0.910000   1.142229   -1.497210
 0.915000   1.134711   -1.525098
 0.920000   1.126978   -1.596421
 0.925000   1.118746   -1.747928
 0.930000   1.109498   -2.043905
 0.935000   1.098307   -2.593757
 0.940000   1.083561   -3.576284
 0.945000   1.062545   -5.264556
 0.950000   1.030915   -8.025715
 0.955000   0.982287   -12.227734
 0.960000   0.908638   -17.936954
 0.965000   0.802918   -24.362745
 0.970000   0.665010   -29.450511
 0.975000   0.508413   -30.621082
 0.980000   0.358800   -26.872609
 0.985000   0.239687   -20.015184
 0.990000   0.158648   -13.074273
 0.995000   0.108944   -7.889630
 1.000000   0.079752   -3.787330
201 psinorm ni(10^20/m^3) dni/dpsiN
 0.000000   0.237048   -0.368958
 0.005000   0.235567   -0.223242
 0.010000   0.234815   -0.110731
 0.015000   0.234460   -0.041393
 0.020000   0.234401   0.012155
 0.025000   0.234581   0.054163
 0.030000   0.234943   0.086037
 0.035000   0.235442   0.110226
 0.040000   0.236045   0.128362
 0.045000   0.236725   0.141159
 0.050000   0.237457   0.149372
 0.055000   0.238219   0.153849
 0.060000   0.238995   0.155389
 0.065000   0.239773   0.154402
 0.070000   0.240539   0.151463
 0.075000   0.241288   0.146789
 0.080000   0.242007   0.140892
 0.085000   0.242696   0.133928
 0.090000   0.243346   0.125291
 0.095000   0.243949   0.116240
 0.100000   0.244509   0.107249
 0.105000   0.245022   0.097564
 0.110000   0.245484   0.086856
 0.115000   0.245890   0.076214
 0.120000   0.246247   0.066176
 0.125000   0.246552   0.056090
 0.130000   0.246807   0.046050
 0.135000   0.247013   0.036115
 0.140000   0.247169   0.026323
 0.145000   0.247276   0.016733
 0.150000   0.247336   0.007438
 0.155000   0.247350   -0.001538
 0.160000   0.247321   -0.010190
 0.165000   0.247248   -0.018490
 0.170000   0.247136   -0.026413
 0.175000   0.246984   -0.033961
 0.180000   0.246796   -0.041120
 0.185000   0.246573   -0.047900
 0.190000   0.246317   -0.054307
 0.195000   0.246030   -0.060335
 0.200000   0.245714   -0.066004
 0.205000   0.245370   -0.071329
 0.210000   0.245000   -0.076319
 0.215000   0.244607   -0.080988
 0.220000   0.244190   -0.085352
 0.225000   0.243753   -0.089730
 0.230000   0.243293   -0.093928
 0.235000   0.242814   -0.097556
 0.240000   0.242318   -0.100838
 0.245000   0.241806   -0.103888
 0.250000   0.241279   -0.106711
 0.255000   0.240738   -0.109305
 0.260000   0.240186   -0.111988
 0.265000   0.239619   -0.114531
 0.270000   0.239040   -0.116568
 0.275000   0.238453   -0.118384
 0.280000   0.237857   -0.120081
 0.285000   0.237252   -0.121685
 0.290000   0.236640   -0.123449
 0.295000   0.236018   -0.125080
 0.300000   0.235389   -0.126368
 0.305000   0.234754   -0.127624
 0.310000   0.234113   -0.128887
 0.315000   0.233465   -0.130346
 0.320000   0.232809   -0.131729
 0.325000   0.232148   -0.132854
 0.330000   0.231481   -0.133966
 0.335000   0.230808   -0.135167
 0.340000   0.230129   -0.136440
 0.345000   0.229444   -0.137573
 0.350000   0.228753   -0.138568
 0.355000   0.228058   -0.139555
 0.360000   0.227358   -0.140673
 0.365000   0.226651   -0.141730
 0.370000   0.225940   -0.142593
 0.375000   0.225225   -0.143438
 0.380000   0.224506   -0.144436
 0.385000   0.223781   -0.145434
 0.390000   0.223052   -0.146263
 0.395000   0.222318   -0.147092
 0.400000   0.221581   -0.148109
 0.405000   0.220837   -0.149178
 0.410000   0.220089   -0.150100
 0.415000   0.219336   -0.151005
 0.420000   0.218579   -0.152078
 0.425000   0.217815   -0.153147
 0.430000   0.217047   -0.154013
 0.435000   0.216275   -0.154836
 0.440000   0.215499   -0.155777
 0.445000   0.214718   -0.156633
 0.450000   0.213933   -0.157228
 0.455000   0.213145   -0.157784
 0.460000   0.212355   -0.158397
 0.465000   0.211561   -0.158853
 0.470000   0.210766   -0.159049
 0.475000   0.209971   -0.159246
 0.480000   0.209174   -0.159469
 0.485000   0.208376   -0.159516
 0.490000   0.207579   -0.159370
 0.495000   0.206782   -0.159272
 0.500000   0.205986   -0.159158
 0.505000   0.205191   -0.158841
 0.510000   0.204398   -0.158382
 0.515000   0.203607   -0.157988
 0.520000   0.202818   -0.157483
 0.525000   0.202032   -0.156671
 0.530000   0.201251   -0.155722
 0.535000   0.200475   -0.154749
 0.540000   0.199704   -0.153582
 0.545000   0.198939   -0.152120
 0.550000   0.198182   -0.150572
 0.555000   0.197433   -0.148971
 0.560000   0.196693   -0.147168
 0.565000   0.195962   -0.145163
 0.570000   0.195241   -0.143148
 0.575000   0.194530   -0.141081
 0.580000   0.193830   -0.138815
 0.585000   0.193142   -0.136364
 0.590000   0.192467   -0.133859
 0.595000   0.191804   -0.131206
 0.600000   0.191155   -0.128268
 0.605000   0.190521   -0.125105
 0.610000   0.189904   -0.121799
 0.615000   0.189303   -0.118283
 0.620000   0.188721   -0.114490
 0.625000   0.188158   -0.110525
 0.630000   0.187615   -0.106460
 0.635000   0.187093   -0.102274
 0.640000   0.186593   -0.097963
 0.645000   0.186114   -0.093585
 0.650000   0.185657   -0.089106
 0.655000   0.185223   -0.084479
 0.660000   0.184812   -0.079709
 0.665000   0.184426   -0.074808
 0.670000   0.184064   -0.069751
 0.675000   0.183728   -0.064546
 0.680000   0.183419   -0.059192
 0.685000   0.183136   -0.053726
 0.690000   0.182881   -0.048227
 0.695000   0.182654   -0.042682
 0.700000   0.182454   -0.037063
 0.705000   0.182283   -0.031273
 0.710000   0.182142   -0.024980
 0.715000   0.182033   -0.018025
 0.720000   0.181961   -0.010715
 0.725000   0.181926   -0.003215
 0.730000   0.181929   0.004470
 0.735000   0.181971   0.012233
 0.740000   0.182052   0.020144
 0.745000   0.182172   0.027877
 0.750000   0.182330   0.034750
 0.755000   0.182520   0.040606
 0.760000   0.182736   0.045438
 0.765000   0.182974   0.049097
 0.770000   0.183227   0.051382
 0.775000   0.183488   0.052064
 0.780000   0.183748   0.051262
 0.785000   0.184001   0.049243
 0.790000   0.184241   0.046143
 0.795000   0.184462   0.042076
 0.800000   0.184661   0.037056
 0.805000   0.184833   0.031204
 0.810000   0.184973   0.025293
 0.815000   0.185086   0.019800
 0.820000   0.185171   0.014668
 0.825000   0.185232   0.010088
 0.830000   0.185272   0.006225
 0.835000   0.185295   0.003387
 0.840000   0.185306   0.001956
 0.845000   0.185314   0.001856
 0.850000   0.185325   0.002892
 0.855000   0.185343   0.005210
 0.860000   0.185377   0.009203
 0.865000   0.185435   0.015585
 0.870000   0.185533   0.025294
 0.875000   0.185688   0.039490
 0.880000   0.185927   0.059492
 0.885000   0.186283   0.086752
 0.890000   0.186795   0.122929
 0.895000   0.187512   0.170087
 0.900000   0.188496   0.229753
 0.905000   0.189810   0.302608
 0.910000   0.191522   0.387467
 0.915000   0.193684   0.478181
 0.920000   0.196304   0.559846
 0.925000   0.199283   0.603505
 0.930000   0.202339   0.556879
 0.935000   0.204852   0.341337
 0.940000   0.205752   -0.133693
 0.945000   0.203515   -0.924358
 0.950000   0.196509   -1.968832
 0.955000   0.183826   -3.024432
 0.960000   0.166264   -3.752890
 0.965000   0.146298   -3.925573
 0.970000   0.127009   -3.569309
 0.975000   0.110604   -2.922168
 0.980000   0.097787   -2.247948
 0.985000   0.088125   -1.701903
 0.990000   0.080768   -1.319947
 0.995000   0.074926   -1.067344
 1.000000   0.070094   -0.865130
201 psinorm ti(KeV) dti/dpsiN
 0.000000   5.695459   0.002988
 0.005000   5.694628   -0.335149
 0.010000   5.692107   -0.677528
 0.015000   5.687853   -1.028028
 0.020000   5.681827   -1.385909
 0.025000   5.673994   -1.750398
 0.030000   5.664323   -2.120691
 0.035000   5.652787   -2.495954
 0.040000   5.639363   -2.875227
 0.045000   5.624035   -3.257173
 0.050000   5.606792   -3.640059
 0.055000   5.587634   -4.022024
 0.060000   5.566571   -4.401241
 0.065000   5.543622   -4.776081
 0.070000   5.518811   -5.144668
 0.075000   5.492175   -5.506761
 0.080000   5.463743   -5.862374
 0.085000   5.433551   -6.209761
 0.090000   5.401645   -6.547363
 0.095000   5.368078   -6.873852
 0.100000   5.332907   -7.187207
 0.105000   5.296206   -7.487011
 0.110000   5.258037   -7.773561
 0.115000   5.218470   -8.045131
 0.120000   5.177585   -8.300289
 0.125000   5.135467   -8.538651
 0.130000   5.092199   -8.760045
 0.135000   5.047867   -8.966883
 0.140000   5.002530   -9.161999
 0.145000   4.956247   -9.344971
 0.150000   4.909080   -9.514596
 0.155000   4.861101   -9.669456
 0.160000   4.812386   -9.806978
 0.165000   4.763031   -9.924574
 0.170000   4.713140   -10.022417
 0.175000   4.662807   -10.101613
 0.180000   4.612124   -10.162313
 0.185000   4.561184   -10.204767
 0.190000   4.510076   -10.228347
 0.195000   4.458900   -10.231096
 0.200000   4.407765   -10.213235
 0.205000   4.356768   -10.175588
 0.210000   4.306009   -10.118030
 0.215000   4.255587   -10.041920
 0.220000   4.205590   -9.948410
 0.225000   4.156103   -9.842958
 0.230000   4.107161   -9.738941
 0.235000   4.058714   -9.641895
 0.240000   4.010742   -9.548654
 0.245000   3.963227   -9.457703
 0.250000   3.916165   -9.367437
 0.255000   3.869553   -9.278926
 0.260000   3.823375   -9.185665
 0.265000   3.777696   -9.082653
 0.270000   3.732549   -8.972685
 0.275000   3.687969   -8.855068
 0.280000   3.643998   -8.729499
 0.285000   3.600674   -8.598361
 0.290000   3.558015   -8.455727
 0.295000   3.516117   -8.297832
 0.300000   3.475036   -8.129023
 0.305000   3.434827   -7.949095
 0.310000   3.395545   -7.758086
 0.315000   3.357246   -7.554008
 0.320000   3.320005   -7.338041
 0.325000   3.283866   -7.114648
 0.330000   3.248859   -6.885960
 0.335000   3.215006   -6.653797
 0.340000   3.182321   -6.419895
 0.345000   3.150807   -6.180258
 0.350000   3.120518   -5.941422
 0.355000   3.091393   -5.714321
 0.360000   3.063375   -5.499307
 0.365000   3.036400   -5.298052
 0.370000   3.010394   -5.111838
 0.375000   2.985281   -4.941609
 0.380000   2.960978   -4.789602
 0.385000   2.937385   -4.654893
 0.390000   2.914429   -4.534238
 0.395000   2.892043   -4.426284
 0.400000   2.870167   -4.329305
 0.405000   2.848750   -4.242959
 0.410000   2.827737   -4.160333
 0.415000   2.807147   -4.074109
 0.420000   2.786996   -3.986257
 0.425000   2.767284   -3.898744
 0.430000   2.748008   -3.812060
 0.435000   2.729164   -3.725530
 0.440000   2.710753   -3.639313
 0.445000   2.692770   -3.558092
 0.450000   2.675172   -3.485949
 0.455000   2.657911   -3.423809
 0.460000   2.640934   -3.372292
 0.465000   2.624188   -3.331375
 0.470000   2.607620   -3.301794
 0.475000   2.591170   -3.284070
 0.480000   2.574780   -3.276802
 0.485000   2.558402   -3.278461
 0.490000   2.541995   -3.287973
 0.495000   2.525522   -3.304560
 0.500000   2.508950   -3.327568
 0.505000   2.492247   -3.355728
 0.510000   2.475392   -3.388319
 0.515000   2.458363   -3.425179
 0.520000   2.441140   -3.465675
 0.525000   2.423707   -3.509122
 0.530000   2.406049   -3.553539
 0.535000   2.388171   -3.595603
 0.540000   2.370093   -3.633772
 0.545000   2.351834   -3.668997
 0.550000   2.333403   -3.703043
 0.555000   2.314803   -3.737730
 0.560000   2.296026   -3.774588
 0.565000   2.277057   -3.815359
 0.570000   2.257872   -3.859770
 0.575000   2.238460   -3.906295
 0.580000   2.218809   -3.954524
 0.585000   2.198914   -4.004085
 0.590000   2.178769   -4.057239
 0.595000   2.158342   -4.110844
 0.600000   2.137660   -4.160700
 0.605000   2.116735   -4.207569
 0.610000   2.095584   -4.250229
 0.615000   2.074233   -4.287379
 0.620000   2.052711   -4.319726
 0.625000   2.031035   -4.339117
 0.630000   2.009319   -4.338060
 0.635000   1.987655   -4.318380
 0.640000   1.966136   -4.279815
 0.645000   1.944857   -4.222620
 0.650000   1.923909   -4.142747
 0.655000   1.903429   -4.043430
 0.660000   1.883475   -3.932808
 0.665000   1.864101   -3.811938
 0.670000   1.845356   -3.682529
 0.675000   1.827276   -3.547045
 0.680000   1.809885   -3.402937
 0.685000   1.793246   -3.259295
 0.690000   1.777292   -3.128449
 0.695000   1.761962   -3.008452
 0.700000   1.747208   -2.898237
 0.705000   1.732980   -2.798190
 0.710000   1.719226   -2.709497
 0.715000   1.705885   -2.634063
 0.720000   1.692885   -2.568401
 0.725000   1.680201   -2.506249
 0.730000   1.667823   -2.444256
 0.735000   1.655758   -2.380160
 0.740000   1.644021   -2.314052
 0.745000   1.632617   -2.244669
 0.750000   1.621575   -2.169448
 0.755000   1.610923   -2.089861
 0.760000   1.600676   -2.008428
 0.765000   1.590839   -1.926712
 0.770000   1.581409   -1.846865
 0.775000   1.572370   -1.770580
 0.780000   1.563703   -1.697693
 0.785000   1.555393   -1.628387
 0.790000   1.547419   -1.563618
 0.795000   1.539757   -1.503886
 0.800000   1.532380   -1.449872
 0.805000   1.525258   -1.401856
 0.810000   1.518362   -1.359739
 0.815000   1.511661   -1.324753
 0.820000   1.505114   -1.298623
 0.825000   1.498675   -1.282306
 0.830000   1.492291   -1.276669
 0.835000   1.485908   -1.282638
 0.840000   1.479465   -1.300101
 0.845000   1.472907   -1.329210
 0.850000   1.466173   -1.371393
 0.855000   1.459193   -1.428144
 0.860000   1.451891   -1.501613
 0.865000   1.444177   -1.595762
 0.870000   1.435934   -1.709088
 0.875000   1.427086   -1.839599
 0.880000   1.417538   -1.991020
 0.885000   1.407176   -2.167158
 0.890000   1.395866   -2.373537
 0.895000   1.383440   -2.627556
 0.900000   1.369590   -2.929491
 0.905000   1.354146   -3.277332
 0.910000   1.336817   -3.688739
 0.915000   1.317258   -4.175203
 0.920000   1.295065   -4.747153
 0.925000   1.269787   -5.454297
 0.930000   1.240522   -6.268992
 0.935000   1.207097   -7.132658
 0.940000   1.169196   -8.047676
 0.945000   1.126620   -8.981120
 0.950000   1.079384   -9.884331
 0.955000   1.027777   -10.737021
 0.960000   0.972014   -11.432970
 0.965000   0.913447   -11.870744
 0.970000   0.853307   -12.060365
 0.975000   0.792843   -11.997423
 0.980000   0.733332   -11.686316
 0.985000   0.675980   -11.148971
 0.990000   0.621843   -10.409259
 0.995000   0.571888   -9.517887
 1.000000   0.526664   -8.571580
201 psinorm nb(10^20/m^3) dnb/dpsiN
 0.000000   0.116545   0.007020
 0.005000   0.116224   -0.135147
 0.010000   0.115193   -0.244115
 0.015000   0.113783   -0.309924
 0.020000   0.112094   -0.359956
 0.025000   0.110184   -0.398462
 0.030000   0.108109   -0.426847
 0.035000   0.105915   -0.447562
 0.040000   0.103634   -0.462237
 0.045000   0.101293   -0.471589
 0.050000   0.098918   -0.476376
 0.055000   0.096529   -0.477451
 0.060000   0.094143   -0.475613
 0.065000   0.091773   -0.471277
 0.070000   0.089431   -0.465026
 0.075000   0.087123   -0.457081
 0.080000   0.084860   -0.447958
 0.085000   0.082643   -0.437815
 0.090000   0.080482   -0.426052
 0.095000   0.078383   -0.413929
 0.100000   0.076342   -0.401929
 0.105000   0.074363   -0.389295
 0.110000   0.072449   -0.375690
 0.115000   0.070606   -0.362202
 0.120000   0.068827   -0.349371
 0.125000   0.067113   -0.336540
 0.130000   0.065462   -0.323800
 0.135000   0.063875   -0.311209
 0.140000   0.062350   -0.298804
 0.145000   0.060887   -0.286651
 0.150000   0.059483   -0.274841
 0.155000   0.058138   -0.263400
 0.160000   0.056849   -0.252327
 0.165000   0.055615   -0.241651
 0.170000   0.054433   -0.231401
 0.175000   0.053301   -0.221580
 0.180000   0.052217   -0.212202
 0.185000   0.051179   -0.203260
 0.190000   0.050184   -0.194743
 0.195000   0.049231   -0.186659
 0.200000   0.048318   -0.179001
 0.205000   0.047441   -0.171758
 0.210000   0.046600   -0.164922
 0.215000   0.045792   -0.158483
 0.220000   0.045015   -0.152427
 0.225000   0.044268   -0.146442
 0.230000   0.043551   -0.140726
 0.235000   0.042861   -0.135668
 0.240000   0.042194   -0.131034
 0.245000   0.041550   -0.126702
 0.250000   0.040927   -0.122657
 0.255000   0.040324   -0.118886
 0.260000   0.039738   -0.115069
 0.265000   0.039173   -0.111443
 0.270000   0.038624   -0.108376
 0.275000   0.038089   -0.105587
 0.280000   0.037568   -0.102976
 0.285000   0.037060   -0.100518
 0.290000   0.036563   -0.097983
 0.295000   0.036080   -0.095680
 0.300000   0.035606   -0.093810
 0.305000   0.035142   -0.092060
 0.310000   0.034686   -0.090390
 0.315000   0.034238   -0.088611
 0.320000   0.033799   -0.086988
 0.325000   0.033368   -0.085685
 0.330000   0.032943   -0.084450
 0.335000   0.032523   -0.083175
 0.340000   0.032111   -0.081866
 0.345000   0.031705   -0.080736
 0.350000   0.031304   -0.079763
 0.355000   0.030907   -0.078805
 0.360000   0.030515   -0.077722
 0.365000   0.030130   -0.076705
 0.370000   0.029748   -0.075884
 0.375000   0.029371   -0.075082
 0.380000   0.028998   -0.074130
 0.385000   0.028630   -0.073192
 0.390000   0.028266   -0.072448
 0.395000   0.027905   -0.071729
 0.400000   0.027548   -0.070848
 0.405000   0.027197   -0.069940
 0.410000   0.026849   -0.069199
 0.415000   0.026505   -0.068481
 0.420000   0.026164   -0.067593
 0.425000   0.025829   -0.066694
 0.430000   0.025497   -0.065970
 0.435000   0.025169   -0.065248
 0.440000   0.024845   -0.064347
 0.445000   0.024526   -0.063457
 0.450000   0.024210   -0.062746
 0.455000   0.023898   -0.061985
 0.460000   0.023590   -0.061073
 0.465000   0.023287   -0.060214
 0.470000   0.022988   -0.059513
 0.475000   0.022692   -0.058728
 0.480000   0.022401   -0.057840
 0.485000   0.022114   -0.057045
 0.490000   0.021830   -0.056364
 0.495000   0.021550   -0.055558
 0.500000   0.021275   -0.054700
 0.505000   0.021003   -0.053980
 0.510000   0.020735   -0.053326
 0.515000   0.020470   -0.052512
 0.520000   0.020210   -0.051698
 0.525000   0.019953   -0.051064
 0.530000   0.019699   -0.050423
 0.535000   0.019449   -0.049653
 0.540000   0.019203   -0.048927
 0.545000   0.018960   -0.048352
 0.550000   0.018719   -0.047724
 0.555000   0.018482   -0.047015
 0.560000   0.018249   -0.046383
 0.565000   0.018019   -0.045857
 0.570000   0.017791   -0.045260
 0.575000   0.017566   -0.044625
 0.580000   0.017344   -0.044088
 0.585000   0.017125   -0.043623
 0.590000   0.016908   -0.043089
 0.595000   0.016694   -0.042553
 0.600000   0.016483   -0.042128
 0.605000   0.016273   -0.041750
 0.610000   0.016065   -0.041331
 0.615000   0.015860   -0.040945
 0.620000   0.015656   -0.040667
 0.625000   0.015453   -0.040430
 0.630000   0.015251   -0.040201
 0.635000   0.015051   -0.040032
 0.640000   0.014851   -0.039947
 0.645000   0.014651   -0.039899
 0.650000   0.014452   -0.039898
 0.655000   0.014252   -0.039947
 0.660000   0.014052   -0.040026
 0.665000   0.013852   -0.040122
 0.670000   0.013651   -0.040255
 0.675000   0.013450   -0.040417
 0.680000   0.013247   -0.040570
 0.685000   0.013044   -0.040717
 0.690000   0.012840   -0.040881
 0.695000   0.012635   -0.041071
 0.700000   0.012429   -0.041254
 0.705000   0.012223   -0.041419
 0.710000   0.012015   -0.041589
 0.715000   0.011807   -0.041798
 0.720000   0.011597   -0.042021
 0.725000   0.011386   -0.042223
 0.730000   0.011175   -0.042434
 0.735000   0.010962   -0.042666
 0.740000   0.010748   -0.042939
 0.745000   0.010533   -0.043211
 0.750000   0.010316   -0.043453
 0.755000   0.010098   -0.043697
 0.760000   0.009879   -0.043951
 0.765000   0.009659   -0.044229
 0.770000   0.009437   -0.044487
 0.775000   0.009214   -0.044711
 0.780000   0.008990   -0.044927
 0.785000   0.008765   -0.045134
 0.790000   0.008538   -0.045352
 0.795000   0.008311   -0.045553
 0.800000   0.008083   -0.045711
 0.805000   0.007854   -0.045851
 0.810000   0.007624   -0.045972
 0.815000   0.007394   -0.046071
 0.820000   0.007164   -0.046149
 0.825000   0.006933   -0.046193
 0.830000   0.006702   -0.046196
 0.835000   0.006471   -0.046169
 0.840000   0.006240   -0.046108
 0.845000   0.006010   -0.046012
 0.850000   0.005780   -0.045876
 0.855000   0.005551   -0.045681
 0.860000   0.005323   -0.045453
 0.865000   0.005096   -0.045268
 0.870000   0.004870   -0.045169
 0.875000   0.004645   -0.045164
 0.880000   0.004419   -0.045255
 0.885000   0.004192   -0.045437
 0.890000   0.003964   -0.045702
 0.895000   0.003735   -0.046035
 0.900000   0.003504   -0.046423
 0.905000   0.003271   -0.046834
 0.910000   0.003036   -0.047192
 0.915000   0.002799   -0.047393
 0.920000   0.002562   -0.047290
 0.925000   0.002326   -0.046747
 0.930000   0.002094   -0.045687
 0.935000   0.001869   -0.044104
 0.940000   0.001653   -0.042111
 0.945000   0.001448   -0.039965
 0.950000   0.001254   -0.037918
 0.955000   0.001069   -0.035832
 0.960000   0.000895   -0.033155
 0.965000   0.000737   -0.029475
 0.970000   0.000601   -0.024953
 0.975000   0.000488   -0.020216
 0.980000   0.000398   -0.016054
 0.985000   0.000327   -0.013322
 0.990000   0.000265   -0.012117
 0.995000   0.000206   -0.012310
 1.000000   0.000142   -0.013310
201 psinorm pb(KPa) dpb/dpsiN
 0.000000   48.394417   -20.905655
 0.005000   48.156725   -74.171418
 0.010000   47.652703   -116.642772
 0.015000   46.990297   -143.892899
 0.020000   46.213774   -164.290426
 0.025000   45.347393   -179.634164
 0.030000   44.417432   -190.270976
 0.035000   43.444683   -197.924942
 0.040000   42.438183   -203.356363
 0.045000   41.411119   -206.391293
 0.050000   40.374270   -207.476025
 0.055000   39.336359   -207.046431
 0.060000   38.303806   -205.479712
 0.065000   37.281562   -202.904446
 0.070000   36.274761   -199.586899
 0.075000   35.285693   -195.704541
 0.080000   34.317716   -191.388692
 0.085000   33.371806   -186.597482
 0.090000   32.451741   -181.161197
 0.095000   31.560194   -175.628890
 0.100000   30.695452   -170.192717
 0.105000   29.858267   -164.497827
 0.110000   29.050474   -158.444308
 0.115000   28.273824   -152.524017
 0.120000   27.525234   -146.919906
 0.125000   26.804625   -141.351806
 0.130000   26.111716   -135.852648
 0.135000   25.446098   -130.446700
 0.140000   24.807249   -125.144704
 0.145000   24.194651   -119.972617
 0.150000   23.607522   -114.961773
 0.155000   23.045033   -110.118583
 0.160000   22.506337   -105.447305
 0.165000   21.990560   -100.956287
 0.170000   21.496774   -96.651692
 0.175000   21.024043   -92.535513
 0.180000   20.571419   -88.611118
 0.185000   20.137932   -84.875386
 0.190000   19.722665   -81.323648
 0.195000   19.324696   -77.956668
 0.200000   18.943098   -74.772296
 0.205000   18.576973   -71.762917
 0.210000   18.225469   -68.922080
 0.215000   17.887752   -66.247946
 0.220000   17.562989   -63.732026
 0.225000   17.250432   -61.262971
 0.230000   16.950360   -58.908814
 0.235000   16.661344   -56.811021
 0.240000   16.382250   -54.883917
 0.245000   16.112504   -53.075789
 0.250000   15.851492   -51.389598
 0.255000   15.598608   -49.815084
 0.260000   15.353341   -48.229900
 0.265000   15.116309   -46.722183
 0.270000   14.886119   -45.430338
 0.275000   14.662006   -44.250491
 0.280000   14.443614   -43.143301
 0.285000   14.230573   -42.100679
 0.290000   14.022607   -41.035370
 0.295000   13.820219   -40.063031
 0.300000   13.621977   -39.259112
 0.305000   13.427628   -38.503756
 0.310000   13.236939   -37.781600
 0.315000   13.049812   -37.020725
 0.320000   12.866732   -36.321069
 0.325000   12.686601   -35.744954
 0.330000   12.509283   -35.195571
 0.335000   12.334646   -34.632256
 0.340000   12.162960   -34.059632
 0.345000   11.994049   -33.556885
 0.350000   11.827391   -33.114344
 0.355000   11.662906   -32.677789
 0.360000   11.500613   -32.196811
 0.365000   11.340938   -31.742485
 0.370000   11.183188   -31.361476
 0.375000   11.027323   -30.988585
 0.380000   10.873303   -30.559192
 0.385000   10.721731   -30.137229
 0.390000   10.571930   -29.792063
 0.395000   10.423811   -29.459594
 0.400000   10.277334   -29.064354
 0.405000   10.133167   -28.656756
 0.410000   9.990767   -28.312321
 0.415000   9.850044   -27.978185
 0.420000   9.710985   -27.581812
 0.425000   9.574226   -27.183650
 0.430000   9.439148   -26.852256
 0.435000   9.305703   -26.522281
 0.440000   9.173926   -26.127372
 0.445000   9.044429   -25.738470
 0.450000   8.916541   -25.416259
 0.455000   8.790267   -25.074879
 0.460000   8.665792   -24.678353
 0.465000   8.543483   -24.304040
 0.470000   8.422752   -23.989952
 0.475000   8.303584   -23.646616
 0.480000   8.186286   -23.266312
 0.485000   8.070921   -22.921090
 0.490000   7.957075   -22.618610
 0.495000   7.844735   -22.271835
 0.500000   7.734356   -21.906428
 0.505000   7.625670   -21.591532
 0.510000   7.518441   -21.301367
 0.515000   7.412657   -20.952999
 0.520000   7.308911   -20.605384
 0.525000   7.206603   -20.324282
 0.530000   7.105668   -20.040644
 0.535000   7.006196   -19.708627
 0.540000   6.908582   -19.392215
 0.545000   6.812274   -19.131757
 0.550000   6.717264   -18.849868
 0.555000   6.623776   -18.535274
 0.560000   6.531912   -18.248814
 0.565000   6.441287   -18.002569
 0.570000   6.351886   -17.728874
 0.575000   6.263999   -17.436510
 0.580000   6.177521   -17.180676
 0.585000   6.092192   -16.953540
 0.590000   6.007985   -16.698966
 0.595000   5.925202   -16.440585
 0.600000   5.843580   -16.224874
 0.605000   5.762953   -16.029442
 0.610000   5.683285   -15.817753
 0.615000   5.604776   -15.622672
 0.620000   5.527058   -15.474596
 0.625000   5.450030   -15.342138
 0.630000   5.373637   -15.216545
 0.635000   5.297865   -15.121397
 0.640000   5.222423   -15.064935
 0.645000   5.147215   -15.025946
 0.650000   5.072164   -15.010886
 0.655000   4.997106   -15.019484
 0.660000   4.921969   -15.037734
 0.665000   4.846729   -15.061207
 0.670000   4.771357   -15.100461
 0.675000   4.695724   -15.148580
 0.680000   4.619871   -15.187017
 0.685000   4.543854   -15.218902
 0.690000   4.467682   -15.253962
 0.695000   4.391315   -15.293895
 0.700000   4.314743   -15.326096
 0.705000   4.238054   -15.349129
 0.710000   4.161252   -15.371239
 0.715000   4.084341   -15.404101
 0.720000   4.007211   -15.440220
 0.725000   3.929939   -15.469331
 0.730000   3.852517   -15.500867
 0.735000   3.774930   -15.538276
 0.740000   3.697135   -15.587632
 0.745000   3.619054   -15.635057
 0.750000   3.540784   -15.672758
 0.755000   3.462326   -15.709844
 0.760000   3.383686   -15.748379
 0.765000   3.304843   -15.791131
 0.770000   3.225774   -15.826585
 0.775000   3.146577   -15.850924
 0.780000   3.067265   -15.871969
 0.785000   2.987857   -15.888942
 0.790000   2.908376   -15.905154
 0.795000   2.828806   -15.914167
 0.800000   2.749234   -15.911818
 0.805000   2.669687   -15.903727
 0.810000   2.590197   -15.888990
 0.815000   2.510798   -15.866925
 0.820000   2.431527   -15.833123
 0.825000   2.352466   -15.787632
 0.830000   2.273651   -15.734216
 0.835000   2.195124   -15.671848
 0.840000   2.116933   -15.599489
 0.845000   2.039129   -15.516386
 0.850000   1.961769   -15.421832
 0.855000   1.884911   -15.304782
 0.860000   1.808721   -15.178125
 0.865000   1.733130   -15.066743
 0.870000   1.658054   -14.974951
 0.875000   1.583380   -14.906271
 0.880000   1.508991   -14.861478
 0.885000   1.434765   -14.841452
 0.890000   1.360576   -14.846942
 0.895000   1.286296   -14.874956
 0.900000   1.211827   -14.919722
 0.905000   1.137099   -14.973815
 0.910000   1.062089   -15.025259
 0.915000   0.986846   -15.046705
 0.920000   0.911622   -14.990068
 0.925000   0.836945   -14.807667
 0.930000   0.763545   -14.461695
 0.935000   0.692329   -13.930972
 0.940000   0.624235   -13.245545
 0.945000   0.559873   -12.516849
 0.950000   0.499067   -11.919916
 0.955000   0.440674   -11.567920
 0.960000   0.383388   -11.394419
 0.965000   0.326730   -11.181323
 0.970000   0.271574   -10.713892
 0.975000   0.219591   -9.901533
 0.980000   0.172559   -8.804252
 0.985000   0.131548   -7.558952
 0.990000   0.096969   -6.170757
 0.995000   0.069841   -4.996011
 1.000000   0.047009   -4.136549
201 psinorm ptot(KPa) dptot/dpsiN
 0.000000   105.363891   -146.884130
 0.005000   104.529655   -186.810050
 0.010000   103.495790   -218.998867
 0.015000   102.339666   -239.963451
 0.020000   101.096156   -255.577595
 0.025000   99.783891   -267.253514
 0.030000   98.423620   -275.208771
 0.035000   97.031803   -280.941535
 0.040000   95.614205   -285.059471
 0.045000   94.181208   -287.316823
 0.050000   92.741037   -288.082040
 0.055000   91.300388   -287.703543
 0.060000   89.864001   -286.475965
 0.065000   88.435628   -284.480557
 0.070000   87.019196   -281.920661
 0.075000   85.616421   -278.949238
 0.080000   84.229703   -275.648790
 0.085000   82.859934   -271.952481
 0.090000   81.510179   -267.732468
 0.095000   80.182609   -263.419258
 0.100000   78.875986   -259.152608
 0.105000   77.591083   -254.637859
 0.110000   76.329607   -249.800250
 0.115000   75.093080   -245.029698
 0.120000   73.879311   -240.456064
 0.125000   72.688520   -235.851100
 0.130000   71.520800   -231.237618
 0.135000   70.376143   -226.643632
 0.140000   69.254363   -222.087724
 0.145000   68.155266   -217.588302
 0.150000   67.078480   -213.164035
 0.155000   66.023626   -208.813215
 0.160000   64.990348   -204.529303
 0.165000   63.978333   -200.307791
 0.170000   62.987270   -196.154255
 0.175000   62.016790   -192.076244
 0.180000   61.066508   -188.077506
 0.185000   60.136015   -184.157841
 0.190000   59.224929   -180.311659
 0.195000   58.332899   -176.532360
 0.200000   57.459606   -172.821495
 0.205000   56.604684   -169.177363
 0.210000   55.767832   -165.595060
 0.215000   54.948733   -162.080884
 0.220000   54.147023   -158.633611
 0.225000   53.362397   -155.186793
 0.230000   52.595155   -151.851342
 0.235000   51.843884   -148.766550
 0.240000   51.107490   -145.849809
 0.245000   50.385385   -143.051444
 0.250000   49.676975   -140.368918
 0.255000   48.981696   -137.797009
 0.260000   48.299005   -135.206827
 0.265000   47.629628   -132.652624
 0.270000   46.972479   -130.262807
 0.275000   46.327000   -127.949111
 0.280000   45.692988   -125.677821
 0.285000   45.070222   -123.452481
 0.290000   44.458463   -121.176685
 0.295000   43.858455   -118.934780
 0.300000   43.269115   -116.808659
 0.305000   42.690368   -114.696162
 0.310000   42.122154   -112.584699
 0.315000   41.564521   -110.405025
 0.320000   41.018103   -108.247614
 0.325000   40.482045   -106.183465
 0.330000   39.956269   -104.137834
 0.335000   39.440667   -102.082596
 0.340000   38.935443   -100.028376
 0.345000   38.440383   -98.028157
 0.350000   37.955161   -96.098231
 0.355000   37.479401   -94.233167
 0.360000   37.012830   -92.390254
 0.365000   36.555498   -90.636832
 0.370000   36.106461   -89.017480
 0.375000   35.665323   -87.478603
 0.380000   35.231675   -85.971323
 0.385000   34.805610   -84.547768
 0.390000   34.386198   -83.256188
 0.395000   33.973048   -82.034732
 0.400000   33.565850   -80.809433
 0.405000   33.164954   -79.622412
 0.410000   32.769626   -78.513911
 0.415000   32.379815   -77.409735
 0.420000   31.995529   -76.253013
 0.425000   31.617285   -75.103814
 0.430000   31.244491   -74.023745
 0.435000   30.877047   -72.952170
 0.440000   30.514969   -71.830440
 0.445000   30.158743   -70.737661
 0.450000   29.807592   -69.741603
 0.455000   29.461327   -68.768976
 0.460000   29.119903   -67.789562
 0.465000   28.783431   -66.871133
 0.470000   28.451191   -66.049512
 0.475000   28.122936   -65.247359
 0.480000   27.798718   -64.452319
 0.485000   27.478413   -63.722201
 0.490000   27.161496   -63.059776
 0.495000   26.847815   -62.384667
 0.500000   26.537649   -61.717206
 0.505000   26.230643   -61.114260
 0.510000   25.926506   -60.549833
 0.515000   25.625145   -59.948576
 0.520000   25.327021   -59.360200
 0.525000   25.031543   -58.840441
 0.530000   24.738616   -58.320235
 0.535000   24.448340   -57.746771
 0.540000   24.161148   -57.172460
 0.545000   23.876616   -56.637293
 0.550000   23.594776   -56.078064
 0.555000   23.315835   -55.490924
 0.560000   23.039866   -54.936294
 0.565000   22.766472   -54.431964
 0.570000   22.495547   -53.916202
 0.575000   22.227310   -53.391153
 0.580000   21.961635   -52.905385
 0.585000   21.698256   -52.450598
 0.590000   21.437129   -51.982778
 0.595000   21.178429   -51.512172
 0.600000   20.922007   -51.067092
 0.605000   20.667758   -50.630156
 0.610000   20.415706   -50.164063
 0.615000   20.166117   -49.695509
 0.620000   19.918751   -49.255421
 0.625000   19.673563   -48.789894
 0.630000   19.430852   -48.268860
 0.635000   19.190874   -47.721685
 0.640000   18.953635   -47.156275
 0.645000   18.719312   -46.554606
 0.650000   18.488089   -45.909963
 0.655000   18.260212   -45.231670
 0.660000   18.035772   -44.532231
 0.665000   17.814890   -43.811161
 0.670000   17.597661   -43.083779
 0.675000   17.384052   -42.351274
 0.680000   17.174148   -41.587185
 0.685000   16.968180   -40.823962
 0.690000   16.765908   -40.111457
 0.695000   16.567065   -39.444392
 0.700000   16.371464   -38.805846
 0.705000   16.179007   -38.193018
 0.710000   15.989534   -37.609879
 0.715000   15.802908   -37.070195
 0.720000   15.618832   -36.562675
 0.725000   15.437281   -36.061416
 0.730000   15.258218   -35.565229
 0.735000   15.081629   -35.072744
 0.740000   14.907491   -34.588513
 0.745000   14.735744   -34.101818
 0.750000   14.566472   -33.611341
 0.755000   14.399631   -33.133250
 0.760000   14.235140   -32.676750
 0.765000   14.072863   -32.251755
 0.770000   13.912622   -31.857074
 0.775000   13.754292   -31.498207
 0.780000   13.597640   -31.178989
 0.785000   13.442502   -30.892915
 0.790000   13.288711   -30.642802
 0.795000   13.136074   -30.420972
 0.800000   12.984501   -30.224638
 0.805000   12.833828   -30.057149
 0.810000   12.683930   -29.900953
 0.815000   12.534818   -29.749026
 0.820000   12.386440   -29.602766
 0.825000   12.238791   -29.460371
 0.830000   12.091836   -29.323531
 0.835000   11.945556   -29.185884
 0.840000   11.799977   -29.035668
 0.845000   11.655199   -28.870282
 0.850000   11.511274   -28.692061
 0.855000   11.368278   -28.484729
 0.860000   11.226427   -28.250803
 0.865000   11.085770   -28.001390
 0.870000   10.946413   -27.702640
 0.875000   10.808744   -27.310875
 0.880000   10.673304   -26.790953
 0.885000   10.540834   -26.102667
 0.890000   10.412278   -25.206314
 0.895000   10.288771   -24.092784
 0.900000   10.171350   -22.720696
 0.905000   10.061564   -21.089172
 0.910000   9.960458   -19.358037
 0.915000   9.867984   -17.871277
 0.920000   9.781745   -17.329605
 0.925000   9.694688   -19.173949
 0.930000   9.590006   -25.497936
 0.935000   9.439708   -39.259612
 0.940000   9.197410   -63.969349
 0.945000   8.800015   -101.446029
 0.950000   8.182949   -148.661221
 0.955000   7.313403   -195.669615
 0.960000   6.226253   -228.197470
 0.965000   5.031428   -235.392596
 0.970000   3.872327   -215.892768
 0.975000   2.872500   -177.348836
 0.980000   2.098839   -132.148107
 0.985000   1.551019   -91.733807
 0.990000   1.181501   -61.793409
 0.995000   0.933085   -42.319557
 1.000000   0.758305   -27.592363
201 psinorm omeg(kRad/s) domeg/dpsiN
 0.000000   36.037481   0.025557
 0.005000   36.037221   -0.129534
 0.010000   36.036186   -0.329263
 0.015000   36.033929   -0.631843
 0.020000   36.029868   -1.062265
 0.025000   36.023306   -1.641691
 0.030000   36.013451   -2.386209
 0.035000   35.999444   -3.303777
 0.040000   35.980413   -4.382180
 0.045000   35.955622   -5.599177
 0.050000   35.924421   -6.928877
 0.055000   35.886333   -8.331792
 0.060000   35.841103   -9.763201
 0.065000   35.788701   -11.179445
 0.070000   35.729309   -12.498120
 0.075000   35.663720   -13.730091
 0.080000   35.592008   -14.930967
 0.085000   35.514411   -16.065827
 0.090000   35.431350   -17.112660
 0.095000   35.343284   -18.068218
 0.100000   35.250667   -18.907475
 0.105000   35.154209   -19.707326
 0.110000   35.053594   -20.557534
 0.115000   34.948634   -21.414746
 0.120000   34.839447   -22.237931
 0.125000   34.726255   -23.007129
 0.130000   34.609375   -23.689832
 0.135000   34.489356   -24.307027
 0.140000   34.366305   -24.919143
 0.145000   34.240165   -25.530717
 0.150000   34.110998   -26.128628
 0.155000   33.978879   -26.705692
 0.160000   33.843941   -27.231916
 0.165000   33.706559   -27.690897
 0.170000   33.567032   -28.112886
 0.175000   33.425431   -28.513218
 0.180000   33.281900   -28.888697
 0.185000   33.136544   -29.247014
 0.190000   32.989430   -29.592775
 0.195000   32.840616   -29.928384
 0.200000   32.690146   -30.249552
 0.205000   32.538120   -30.545640
 0.210000   32.384690   -30.811731
 0.215000   32.230003   -31.048912
 0.220000   32.074200   -31.262761
 0.225000   31.917375   -31.477986
 0.230000   31.759421   -31.712398
 0.235000   31.600251   -31.964995
 0.240000   31.439771   -32.231157
 0.245000   31.277940   -32.496434
 0.250000   31.114806   -32.747549
 0.255000   30.950464   -32.982213
 0.260000   30.784984   -33.145551
 0.265000   30.619009   -33.204744
 0.270000   30.452937   -33.180036
 0.275000   30.287208   -33.063524
 0.280000   30.122301   -32.849046
 0.285000   29.958718   -32.527712
 0.290000   29.797024   -32.084021
 0.295000   29.637878   -31.522734
 0.300000   29.481797   -30.861404
 0.305000   29.329264   -30.108510
 0.310000   29.180712   -29.274649
 0.315000   29.036517   -28.346490
 0.320000   28.897247   -27.358827
 0.325000   28.762929   -26.351907
 0.330000   28.633728   -25.316726
 0.335000   28.509762   -24.261972
 0.340000   28.391108   -23.194624
 0.345000   28.277816   -22.095766
 0.350000   28.170151   -20.983231
 0.355000   28.067983   -19.891641
 0.360000   27.971234   -18.819404
 0.365000   27.879789   -17.774217
 0.370000   27.793492   -16.762767
 0.375000   27.712162   -15.786007
 0.380000   27.635632   -14.855612
 0.385000   27.563605   -13.974994
 0.390000   27.495882   -13.131025
 0.395000   27.432295   -12.317841
 0.400000   27.372704   -11.529756
 0.405000   27.316998   -10.763088
 0.410000   27.265073   -10.002302
 0.415000   27.216975   -9.235768
 0.420000   27.172715   -8.473357
 0.425000   27.132241   -7.725309
 0.430000   27.095462   -6.999255
 0.435000   27.062248   -6.301133
 0.440000   27.032451   -5.642880
 0.445000   27.005820   -5.045599
 0.450000   26.981995   -4.520948
 0.455000   26.960610   -4.067382
 0.460000   26.941321   -3.680696
 0.465000   26.923803   -3.363824
 0.470000   26.907683   -3.119798
 0.475000   26.892605   -2.941643
 0.480000   26.878266   -2.841434
 0.485000   26.864191   -2.851111
 0.490000   26.849755   -3.005218
 0.495000   26.834139   -3.352656
 0.500000   26.816228   -3.949497
 0.505000   26.794644   -4.833200
 0.510000   26.767896   -6.048517
 0.515000   26.734159   -7.648762
 0.520000   26.691409   -9.664957
 0.525000   26.637509   -12.112336
 0.530000   26.570285   -14.965372
 0.535000   26.487855   -18.150753
 0.540000   26.388778   -21.616425
 0.545000   26.271691   -25.349931
 0.550000   26.135279   -29.358852
 0.555000   25.978102   -33.685865
 0.560000   25.798420   -38.426288
 0.565000   25.593840   -43.660946
 0.570000   25.361810   -49.419381
 0.575000   25.099646   -55.737190
 0.580000   24.804439   -62.653580
 0.585000   24.473110   -70.205937
 0.590000   24.102379   -78.641853
 0.595000   23.686691   -87.753179
 0.600000   23.224847   -97.211691
 0.605000   22.714575   -107.046045
 0.610000   22.154387   -117.070894
 0.615000   21.543866   -127.043100
 0.620000   20.883956   -136.899017
 0.625000   20.174875   -145.652356
 0.630000   19.427432   -152.276282
 0.635000   18.652113   -156.626244
 0.640000   17.861170   -158.403278
 0.645000   17.068080   -157.450728
 0.650000   16.286663   -153.330498
 0.655000   15.534775   -146.398738
 0.660000   14.822675   -137.621736
 0.665000   14.158558   -127.404358
 0.670000   13.548632   -116.209689
 0.675000   12.996461   -104.553102
 0.680000   12.503101   -92.467993
 0.685000   12.071781   -80.837453
 0.690000   11.694726   -70.674561
 0.695000   11.365035   -61.758406
 0.700000   11.077142   -53.951129
 0.705000   10.825524   -47.214731
 0.710000   10.604995   -41.443404
 0.715000   10.411090   -36.638052
 0.720000   10.238614   -32.587920
 0.725000   10.085211   -28.845284
 0.730000   9.950161   -25.187244
 0.735000   9.833338   -21.538550
 0.740000   9.734776   -17.907295
 0.745000   9.654265   -14.335582
 0.750000   9.591420   -10.884221
 0.755000   9.545423   -7.638995
 0.760000   9.515030   -4.672418
 0.765000   9.498699   -2.036191
 0.770000   9.494668   0.235231
 0.775000   9.501051   2.124609
 0.780000   9.515914   3.619994
 0.785000   9.537251   4.702596
 0.790000   9.562940   5.346594
 0.795000   9.590717   5.520045
 0.800000   9.618141   5.187691
 0.805000   9.642594   4.307529
 0.810000   9.661216   2.833211
 0.815000   9.670926   0.736562
 0.820000   9.668582   -1.999577
 0.825000   9.650930   -5.397406
 0.830000   9.614608   -9.482159
 0.835000   9.556109   -14.288838
 0.840000   9.471719   -19.798273
 0.845000   9.358126   -25.969673
 0.850000   9.212023   -32.804137
 0.855000   9.030085   -40.323570
 0.860000   8.808787   -48.617645
 0.865000   8.543908   -57.970406
 0.870000   8.229083   -68.239420
 0.875000   7.861514   -79.099785
 0.880000   7.438085   -90.469250
 0.885000   6.956821   -102.074408
 0.890000   6.417341   -113.560165
 0.895000   5.821220   -124.852170
 0.900000   5.168819   -134.929245
 0.905000   4.471927   -142.804251
 0.910000   3.740777   -148.379379
 0.915000   2.988133   -151.141665
 0.920000   2.229360   -150.574834
 0.925000   1.482385   -146.540354
 0.930000   0.763956   -138.152714
 0.935000   0.100858   -124.693767
 0.940000   -0.482981   -106.550123
 0.945000   -0.964643   -84.100613
 0.950000   -1.323987   -58.146974
 0.955000   -1.546113   -29.983471
 0.960000   -1.623822   -1.328071
 0.965000   -1.559394   25.790613
 0.970000   -1.365916   49.411772
 0.975000   -1.065276   67.982722
 0.980000   -0.686089   80.430667
 0.985000   -0.260969   86.123225
 0.990000   0.175144   85.222713
 0.995000   0.591258   78.658010
 1.000000   0.961724   69.528300
201 psinorm omegp(kRad/s) domegp/dpsiN
 0.000000   -0.043677   179.735987
 0.005000   0.666773   104.444011
 0.010000   1.000763   63.164593
 0.015000   1.298419   57.943304
 0.020000   1.580196   54.847065
 0.025000   1.846890   51.524107
 0.030000   2.095438   47.025580
 0.035000   2.317146   42.182183
 0.040000   2.517259   37.777146
 0.045000   2.694917   33.413142
 0.050000   2.851391   29.492622
 0.055000   2.989843   26.512429
 0.060000   3.116515   24.601143
 0.065000   3.235855   23.686714
 0.070000   3.353382   23.493952
 0.075000   3.470794   23.740722
 0.080000   3.590789   24.269733
 0.085000   3.713492   25.109812
 0.090000   3.841888   26.178154
 0.095000   3.975273   27.007844
 0.100000   4.111966   27.520651
 0.105000   4.250480   27.731701
 0.110000   4.389283   27.733786
 0.115000   4.527818   27.281204
 0.120000   4.662095   26.344679
 0.125000   4.791264   24.998982
 0.130000   4.912085   23.422024
 0.135000   5.025485   21.644373
 0.140000   5.128529   19.700414
 0.145000   5.222489   17.610155
 0.150000   5.304630   15.489191
 0.155000   5.377381   13.614913
 0.160000   5.440779   12.006191
 0.165000   5.497443   10.621975
 0.170000   5.546999   9.330867
 0.175000   5.590751   8.277794
 0.180000   5.629777   7.260907
 0.185000   5.663360   6.261535
 0.190000   5.692392   5.200349
 0.195000   5.715364   4.153659
 0.200000   5.733929   3.080852
 0.205000   5.746172   1.945871
 0.210000   5.753388   0.940173
 0.215000   5.755574   -0.144333
 0.220000   5.751944   -1.117480
 0.225000   5.744399   -2.074211
 0.230000   5.731202   -3.080850
 0.235000   5.713591   -3.928603
 0.240000   5.691916   -4.905591
 0.245000   5.664535   -5.906738
 0.250000   5.632849   -6.851319
 0.255000   5.596022   -7.954395
 0.260000   5.553305   -9.011135
 0.265000   5.505910   -10.036888
 0.270000   5.452936   -11.098281
 0.275000   5.394927   -12.053247
 0.280000   5.332403   -13.056944
 0.285000   5.264358   -13.999578
 0.290000   5.192408   -14.862682
 0.295000   5.115731   -15.816924
 0.300000   5.034238   -16.718148
 0.305000   4.948550   -17.690337
 0.310000   4.857335   -18.928613
 0.315000   4.759264   -20.237697
 0.320000   4.654958   -21.751895
 0.325000   4.541745   -23.600770
 0.330000   4.418950   -25.499383
 0.335000   4.286751   -27.509170
 0.340000   4.143859   -29.691686
 0.345000   3.989834   -31.777358
 0.350000   3.826085   -33.720884
 0.355000   3.652625   -35.444854
 0.360000   3.471637   -36.592881
 0.365000   3.286696   -37.305030
 0.370000   3.098586   -37.692686
 0.375000   2.909769   -37.564355
 0.380000   2.722943   -36.854420
 0.385000   2.541225   -35.900720
 0.390000   2.363936   -34.942415
 0.395000   2.191801   -34.000645
 0.400000   2.023929   -33.220998
 0.405000   1.859591   -32.645361
 0.410000   1.697475   -32.371515
 0.415000   1.535876   -32.404134
 0.420000   1.373434   -32.549120
 0.425000   1.210385   -32.734302
 0.430000   1.046091   -33.093609
 0.435000   0.879449   -33.972489
 0.440000   0.706366   -36.457348
 0.445000   0.514875   -40.817085
 0.450000   0.298195   -46.460366
 0.455000   0.050272   -53.246466
 0.460000   -0.234269   -60.886522
 0.465000   -0.558594   -69.294485
 0.470000   -0.927214   -78.129367
 0.475000   -1.339887   -85.461625
 0.480000   -1.781830   -90.278321
 0.485000   -2.242671   -92.749202
 0.490000   -2.709322   -92.596140
 0.495000   -3.168632   -89.504189
 0.500000   -3.604364   -83.204025
 0.505000   -4.000672   -74.661643
 0.510000   -4.350981   -65.085637
 0.515000   -4.651529   -55.121957
 0.520000   -4.902200   -45.473110
 0.525000   -5.106260   -36.282362
 0.530000   -5.265024   -28.153743
 0.535000   -5.387797   -21.913990
 0.540000   -5.484164   -17.416326
 0.545000   -5.561960   -14.228927
 0.550000   -5.626453   -12.089938
 0.555000   -5.682860   -10.908963
 0.560000   -5.735543   -10.262463
 0.565000   -5.785484   -9.656703
 0.570000   -5.832110   -9.041166
 0.575000   -5.875896   -8.489967
 0.580000   -5.917009   -7.866367
 0.585000   -5.954560   -7.184759
 0.590000   -5.988857   -6.525077
 0.595000   -6.019810   -5.817285
 0.600000   -6.047030   -5.068829
 0.605000   -6.070499   -4.299927
 0.610000   -6.090029   -3.613565
 0.615000   -6.106634   -2.958555
 0.620000   -6.119615   -2.282426
 0.625000   -6.129459   -1.728047
 0.630000   -6.136895   -1.266242
 0.635000   -6.142121   -0.830650
 0.640000   -6.145202   -0.436041
 0.645000   -6.146482   -0.176509
 0.650000   -6.146967   0.016436
 0.655000   -6.146317   0.213675
 0.660000   -6.144830   0.336610
 0.665000   -6.142951   0.386018
 0.670000   -6.140970   0.435542
 0.675000   -6.138596   0.474787
 0.680000   -6.136222   0.428080
 0.685000   -6.134315   0.369269
 0.690000   -6.132529   0.321253
 0.695000   -6.131102   0.212730
 0.700000   -6.130402   0.058265
 0.705000   -6.130520   -0.123206
 0.710000   -6.131634   -0.338653
 0.715000   -6.133906   -0.610443
 0.720000   -6.137738   -0.944768
 0.725000   -6.143354   -1.299004
 0.730000   -6.150728   -1.678208
 0.735000   -6.160136   -2.158493
 0.740000   -6.172313   -2.637079
 0.745000   -6.186507   -3.074589
 0.750000   -6.203059   -3.547028
 0.755000   -6.221977   -4.041261
 0.760000   -6.243472   -4.461365
 0.765000   -6.266591   -4.746611
 0.770000   -6.290938   -5.080449
 0.775000   -6.317395   -5.372425
 0.780000   -6.344662   -5.590154
 0.785000   -6.373297   -5.918963
 0.790000   -6.403852   -6.533112
 0.795000   -6.438628   -7.525768
 0.800000   -6.479110   -8.851092
 0.805000   -6.527139   -10.544288
 0.810000   -6.584552   -12.526712
 0.815000   -6.652406   -14.675908
 0.820000   -6.731312   -17.004472
 0.825000   -6.822451   -19.132017
 0.830000   -6.922632   -20.530229
 0.835000   -7.027753   -21.156399
 0.840000   -7.134196   -21.023809
 0.845000   -7.237991   -19.977459
 0.850000   -7.333970   -17.973897
 0.855000   -7.417730   -15.356747
 0.860000   -7.487538   -12.602899
 0.865000   -7.543759   -9.838579
 0.870000   -7.585924   -7.085997
 0.875000   -7.614619   -4.519097
 0.880000   -7.631115   -2.231067
 0.885000   -7.636930   -0.089640
 0.890000   -7.632011   2.008853
 0.895000   -7.616841   4.076808
 0.900000   -7.591243   6.166558
 0.905000   -7.555175   8.359994
 0.910000   -7.507643   10.628048
 0.915000   -7.448895   12.747188
 0.920000   -7.380171   14.600751
 0.925000   -7.302887   16.158682
 0.930000   -7.218584   17.954166
 0.935000   -7.123346   21.009383
 0.940000   -7.008490   23.901419
 0.945000   -6.884332   24.552389
 0.950000   -6.762966   22.135644
 0.955000   -6.662975   12.046054
 0.960000   -6.642506   -11.786547
 0.965000   -6.780841   -50.137540
 0.970000   -7.143881   -83.466150
 0.975000   -7.615502   -48.453629
 0.980000   -7.628418   147.679464
 0.985000   -6.138708   547.252836
 0.990000   -2.155889   1018.911863
 0.995000   4.050411   1224.763621
 1.000000   10.091747   1191.770721
201 psinorm omgvb(kRad/s) domgvb/dpsiN
 0.000000   35.993805   179.761543
 0.005000   36.703995   104.314477
 0.010000   37.036949   62.835330
 0.015000   37.332348   57.311461
 0.020000   37.610064   53.784800
 0.025000   37.870196   49.882415
 0.030000   38.108888   44.639372
 0.035000   38.316590   38.878406
 0.040000   38.497672   33.394967
 0.045000   38.650539   27.813965
 0.050000   38.775812   22.563745
 0.055000   38.876177   18.180638
 0.060000   38.957618   14.837942
 0.065000   39.024556   12.507269
 0.070000   39.082691   10.995832
 0.075000   39.134515   10.010631
 0.080000   39.182797   9.338766
 0.085000   39.227902   9.043985
 0.090000   39.273237   9.065495
 0.095000   39.318557   8.939626
 0.100000   39.362633   8.613176
 0.105000   39.404689   8.024375
 0.110000   39.442877   7.176252
 0.115000   39.476451   5.866458
 0.120000   39.501542   4.106748
 0.125000   39.517519   1.991853
 0.130000   39.521460   -0.267808
 0.135000   39.514841   -2.662654
 0.140000   39.494834   -5.218728
 0.145000   39.462654   -7.920562
 0.150000   39.415628   -10.639437
 0.155000   39.356259   -13.090778
 0.160000   39.284720   -15.225725
 0.165000   39.204002   -17.068922
 0.170000   39.114031   -18.782019
 0.175000   39.016182   -20.235423
 0.180000   38.911677   -21.627791
 0.185000   38.799904   -22.985479
 0.190000   38.681822   -24.392427
 0.195000   38.555980   -25.774725
 0.200000   38.424075   -27.168699
 0.205000   38.284293   -28.599769
 0.210000   38.138077   -29.871558
 0.215000   37.985577   -31.193245
 0.220000   37.826145   -32.380241
 0.225000   37.661775   -33.552197
 0.230000   37.490623   -34.793248
 0.235000   37.313842   -35.893598
 0.240000   37.131687   -37.136748
 0.245000   36.942475   -38.403172
 0.250000   36.747655   -39.598868
 0.255000   36.546486   -40.936608
 0.260000   36.338289   -42.156686
 0.265000   36.124919   -43.241632
 0.270000   35.905873   -44.278317
 0.275000   35.682136   -45.116771
 0.280000   35.454705   -45.905989
 0.285000   35.223076   -46.527290
 0.290000   34.989432   -46.946703
 0.295000   34.753609   -47.339657
 0.300000   34.516035   -47.579552
 0.305000   34.277814   -47.798847
 0.310000   34.038047   -48.203262
 0.315000   33.795781   -48.584188
 0.320000   33.552205   -49.110722
 0.325000   33.304674   -49.952676
 0.330000   33.052678   -50.816108
 0.335000   32.796513   -51.771142
 0.340000   32.534967   -52.886311
 0.345000   32.267649   -53.873123
 0.350000   31.996236   -54.704116
 0.355000   31.720608   -55.336495
 0.360000   31.442871   -55.412285
 0.365000   31.166485   -55.079247
 0.370000   30.892078   -54.455453
 0.375000   30.621931   -53.350362
 0.380000   30.358575   -51.710032
 0.385000   30.104831   -49.875714
 0.390000   29.859818   -48.073440
 0.395000   29.624096   -46.318486
 0.400000   29.396633   -44.750755
 0.405000   29.176589   -43.408449
 0.410000   28.962548   -42.373817
 0.415000   28.752851   -41.639903
 0.420000   28.546149   -41.022478
 0.425000   28.342626   -40.459611
 0.430000   28.141553   -40.092863
 0.435000   27.941697   -40.273622
 0.440000   27.738817   -42.100228
 0.445000   27.520695   -45.862683
 0.450000   27.280190   -50.981314
 0.455000   27.010882   -57.313848
 0.460000   26.707051   -64.567218
 0.465000   26.365210   -72.658310
 0.470000   25.980468   -81.249165
 0.475000   25.552718   -88.403268
 0.480000   25.096436   -93.119756
 0.485000   24.621520   -95.600313
 0.490000   24.140433   -95.601357
 0.495000   23.665507   -92.856844
 0.500000   23.211864   -87.153522
 0.505000   22.793972   -79.494843
 0.510000   22.416916   -71.134154
 0.515000   22.082630   -62.770719
 0.520000   21.789209   -55.138067
 0.525000   21.531249   -48.394698
 0.530000   21.305262   -43.119114
 0.535000   21.100058   -40.064743
 0.540000   20.904614   -39.032751
 0.545000   20.709731   -39.578858
 0.550000   20.508826   -41.448791
 0.555000   20.295243   -44.594829
 0.560000   20.062877   -48.688751
 0.565000   19.808355   -53.317648
 0.570000   19.529701   -58.460547
 0.575000   19.223750   -64.227157
 0.580000   18.887429   -70.519947
 0.585000   18.518550   -77.390696
 0.590000   18.113522   -85.166930
 0.595000   17.666881   -93.570464
 0.600000   17.177818   -102.280521
 0.605000   16.644076   -111.345972
 0.610000   16.064358   -120.684459
 0.615000   15.437231   -130.001655
 0.620000   14.764341   -139.181443
 0.625000   14.045417   -147.380403
 0.630000   13.290537   -153.542524
 0.635000   12.509992   -157.456894
 0.640000   11.715968   -158.839319
 0.645000   10.921598   -157.627237
 0.650000   10.139696   -153.314062
 0.655000   9.388458   -146.185063
 0.660000   8.677845   -137.285126
 0.665000   8.015606   -127.018339
 0.670000   7.407662   -115.774147
 0.675000   6.857865   -104.078315
 0.680000   6.366879   -92.039913
 0.685000   5.937466   -80.468183
 0.690000   5.562197   -70.353308
 0.695000   5.233933   -61.545676
 0.700000   4.946740   -53.892864
 0.705000   4.695004   -47.337937
 0.710000   4.473361   -41.782056
 0.715000   4.277184   -37.248495
 0.720000   4.100876   -33.532687
 0.725000   3.941857   -30.144288
 0.730000   3.799433   -26.865451
 0.735000   3.673202   -23.697043
 0.740000   3.562463   -20.544375
 0.745000   3.467758   -17.410171
 0.750000   3.388361   -14.431248
 0.755000   3.323446   -11.680256
 0.760000   3.271558   -9.133784
 0.765000   3.232108   -6.782802
 0.770000   3.203730   -4.845218
 0.775000   3.183656   -3.247816
 0.780000   3.171252   -1.970161
 0.785000   3.163954   -1.216367
 0.790000   3.159088   -1.186518
 0.795000   3.152089   -2.005722
 0.800000   3.139031   -3.663401
 0.805000   3.115455   -6.236760
 0.810000   3.076664   -9.693501
 0.815000   3.018520   -13.939346
 0.820000   2.937270   -19.004050
 0.825000   2.828480   -24.529423
 0.830000   2.691976   -30.012389
 0.835000   2.528356   -35.445237
 0.840000   2.337524   -40.822081
 0.845000   2.120135   -45.947133
 0.850000   1.878052   -50.778033
 0.855000   1.612355   -55.680317
 0.860000   1.321249   -61.220544
 0.865000   1.000149   -67.808984
 0.870000   0.643159   -75.325417
 0.875000   0.246895   -83.618882
 0.880000   -0.193030   -92.700317
 0.885000   -0.680108   -102.164048
 0.890000   -1.214670   -111.551312
 0.895000   -1.795621   -120.775362
 0.900000   -2.422424   -128.762687
 0.905000   -3.083248   -134.444257
 0.910000   -3.766866   -137.751331
 0.915000   -4.460762   -138.394476
 0.920000   -5.150811   -135.974083
 0.925000   -5.820502   -130.381672
 0.930000   -6.454628   -120.198548
 0.935000   -7.022488   -103.684384
 0.940000   -7.491472   -82.648704
 0.945000   -7.848975   -59.548224
 0.950000   -8.086954   -36.011330
 0.955000   -8.209088   -17.937417
 0.960000   -8.266328   -13.114618
 0.965000   -8.340234   -24.346927
 0.970000   -8.509797   -34.054378
 0.975000   -8.680778   19.529092
 0.980000   -8.314506   228.110131
 0.985000   -6.399677   633.376061
 0.990000   -1.980746   1104.134576
 0.995000   4.641669   1303.421631
 1.000000   11.053471   1261.299020
201 psinorm omgpp(kRad/s) domgpp/dpsiN
 0.000000   -0.049739   -24.901121
 0.005000   -0.201312   -35.728079
 0.010000   -0.407020   -41.541182
 0.015000   -0.616724   -42.300398
 0.020000   -0.830024   -42.979704
 0.025000   -1.046521   -43.579253
 0.030000   -1.265816   -44.091106
 0.035000   -1.487432   -44.501824
 0.040000   -1.710835   -44.790446
 0.045000   -1.935337   -44.924246
 0.050000   -2.160077   -44.846890
 0.055000   -2.383805   -44.494974
 0.060000   -2.605027   -43.967287
 0.065000   -2.823478   -43.331014
 0.070000   -3.038337   -42.548765
 0.075000   -3.248966   -41.642365
 0.080000   -3.454761   -40.577384
 0.085000   -3.654740   -39.273262
 0.090000   -3.847493   -37.915248
 0.095000   -4.033892   -36.509185
 0.100000   -4.212585   -34.922592
 0.105000   -4.383118   -33.247541
 0.110000   -4.545061   -31.450865
 0.115000   -4.697627   -29.375284
 0.120000   -4.838813   -27.446114
 0.125000   -4.972088   -25.768844
 0.130000   -5.096502   -24.039481
 0.135000   -5.212483   -22.392046
 0.140000   -5.320422   -20.812939
 0.145000   -5.420612   -19.334313
 0.150000   -5.513765   -17.781085
 0.155000   -5.598423   -15.901864
 0.160000   -5.672784   -13.803223
 0.165000   -5.736455   -11.653871
 0.170000   -5.789323   -9.512003
 0.175000   -5.831575   -7.321414
 0.180000   -5.862537   -5.213766
 0.185000   -5.883713   -3.206056
 0.190000   -5.894598   -1.097218
 0.195000   -5.894685   1.103650
 0.200000   -5.883561   3.379918
 0.205000   -5.860886   6.005954
 0.210000   -5.823501   8.417670
 0.215000   -5.776709   10.195344
 0.220000   -5.721548   11.635848
 0.225000   -5.660351   12.559004
 0.230000   -5.595958   12.933798
 0.235000   -5.531013   12.666717
 0.240000   -5.469291   12.166617
 0.245000   -5.409347   12.214503
 0.250000   -5.347146   12.696127
 0.255000   -5.282385   13.251820
 0.260000   -5.214628   13.882932
 0.265000   -5.143556   14.221997
 0.270000   -5.072408   14.821506
 0.275000   -4.995341   16.148164
 0.280000   -4.910926   17.444916
 0.285000   -4.820892   18.597879
 0.290000   -4.724947   19.799803
 0.295000   -4.622894   20.944727
 0.300000   -4.515500   22.350338
 0.305000   -4.399390   24.035098
 0.310000   -4.275149   25.452793
 0.315000   -4.144862   26.576232
 0.320000   -4.009387   27.518376
 0.325000   -3.869679   28.466332
 0.330000   -3.724723   29.382322
 0.335000   -3.575856   29.603530
 0.340000   -3.428688   29.401509
 0.345000   -3.281840   29.212442
 0.350000   -3.136564   28.745835
 0.355000   -2.994382   28.059492
 0.360000   -2.855969   26.907875
 0.365000   -2.725303   24.927847
 0.370000   -2.606690   22.902933
 0.375000   -2.496274   21.289400
 0.380000   -2.393796   19.738790
 0.385000   -2.298886   18.196056
 0.390000   -2.211836   16.425461
 0.395000   -2.134631   15.113396
 0.400000   -2.060702   14.490015
 0.405000   -1.989731   14.033625
 0.410000   -1.920365   13.791816
 0.415000   -1.851813   13.635714
 0.420000   -1.784008   13.503195
 0.425000   -1.716781   13.493516
 0.430000   -1.649073   13.341426
 0.435000   -1.583367   12.853573
 0.440000   -1.520537   12.168931
 0.445000   -1.461678   11.245469
 0.450000   -1.408083   10.148174
 0.455000   -1.360196   8.649801
 0.460000   -1.321585   6.997831
 0.465000   -1.290218   5.559591
 0.470000   -1.265989   4.148456
 0.475000   -1.248733   2.775969
 0.480000   -1.238229   1.386872
 0.485000   -1.234864   0.214398
 0.490000   -1.236085   -0.693362
 0.495000   -1.241798   -1.570647
 0.500000   -1.251792   -2.399902
 0.505000   -1.265797   -3.177672
 0.510000   -1.283568   -3.921883
 0.515000   -1.305016   -4.623729
 0.520000   -1.329806   -5.304644
 0.525000   -1.358062   -5.925761
 0.530000   -1.389063   -6.366945
 0.535000   -1.421732   -6.578822
 0.540000   -1.454851   -6.470399
 0.545000   -1.486436   -6.521649
 0.550000   -1.520068   -7.052353
 0.555000   -1.556959   -7.638596
 0.560000   -1.596454   -8.136951
 0.565000   -1.638329   -8.588346
 0.570000   -1.682337   -9.068955
 0.575000   -1.729018   -9.594724
 0.580000   -1.778285   -10.005279
 0.585000   -1.829071   -10.312885
 0.590000   -1.881413   -10.599167
 0.595000   -1.935063   -10.828746
 0.600000   -1.989701   -11.169554
 0.605000   -2.046758   -11.434378
 0.610000   -2.104045   -11.160885
 0.615000   -2.158367   -10.587887
 0.620000   -2.209924   -9.842252
 0.625000   -2.256790   -8.703753
 0.630000   -2.296961   -7.124386
 0.635000   -2.328033   -4.974744
 0.640000   -2.346708   -2.785048
 0.645000   -2.355884   -1.008995
 0.650000   -2.356798   0.541885
 0.655000   -2.350465   1.876789
 0.660000   -2.338031   3.168921
 0.665000   -2.318776   4.492849
 0.670000   -2.293102   4.844106
 0.675000   -2.270335   4.546853
 0.680000   -2.247634   4.372742
 0.685000   -2.226607   3.902707
 0.690000   -2.208606   3.229204
 0.695000   -2.194315   2.202046
 0.700000   -2.186586   0.420558
 0.705000   -2.190110   -1.662197
 0.710000   -2.203208   -3.586035
 0.715000   -2.225970   -5.432290
 0.720000   -2.257531   -7.105911
 0.725000   -2.297029   -9.231864
 0.730000   -2.349849   -9.561518
 0.735000   -2.392644   -8.306226
 0.740000   -2.432912   -7.609045
 0.745000   -2.468735   -6.509426
 0.750000   -2.498006   -4.976507
 0.755000   -2.518500   -3.372054
 0.760000   -2.531727   -0.528190
 0.765000   -2.523782   2.914738
 0.770000   -2.502579   5.568122
 0.775000   -2.468101   8.189866
 0.780000   -2.420681   10.691171
 0.785000   -2.361189   13.665547
 0.790000   -2.284025   16.178054
 0.795000   -2.199408   17.528886
 0.800000   -2.108736   18.518093
 0.805000   -2.014227   18.988558
 0.810000   -1.918851   18.858720
 0.815000   -1.825640   18.714659
 0.820000   -1.731704   17.218672
 0.825000   -1.653454   14.307640
 0.830000   -1.588628   11.671309
 0.835000   -1.536740   9.056655
 0.840000   -1.498061   6.489188
 0.845000   -1.471849   4.102623
 0.850000   -1.457035   2.262687
 0.855000   -1.449222   0.913397
 0.860000   -1.447901   -0.557868
 0.865000   -1.454800   -2.370703
 0.870000   -1.471608   -4.526166
 0.875000   -1.500062   -7.559522
 0.880000   -1.547203   -11.251694
 0.885000   -1.612579   -14.551770
 0.890000   -1.692721   -17.971395
 0.895000   -1.792293   -22.252413
 0.900000   -1.915245   -27.460137
 0.905000   -2.066894   -35.638917
 0.910000   -2.271634   -47.107555
 0.915000   -2.537970   -57.990613
 0.920000   -2.851540   -70.583768
 0.925000   -3.243808   -88.941971
 0.930000   -3.740960   -113.839708
 0.935000   -4.382205   -152.068416
 0.940000   -5.261644   -208.240396
 0.945000   -6.464609   -270.065746
 0.950000   -7.962302   -338.606480
 0.955000   -9.850673   -414.690007
 0.960000   -12.109202   -475.742333
 0.965000   -14.608097   -501.524968
 0.970000   -17.124451   -463.697844
 0.975000   -19.245075   -323.814755
 0.980000   -20.362599   -113.487766
 0.985000   -20.379953   107.519661
 0.990000   -19.287402   308.623195
 0.995000   -17.293721   451.853114
 1.000000   -14.768871   558.086771
201 psinorm omgeb(kRad/s) domgeb/dpsiN
 0.000000   35.944066   154.860423
 0.005000   36.502683   68.586398
 0.010000   36.629930   21.294148
 0.015000   36.715624   15.011062
 0.020000   36.780040   10.805096
 0.025000   36.823675   6.303162
 0.030000   36.843072   0.548266
 0.035000   36.829158   -5.623418
 0.040000   36.786838   -11.395480
 0.045000   36.715203   -17.110281
 0.050000   36.615735   -22.283145
 0.055000   36.492371   -26.314337
 0.060000   36.352591   -29.129345
 0.065000   36.201078   -30.823745
 0.070000   36.044354   -31.552933
 0.075000   35.885549   -31.631734
 0.080000   35.728037   -31.238618
 0.085000   35.573162   -30.229277
 0.090000   35.425744   -28.849753
 0.095000   35.284665   -27.569559
 0.100000   35.150048   -26.309417
 0.105000   35.021571   -25.223166
 0.110000   34.897817   -24.274613
 0.115000   34.778825   -23.508827
 0.120000   34.662728   -23.339366
 0.125000   34.545431   -23.776991
 0.130000   34.424958   -24.307289
 0.135000   34.302358   -25.054700
 0.140000   34.174411   -26.031668
 0.145000   34.042041   -27.254875
 0.150000   33.901863   -28.420522
 0.155000   33.757836   -28.992643
 0.160000   33.611936   -29.028948
 0.165000   33.467547   -28.722793
 0.170000   33.324708   -28.294023
 0.175000   33.184606   -27.556837
 0.180000   33.049140   -26.841556
 0.185000   32.916191   -26.191536
 0.190000   32.787225   -25.489645
 0.195000   32.661294   -24.671076
 0.200000   32.540514   -23.788782
 0.205000   32.423407   -22.593815
 0.210000   32.314576   -21.453888
 0.215000   32.208868   -20.997902
 0.220000   32.104597   -20.744393
 0.225000   32.001424   -20.993193
 0.230000   31.894665   -21.859451
 0.235000   31.782829   -23.226881
 0.240000   31.662396   -24.970131
 0.245000   31.533128   -26.188668
 0.250000   31.400509   -26.902741
 0.255000   31.264101   -27.684788
 0.260000   31.123661   -28.273753
 0.265000   30.981363   -29.019635
 0.270000   30.833465   -29.456811
 0.275000   30.686795   -28.968607
 0.280000   30.543779   -28.461073
 0.285000   30.402184   -27.929411
 0.290000   30.264485   -27.146901
 0.295000   30.130715   -26.394930
 0.300000   30.000536   -25.229214
 0.305000   29.878423   -23.763749
 0.310000   29.762898   -22.750469
 0.315000   29.650918   -22.007956
 0.320000   29.542818   -21.592346
 0.325000   29.434995   -21.486345
 0.330000   29.327955   -21.433786
 0.335000   29.220657   -22.167611
 0.340000   29.106279   -23.484802
 0.345000   28.985809   -24.660681
 0.350000   28.859672   -25.958281
 0.355000   28.726226   -27.277004
 0.360000   28.586902   -28.504410
 0.365000   28.441182   -30.151400
 0.370000   28.285388   -31.552520
 0.375000   28.125657   -32.060961
 0.380000   27.964778   -31.971242
 0.385000   27.805945   -31.679658
 0.390000   27.647982   -31.647979
 0.395000   27.489465   -31.205089
 0.400000   27.335931   -30.260739
 0.405000   27.186857   -29.374824
 0.410000   27.042183   -28.582000
 0.415000   26.901037   -28.004188
 0.420000   26.762141   -27.519282
 0.425000   26.625845   -26.966095
 0.430000   26.492480   -26.751438
 0.435000   26.358330   -27.420049
 0.440000   26.218279   -29.931297
 0.445000   26.059017   -34.617215
 0.450000   25.872107   -40.833139
 0.455000   25.650686   -48.664046
 0.460000   25.385467   -57.569387
 0.465000   25.074992   -67.098719
 0.470000   24.714480   -77.100708
 0.475000   24.303985   -85.627299
 0.480000   23.858207   -91.732883
 0.485000   23.386656   -95.385915
 0.490000   22.904347   -96.294719
 0.495000   22.423709   -94.427491
 0.500000   21.960073   -89.553424
 0.505000   21.528175   -82.672515
 0.510000   21.133347   -75.056037
 0.515000   20.777614   -67.394447
 0.520000   20.459403   -60.442711
 0.525000   20.173187   -54.320460
 0.530000   19.916198   -49.486059
 0.535000   19.678327   -46.643565
 0.540000   19.449763   -45.503150
 0.545000   19.223295   -46.100507
 0.550000   18.988758   -48.501144
 0.555000   18.738284   -52.233425
 0.560000   18.466423   -56.825702
 0.565000   18.170027   -61.905995
 0.570000   17.847363   -67.529503
 0.575000   17.494732   -73.821881
 0.580000   17.109145   -80.525226
 0.585000   16.689479   -87.703581
 0.590000   16.232109   -95.766097
 0.595000   15.731818   -104.399210
 0.600000   15.188117   -113.450075
 0.605000   14.597318   -122.780351
 0.610000   13.960313   -131.845344
 0.615000   13.278864   -140.589542
 0.620000   12.554418   -149.023695
 0.625000   11.788627   -156.084156
 0.630000   10.993576   -160.666910
 0.635000   10.181958   -162.431637
 0.640000   9.369260   -161.624367
 0.645000   8.565714   -158.636231
 0.650000   7.782898   -152.772177
 0.655000   7.037993   -144.308274
 0.660000   6.339815   -134.116205
 0.665000   5.696831   -122.525491
 0.670000   5.114560   -110.930042
 0.675000   4.587530   -99.531461
 0.680000   4.119245   -87.667171
 0.685000   3.710858   -76.565476
 0.690000   3.353591   -67.124104
 0.695000   3.039617   -59.343630
 0.700000   2.760154   -53.472306
 0.705000   2.504894   -49.000134
 0.710000   2.270153   -45.368091
 0.715000   2.051213   -42.680785
 0.720000   1.843345   -40.638599
 0.725000   1.644827   -39.376152
 0.730000   1.449584   -36.426969
 0.735000   1.280558   -32.003269
 0.740000   1.129551   -28.153420
 0.745000   0.999024   -23.919598
 0.750000   0.890355   -19.407756
 0.755000   0.804946   -15.052311
 0.760000   0.739832   -9.661974
 0.765000   0.708326   -3.868063
 0.770000   0.701151   0.722904
 0.775000   0.715555   4.942050
 0.780000   0.750572   8.721011
 0.785000   0.802765   12.449179
 0.790000   0.875063   14.991536
 0.795000   0.952681   15.523163
 0.800000   1.030295   14.854692
 0.805000   1.101228   12.751799
 0.810000   1.157813   9.165219
 0.815000   1.192880   4.775313
 0.820000   1.205566   -1.785378
 0.825000   1.175026   -10.221784
 0.830000   1.103348   -18.341080
 0.835000   0.991615   -26.388582
 0.840000   0.839462   -34.332893
 0.845000   0.648286   -41.844509
 0.850000   0.421017   -48.515346
 0.855000   0.163133   -54.766920
 0.860000   -0.126652   -61.778412
 0.865000   -0.454651   -70.179687
 0.870000   -0.828449   -79.851583
 0.875000   -1.253167   -91.178404
 0.880000   -1.740233   -103.952012
 0.885000   -2.292687   -116.715818
 0.890000   -2.907391   -129.522708
 0.895000   -3.587914   -143.027775
 0.900000   -4.337669   -156.222824
 0.905000   -5.150142   -170.083174
 0.910000   -6.038500   -184.858886
 0.915000   -6.998731   -196.385089
 0.920000   -8.002351   -206.557851
 0.925000   -9.064310   -219.323643
 0.930000   -10.195588   -234.038255
 0.935000   -11.404692   -255.752800
 0.940000   -12.753116   -290.889100
 0.945000   -14.313583   -329.613970
 0.950000   -16.049255   -374.617810
 0.955000   -18.059762   -432.627424
 0.960000   -20.375530   -488.856951
 0.965000   -22.948331   -525.871895
 0.970000   -25.634249   -497.752222
 0.975000   -27.925853   -304.285663
 0.980000   -28.677105   114.622364
 0.985000   -26.779630   740.895722
 0.990000   -21.268148   1412.757771
 0.995000   -12.652052   1755.274745
 1.000000   -3.715401   1819.385791
201 psinorm er(kV/m) der/dpsiN
 0.000000   0.440067   773.286134
 0.005000   3.526375   461.237053
 0.010000   5.052438   270.033425
 0.015000   6.226709   218.580196
 0.020000   7.238240   189.426042
 0.025000   8.120970   168.282529
 0.030000   8.921065   153.076876
 0.035000   9.651739   140.327989
 0.040000   10.324345   129.541411
 0.045000   10.947153   120.245869
 0.050000   11.526804   111.524758
 0.055000   12.062400   103.613786
 0.060000   12.562941   95.657106
 0.065000   13.018971   90.885001
 0.070000   13.471791   87.795922
 0.075000   13.896931   80.605949
 0.080000   14.277851   77.364241
 0.085000   14.670573   76.480351
 0.090000   15.042654   70.267884
 0.095000   15.373252   69.481102
 0.100000   15.737465   67.085340
 0.105000   16.044105   64.133607
 0.110000   16.378802   63.320074
 0.115000   16.677306   59.901916
 0.120000   16.977821   58.762802
 0.125000   17.264934   55.431688
 0.130000   17.532138   53.629374
 0.135000   17.801228   51.059283
 0.140000   18.042730   48.411858
 0.145000   18.285346   46.503750
 0.150000   18.507768   43.041031
 0.155000   18.715757   42.236769
 0.160000   18.930136   38.888887
 0.165000   19.104646   39.322437
 0.170000   19.323360   35.792635
 0.175000   19.462572   36.089652
 0.180000   19.684257   34.667159
 0.185000   19.809243   32.034649
 0.190000   20.004603   34.986049
 0.195000   20.159104   30.147794
 0.200000   20.306081   33.271166
 0.205000   20.491816   28.927196
 0.210000   20.595353   29.040306
 0.215000   20.782219   31.345243
 0.220000   20.908805   26.303191
 0.225000   21.045251   29.893510
 0.230000   21.207740   23.601282
 0.235000   21.281263   21.760685
 0.240000   21.425347   24.219510
 0.245000   21.523459   17.323292
 0.250000   21.598580   19.131952
 0.255000   21.714778   16.290098
 0.260000   21.761481   12.691311
 0.265000   21.841691   16.808660
 0.270000   21.929568   10.267199
 0.275000   21.944363   9.595596
 0.280000   22.025524   14.350365
 0.285000   22.087867   8.587988
 0.290000   22.111404   9.608163
 0.295000   22.183948   12.005455
 0.300000   22.231458   8.099929
 0.305000   22.264948   10.518829
 0.310000   22.336646   11.557951
 0.315000   22.380527   8.341945
 0.320000   22.420066   10.357265
 0.325000   22.484100   9.917621
 0.330000   22.519242   6.858552
 0.335000   22.552685   7.959483
 0.340000   22.598837   6.210995
 0.345000   22.614795   2.568241
 0.350000   22.624519   2.859446
 0.355000   22.643390   1.328001
 0.360000   22.637799   -2.194236
 0.365000   22.621447   -2.718199
 0.370000   22.610617   -3.886436
 0.375000   22.582583   -6.747786
 0.380000   22.543140   -6.402519
 0.385000   22.518558   -5.732020
 0.390000   22.485819   -8.068253
 0.395000   22.437875   -7.859170
 0.400000   22.407228   -6.182685
 0.405000   22.376048   -7.743267
 0.410000   22.329795   -7.615140
 0.415000   22.299897   -5.907731
 0.420000   22.270718   -7.501905
 0.425000   22.224878   -7.895051
 0.430000   22.191767   -6.688956
 0.435000   22.157988   -8.389483
 0.440000   22.107872   -11.636609
 0.445000   22.041622   -15.282668
 0.450000   21.955046   -20.830625
 0.455000   21.833316   -28.855865
 0.460000   21.666487   -36.756517
 0.465000   21.465751   -44.696306
 0.470000   21.219524   -54.787930
 0.475000   20.917872   -62.863309
 0.480000   20.590891   -67.822795
 0.485000   20.239644   -72.180880
 0.490000   19.869082   -74.024559
 0.495000   19.499398   -72.425579
 0.500000   19.144826   -68.653408
 0.505000   18.812864   -63.860720
 0.510000   18.506219   -57.549624
 0.515000   18.237368   -50.590886
 0.520000   18.000310   -45.719304
 0.525000   17.780175   -40.884416
 0.530000   17.591466   -36.114852
 0.535000   17.419026   -34.237142
 0.540000   17.249095   -34.061173
 0.545000   17.078415   -34.541969
 0.550000   16.903675   -36.533646
 0.555000   16.713078   -40.932973
 0.560000   16.494345   -45.373046
 0.565000   16.259348   -49.425943
 0.570000   16.000086   -55.234394
 0.575000   15.707004   -61.627270
 0.580000   15.383813   -67.499811
 0.585000   15.032006   -74.010938
 0.590000   14.643704   -82.386784
 0.595000   14.208138   -90.502963
 0.600000   13.738674   -98.279433
 0.605000   13.225343   -107.622047
 0.610000   12.662454   -116.620558
 0.615000   12.059138   -124.421690
 0.620000   11.418237   -132.233945
 0.625000   10.736798   -139.841362
 0.630000   10.019823   -144.367451
 0.635000   9.293124   -145.603464
 0.640000   8.563788   -145.734032
 0.645000   7.835784   -143.754545
 0.650000   7.126243   -138.258996
 0.655000   6.453194   -130.521190
 0.660000   5.821031   -122.198632
 0.665000   5.231207   -111.809115
 0.670000   4.702940   -100.676968
 0.675000   4.224438   -90.736419
 0.680000   3.795576   -80.359261
 0.685000   3.420845   -69.958720
 0.690000   3.095988   -61.032648
 0.695000   2.810518   -54.553275
 0.700000   2.550456   -49.289635
 0.705000   2.317622   -44.662241
 0.710000   2.103833   -41.533274
 0.715000   1.902289   -39.517281
 0.720000   1.708661   -37.506027
 0.725000   1.527229   -35.999667
 0.730000   1.348664   -33.742802
 0.735000   1.189801   -29.837205
 0.740000   1.050292   -25.872450
 0.745000   0.931077   -21.909135
 0.750000   0.831200   -18.222836
 0.755000   0.748848   -14.113347
 0.760000   0.690067   -8.624321
 0.765000   0.662605   -3.506173
 0.770000   0.655005   0.522814
 0.775000   0.667833   4.726472
 0.780000   0.702270   8.494090
 0.785000   0.752774   11.584873
 0.790000   0.818119   13.921685
 0.795000   0.891991   14.805054
 0.800000   0.966169   14.114754
 0.805000   1.033138   11.914230
 0.810000   1.085312   8.633674
 0.815000   1.119475   4.725433
 0.820000   1.132566   -1.596993
 0.825000   1.103505   -9.622657
 0.830000   1.036339   -17.131786
 0.835000   0.932187   -24.643528
 0.840000   0.789904   -32.290150
 0.845000   0.609286   -39.392582
 0.850000   0.395978   -45.552428
 0.855000   0.153762   -51.491622
 0.860000   -0.118938   -58.182638
 0.865000   -0.428065   -66.089134
 0.870000   -0.779829   -75.155643
 0.875000   -1.179621   -85.862219
 0.880000   -1.638452   -97.906546
 0.885000   -2.158687   -109.896215
 0.890000   -2.737414   -121.934953
 0.895000   -3.378036   -134.586336
 0.900000   -4.083277   -146.968640
 0.905000   -4.847723   -160.010457
 0.910000   -5.683382   -173.767967
 0.915000   -6.585402   -184.431287
 0.920000   -7.527695   -194.029168
 0.925000   -8.525694   -206.128844
 0.930000   -9.588983   -220.403786
 0.935000   -10.729732   -242.239369
 0.940000   -12.011377   -276.212316
 0.945000   -13.491855   -314.013228
 0.950000   -15.151509   -368.021201
 0.955000   -17.172067   -425.888691
 0.960000   -19.410396   -472.878175
 0.965000   -21.900849   -522.342383
 0.970000   -24.633820   -512.741270
 0.975000   -27.028261   -315.274307
 0.980000   -27.786563   104.454474
 0.985000   -25.983717   712.824549
 0.990000   -20.658317   1366.959216
 0.995000   -12.314125   1699.230073
 1.000000   -3.666016   1760.013129
201 psinorm ommvb() dommvb/dpsiN
 0.000000   71.368444   22386.664140
 0.005000   165.198053   15145.179541
 0.010000   222.820239   10274.116598
 0.015000   267.939219   8179.194621
 0.020000   304.612185   6608.701578
 0.025000   334.026235   5335.545992
 0.030000   357.967645   4315.132371
 0.035000   377.177558   3625.461490
 0.040000   394.222260   3081.700060
 0.045000   407.994559   2426.156056
 0.050000   418.483821   1908.067290
 0.055000   427.075232   1513.328582
 0.060000   433.617106   1182.810281
 0.065000   438.903335   825.592731
 0.070000   441.873034   597.122031
 0.075000   444.874555   456.323677
 0.080000   446.436270   98.392379
 0.085000   445.858479   -107.781442
 0.090000   445.358456   -190.688756
 0.095000   443.951591   -551.274788
 0.100000   439.845708   -717.723290
 0.105000   436.774358   -697.567084
 0.110000   432.870037   -817.414150
 0.115000   428.600217   -910.248368
 0.120000   423.767554   -1048.476645
 0.125000   418.115450   -1234.928966
 0.130000   411.418264   -1276.858261
 0.135000   405.346868   -1249.290981
 0.140000   398.925354   -1317.145069
 0.145000   392.175417   -1366.109224
 0.150000   385.264262   -1398.679801
 0.155000   378.188619   -1426.955559
 0.160000   370.994706   -1445.680512
 0.165000   363.731814   -1453.966309
 0.170000   356.455043   -1453.335438
 0.175000   349.198459   -1444.443524
 0.180000   342.010608   -1427.527877
 0.185000   334.923181   -1406.879526
 0.190000   327.941813   -1380.927231
 0.195000   321.113908   -1358.194195
 0.200000   314.359871   -1418.226575
 0.205000   306.931643   -1368.544031
 0.210000   300.674431   -1222.682018
 0.215000   294.704822   -1169.691113
 0.220000   288.977519   -1107.864840
 0.225000   283.626174   -1045.928046
 0.230000   278.518239   -1003.312953
 0.235000   273.593045   -956.121734
 0.240000   268.957022   -984.025470
 0.245000   263.752790   -992.293167
 0.250000   259.034090   -848.207759
 0.255000   255.270712   -724.979577
 0.260000   251.784294   -674.932215
 0.265000   248.521390   -632.106915
 0.270000   245.463225   -635.414544
 0.275000   242.167245   -674.144363
 0.280000   238.721781   -564.199047
 0.285000   236.525254   -418.169182
 0.290000   234.540090   -379.219182
 0.295000   232.733062   -350.428985
 0.300000   231.035800   -413.387563
 0.305000   228.599187   -358.201430
 0.310000   227.453785   -215.661484
 0.315000   226.442572   -190.390855
 0.320000   225.549877   -192.178325
 0.325000   224.520789   -235.600413
 0.330000   223.193873   -180.449503
 0.335000   222.716294   -88.100006
 0.340000   222.312873   -73.618537
 0.345000   221.980108   -126.409200
 0.350000   221.048781   -127.713494
 0.355000   220.702973   -44.358718
 0.360000   220.605193   -16.380383
 0.365000   220.539169   -53.965589
 0.370000   220.065538   -88.462208
 0.375000   219.654547   -38.869429
 0.380000   219.676843   6.677856
 0.385000   219.721326   -20.092597
 0.390000   219.475917   -57.296773
 0.395000   219.148358   -23.808513
 0.400000   219.237832   15.274505
 0.405000   219.301103   -24.840663
 0.410000   218.989426   -82.219642
 0.415000   218.478907   -45.978641
 0.420000   218.529639   8.936535
 0.425000   218.568272   -41.461813
 0.430000   218.115021   -96.988069
 0.435000   217.598391   -53.335795
 0.440000   217.581663   -7.477525
 0.445000   217.523616   -84.514217
 0.450000   216.736521   -140.374416
 0.455000   216.119872   -88.760361
 0.460000   215.848917   -60.395482
 0.465000   215.515917   -165.153002
 0.470000   214.197387   -193.818723
 0.475000   213.577730   -111.150261
 0.480000   213.085885   -110.643830
 0.485000   212.471292   -226.089624
 0.490000   210.824988   -220.364744
 0.495000   210.267644   -112.219086
 0.500000   209.702798   -147.554860
 0.505000   208.792096   -225.656532
 0.510000   207.446232   -182.783106
 0.515000   206.964265   -94.550138
 0.520000   206.500731   -152.719574
 0.525000   205.437069   -198.322783
 0.530000   204.517503   -129.383636
 0.535000   204.143233   -75.880853
 0.540000   203.758695   -165.248617
 0.545000   202.490746   -191.752529
 0.550000   201.841169   -106.823432
 0.555000   201.422512   -87.473323
 0.560000   200.966436   -204.178778
 0.565000   199.380724   -204.322203
 0.570000   198.923214   -95.884077
 0.575000   198.421883   -124.722545
 0.580000   197.675989   -216.647731
 0.585000   196.255406   -188.828364
 0.590000   195.787705   -97.275709
 0.595000   195.282649   -134.516704
 0.600000   194.442538   -194.922672
 0.605000   193.333422   -140.761403
 0.610000   193.034924   -53.395419
 0.615000   192.799468   -61.477284
 0.620000   192.420151   -68.526374
 0.625000   192.114204   7.577743
 0.630000   192.495928   95.886617
 0.635000   193.073071   135.895255
 0.640000   193.854881   205.500659
 0.645000   195.128077   291.851836
 0.650000   196.773399   354.257258
 0.655000   198.670650   415.423142
 0.660000   200.927631   500.727655
 0.665000   203.677926   550.811473
 0.670000   206.435745   570.281178
 0.675000   209.380738   609.935286
 0.680000   212.535098   680.869840
 0.685000   216.189437   708.336386
 0.690000   219.618462   701.133864
 0.695000   223.200775   732.039019
 0.700000   226.938852   785.354278
 0.705000   231.054318   826.042529
 0.710000   235.199278   838.905541
 0.715000   239.443373   871.306568
 0.720000   243.912343   921.661122
 0.725000   248.659985   1010.242576
 0.730000   254.014769   1066.939004
 0.735000   259.329375   1092.519191
 0.740000   264.939961   1153.691584
 0.745000   270.866290   1229.172828
 0.750000   277.231689   1320.045874
 0.755000   284.066749   1368.105777
 0.760000   290.912747   1404.620181
 0.765000   298.112951   1476.423715
 0.770000   305.676984   1552.921364
 0.775000   313.642165   1647.476277
 0.780000   322.151747   1711.211906
 0.785000   330.754284   1763.972239
 0.790000   339.791469   1851.430698
 0.795000   349.268591   1938.897278
 0.800000   359.180442   2032.415908
 0.805000   369.592750   2117.428042
 0.810000   380.354723   2197.249850
 0.815000   391.565248   2295.959645
 0.820000   403.314319   2404.442141
 0.825000   415.609670   2514.914382
 0.830000   428.463463   2625.712967
 0.835000   441.866799   2708.337154
 0.840000   455.546834   2829.231337
 0.845000   470.159113   3000.397833
 0.850000   485.550813   3163.063204
 0.855000   501.789745   3347.778632
 0.860000   519.028599   3591.629897
 0.865000   537.706044   3969.772210
 0.870000   558.726321   4483.106877
 0.875000   582.537112   5102.666417
 0.880000   609.752985   5889.990804
 0.885000   641.437021   6835.028629
 0.890000   678.103272   7906.744798
 0.895000   720.504468   9169.112050
 0.900000   769.794392   10683.487207
 0.905000   827.339341   12452.651050
 0.910000   894.320903   14403.619603
 0.915000   971.375537   16354.942194
 0.920000   1057.870325   18010.752065
 0.925000   1151.483057   19172.611949
 0.930000   1249.596444   19695.082740
 0.935000   1348.433885   19748.647931
 0.940000   1447.082923   20745.825880
 0.945000   1555.892143   25869.451158
 0.950000   1705.777435   38781.817216
 0.955000   1943.710316   58981.256041
 0.960000   2295.589995   80589.567789
 0.965000   2749.605993   94808.532923
 0.970000   3243.675325   94184.070678
 0.975000   3691.446700   76685.336723
 0.980000   4010.528692   50359.790739
 0.985000   4195.044608   24444.264652
 0.990000   4254.971338   -3351.934988
 0.995000   4161.525258   160954.637723
 1.000000   5864.517716   520242.345369
201 psinorm ommpp() dommpp/dpsiN
 0.000000   -35.424378   -22231.803717
 0.005000   -128.695370   -15076.593144
 0.010000   -186.190309   -10252.822450
 0.015000   -231.223595   -8164.183558
 0.020000   -267.832145   -6597.896482
 0.025000   -297.202560   -5329.242829
 0.030000   -321.124573   -4314.584105
 0.035000   -340.348401   -3631.084908
 0.040000   -357.435422   -3093.095540
 0.045000   -371.279356   -2443.266338
 0.050000   -381.868086   -1930.350436
 0.055000   -390.582860   -1539.642918
 0.060000   -397.264515   -1211.939626
 0.065000   -402.702257   -856.416475
 0.070000   -405.828680   -628.674963
 0.075000   -408.989006   -487.955411
 0.080000   -410.708234   -129.630997
 0.085000   -410.285316   77.552166
 0.090000   -409.932712   161.839003
 0.095000   -408.666926   523.705229
 0.100000   -404.695660   691.413873
 0.105000   -401.752787   672.343917
 0.110000   -397.972221   793.139537
 0.115000   -393.821392   886.739542
 0.120000   -389.104825   1025.137279
 0.125000   -383.570019   1211.151974
 0.130000   -376.993306   1252.550972
 0.135000   -371.044510   1224.236281
 0.140000   -364.750943   1291.113401
 0.145000   -358.133376   1338.854349
 0.150000   -351.362399   1370.259279
 0.155000   -344.430783   1397.962916
 0.160000   -337.382770   1416.651564
 0.165000   -330.264267   1425.243516
 0.170000   -323.130335   1425.041415
 0.175000   -316.013853   1416.886687
 0.180000   -308.961468   1400.686321
 0.185000   -302.006990   1380.687990
 0.190000   -295.154588   1355.437586
 0.195000   -288.452614   1333.523119
 0.200000   -281.819357   1394.437793
 0.205000   -274.508236   1345.950216
 0.210000   -268.359855   1201.228130
 0.215000   -262.495955   1148.693211
 0.220000   -256.872923   1087.120447
 0.225000   -251.624750   1024.934853
 0.230000   -246.623574   981.453502
 0.235000   -241.810215   932.894853
 0.240000   -237.294626   959.055340
 0.245000   -232.219662   966.104499
 0.250000   -227.633581   821.305018
 0.255000   -224.006612   697.294789
 0.260000   -220.660633   646.658462
 0.265000   -217.540027   603.087280
 0.270000   -214.629760   605.957733
 0.275000   -211.480450   645.175756
 0.280000   -208.178002   535.737974
 0.285000   -206.123070   390.239771
 0.290000   -204.275605   352.072281
 0.295000   -202.602347   324.034055
 0.300000   -201.035264   388.158350
 0.305000   -198.720764   334.437681
 0.310000   -197.690887   192.911015
 0.315000   -196.791653   168.382899
 0.320000   -196.007058   170.585979
 0.325000   -195.085794   214.114068
 0.330000   -193.865918   159.015716
 0.335000   -193.495636   65.932394
 0.340000   -193.206594   50.133735
 0.345000   -192.994299   101.748519
 0.350000   -192.189109   101.755213
 0.355000   -191.976747   17.081714
 0.360000   -192.018291   -12.124027
 0.365000   -192.097987   23.814190
 0.370000   -191.780150   56.909687
 0.375000   -191.528890   6.808467
 0.380000   -191.712065   -38.649098
 0.385000   -191.915381   -11.587062
 0.390000   -191.827935   25.648794
 0.395000   -191.658893   -7.396576
 0.400000   -191.901901   -45.535244
 0.405000   -192.114246   -4.534161
 0.410000   -191.947243   53.637642
 0.415000   -191.577869   17.974452
 0.420000   -191.767498   -36.455817
 0.425000   -191.942428   14.495718
 0.430000   -191.622541   70.236632
 0.435000   -191.240061   25.915747
 0.440000   -191.363384   -22.453772
 0.445000   -191.464599   49.897002
 0.450000   -190.864414   99.541277
 0.455000   -190.469186   40.096314
 0.460000   -190.463451   2.826095
 0.465000   -190.440925   98.054283
 0.470000   -189.482908   116.718015
 0.475000   -189.273745   25.522962
 0.480000   -189.227678   18.910946
 0.485000   -189.084636   130.703709
 0.490000   -187.920641   124.070025
 0.495000   -187.843935   17.791595
 0.500000   -187.742725   58.001436
 0.505000   -187.263921   142.984018
 0.510000   -186.312885   107.727069
 0.515000   -186.186650   27.155691
 0.520000   -186.041328   92.276863
 0.525000   -185.263882   144.002323
 0.530000   -184.601305   79.897576
 0.535000   -184.464906   29.237288
 0.540000   -184.308932   119.745467
 0.545000   -183.267451   145.652022
 0.550000   -182.852412   58.322288
 0.555000   -182.684228   35.239898
 0.560000   -182.500013   147.353076
 0.565000   -181.210698   142.416209
 0.570000   -181.075851   28.354574
 0.575000   -180.927152   50.900664
 0.580000   -180.566844   136.122505
 0.585000   -179.565927   101.124783
 0.590000   -179.555596   1.509612
 0.595000   -179.550831   30.117494
 0.600000   -179.254421   81.472597
 0.605000   -178.736105   17.981053
 0.610000   -179.074611   -78.449925
 0.615000   -179.520604   -79.112258
 0.620000   -179.865733   -80.497322
 0.625000   -180.325577   -163.661900
 0.630000   -181.502352   -256.553526
 0.635000   -182.891113   -298.326892
 0.640000   -184.485621   -367.125026
 0.645000   -186.562363   -450.488068
 0.650000   -188.990502   -507.029435
 0.655000   -191.632657   -559.731416
 0.660000   -194.587816   -634.843860
 0.665000   -197.981096   -673.336964
 0.670000   -201.321186   -681.211220
 0.675000   -204.793208   -709.466747
 0.680000   -208.415853   -768.537011
 0.685000   -212.478578   -784.901862
 0.690000   -216.264872   -768.257968
 0.695000   -220.161158   -791.382649
 0.700000   -224.178698   -838.826585
 0.705000   -228.549424   -875.042663
 0.710000   -232.929125   -884.273632
 0.715000   -237.392160   -913.987353
 0.720000   -242.068998   -962.299721
 0.725000   -247.015157   -1049.618727
 0.730000   -252.565186   -1103.365974
 0.735000   -258.048817   -1124.522460
 0.740000   -263.810410   -1181.845004
 0.745000   -269.867267   -1253.092426
 0.750000   -276.341334   -1339.453629
 0.755000   -283.261803   -1383.158088
 0.760000   -290.172915   -1414.282155
 0.765000   -297.404625   -1480.291778
 0.770000   -304.975833   -1552.198461
 0.775000   -312.926609   -1642.534227
 0.780000   -321.401175   -1702.490896
 0.785000   -329.951518   -1751.523060
 0.790000   -338.916406   -1836.439162
 0.795000   -348.315910   -1923.374114
 0.800000   -358.150147   -2017.561216
 0.805000   -368.491522   -2104.676243
 0.810000   -379.196910   -2188.084631
 0.815000   -390.372368   -2291.184332
 0.820000   -402.108753   -2406.227518
 0.825000   -414.434644   -2525.136166
 0.830000   -427.360115   -2644.054046
 0.835000   -440.875184   -2734.725736
 0.840000   -454.707372   -2863.564231
 0.845000   -469.510826   -3042.242342
 0.850000   -485.129795   -3211.578550
 0.855000   -501.626612   -3402.545552
 0.860000   -519.155251   -3653.408309
 0.865000   -538.160695   -4039.951896
 0.870000   -559.554770   -4562.958460
 0.875000   -583.790280   -5193.844822
 0.880000   -611.493218   -5993.942816
 0.885000   -643.729708   -6951.744446
 0.890000   -681.010662   -8036.267506
 0.895000   -724.092383   -9312.139825
 0.900000   -774.132061   -10839.710031
 0.905000   -832.489483   -12622.734224
 0.910000   -900.359403   -14588.478490
 0.915000   -978.374268   -16551.327283
 0.920000   -1065.872676   -18217.309916
 0.925000   -1160.547367   -19391.935592
 0.930000   -1259.792032   -19929.120996
 0.935000   -1359.838577   -20004.400731
 0.940000   -1459.836039   -21036.714980
 0.945000   -1570.205727   -26199.065129
 0.950000   -1721.826690   -39156.435026
 0.955000   -1961.770077   -59413.883465
 0.960000   -2315.965525   -81078.424741
 0.965000   -2772.554325   -95334.404818
 0.970000   -3269.309573   -94681.822900
 0.975000   -3719.372554   -76989.622385
 0.980000   -4039.205797   -50245.168375
 0.985000   -4221.824237   -23703.368930
 0.990000   -4276.239486   4764.692759
 0.995000   -4174.177310   -159199.362978
 1.000000   -5868.233116   -518422.959577
201 psinorm omevb() domevb/dpsiN
 0.000000   -2.335077   213.921632
 0.005000   -1.437134   145.255654
 0.010000   -0.882521   106.240111
 0.015000   -0.374733   98.909420
 0.020000   0.106573   93.669800
 0.025000   0.561965   88.147966
 0.030000   0.988053   81.386729
 0.035000   1.375832   74.222071
 0.040000   1.730274   67.470213
 0.045000   2.050534   60.788607
 0.050000   2.338160   54.661746
 0.055000   2.597152   49.689185
 0.060000   2.835052   45.945256
 0.065000   3.056604   43.334209
 0.070000   3.268394   41.700475
 0.075000   3.473609   40.729057
 0.080000   3.675684   40.241319
 0.085000   3.876022   40.381404
 0.090000   4.079498   40.903106
 0.095000   4.285053   41.336753
 0.100000   4.492866   41.761463
 0.105000   4.702668   42.023243
 0.110000   4.913098   42.158132
 0.115000   5.124249   42.120910
 0.120000   5.334307   41.497870
 0.125000   5.539228   40.278104
 0.130000   5.737089   38.975882
 0.135000   5.928987   37.466620
 0.140000   6.111755   35.737735
 0.145000   6.286364   33.772406
 0.150000   6.449479   31.874295
 0.155000   6.605107   30.579235
 0.160000   6.755271   29.829384
 0.165000   6.903401   29.431255
 0.170000   7.049584   29.164875
 0.175000   7.195050   29.215919
 0.180000   7.341743   29.253940
 0.185000   7.487589   29.235462
 0.190000   7.634097   29.277492
 0.195000   7.780364   29.444721
 0.200000   7.928545   29.684077
 0.205000   8.077205   30.244392
 0.210000   8.230989   30.757841
 0.215000   8.384783   30.595409
 0.220000   8.536943   30.238449
 0.225000   8.687168   29.387020
 0.230000   8.830813   27.925866
 0.235000   8.966426   25.971167
 0.240000   9.090525   23.648170
 0.245000   9.202908   21.857304
 0.250000   9.309098   20.578221
 0.255000   9.408690   19.238381
 0.260000   9.501481   18.098742
 0.265000   9.589678   16.809209
 0.270000   9.669573   15.835307
 0.275000   9.748031   15.793619
 0.280000   9.827510   15.777998
 0.285000   9.905811   15.793153
 0.290000   9.985441   16.065714
 0.295000   10.066468   16.314203
 0.300000   10.148583   16.982818
 0.305000   10.236296   17.957475
 0.310000   10.328158   18.486156
 0.315000   10.421158   18.750195
 0.320000   10.515660   18.693372
 0.325000   10.608091   18.332901
 0.330000   10.698989   17.924867
 0.335000   10.787340   16.736249
 0.340000   10.866351   14.969989
 0.345000   10.937040   13.350684
 0.350000   10.999858   11.615229
 0.355000   11.053192   9.864145
 0.360000   11.098500   8.209798
 0.365000   11.135290   6.141216
 0.370000   11.159912   4.323778
 0.375000   11.178528   3.404226
 0.380000   11.193954   3.087970
 0.385000   11.209408   2.978646
 0.390000   11.223741   2.614416
 0.395000   11.235552   2.666330
 0.400000   11.250404   3.224570
 0.405000   11.267798   3.729177
 0.410000   11.287696   4.145432
 0.415000   11.309252   4.351349
 0.420000   11.331209   4.468973
 0.425000   11.353942   4.659430
 0.430000   11.377803   4.515848
 0.435000   11.399100   3.493429
 0.440000   11.412738   0.632745
 0.445000   11.405428   -4.398293
 0.450000   11.368755   -10.955081
 0.455000   11.295877   -19.122649
 0.460000   11.177528   -28.360505
 0.465000   11.012272   -38.218262
 0.470000   10.795346   -48.544638
 0.475000   10.526825   -57.391632
 0.480000   10.221429   -63.813687
 0.485000   9.888688   -67.779311
 0.490000   9.543636   -68.996878
 0.495000   9.198720   -67.434634
 0.500000   8.869290   -62.861822
 0.505000   8.570101   -56.278488
 0.510000   8.306505   -48.955953
 0.515000   8.080542   -41.584722
 0.520000   7.890658   -34.919807
 0.525000   7.731344   -29.080886
 0.530000   7.599849   -24.526370
 0.535000   7.486080   -21.960359
 0.540000   7.380245   -21.093071
 0.545000   7.275149   -21.960243
 0.550000   7.160643   -24.627425
 0.555000   7.028875   -28.623023
 0.560000   6.874413   -33.475433
 0.565000   6.694121   -38.812715
 0.570000   6.486286   -44.690109
 0.575000   6.247220   -51.233310
 0.580000   5.973952   -58.184455
 0.585000   5.665375   -65.607626
 0.590000   5.317876   -73.912012
 0.595000   4.926255   -82.784088
 0.600000   4.490035   -92.071045
 0.605000   4.005545   -101.634581
 0.610000   3.473690   -110.930038
 0.615000   2.896244   -119.901938
 0.620000   2.274670   -128.561069
 0.625000   1.610634   -135.843817
 0.630000   0.916232   -140.646202
 0.635000   0.204172   -142.627938
 0.640000   -0.510047   -142.035088
 0.645000   -1.216179   -139.258817
 0.650000   -1.902636   -133.604103
 0.655000   -2.552220   -125.347049
 0.660000   -3.156106   -115.359368
 0.665000   -3.705814   -103.970609
 0.670000   -4.195812   -92.574713
 0.675000   -4.631561   -81.373311
 0.680000   -5.009545   -69.703850
 0.685000   -5.328600   -58.794660
 0.690000   -5.597492   -49.543491
 0.695000   -5.824035   -41.950935
 0.700000   -6.017001   -36.265260
 0.705000   -6.186687   -31.976473
 0.710000   -6.336766   -28.525552
 0.715000   -6.471943   -26.017093
 0.720000   -6.596937   -24.151448
 0.725000   -6.713457   -23.063187
 0.730000   -6.827569   -20.285755
 0.735000   -6.916315   -16.031245
 0.740000   -6.987881   -12.347843
 0.745000   -7.039793   -8.277460
 0.750000   -7.070656   -3.925671
 0.755000   -7.079050   0.273643
 0.760000   -7.067919   5.512526
 0.765000   -7.023925   11.160715
 0.770000   -6.956312   15.613169
 0.775000   -6.867793   19.703062
 0.780000   -6.759282   23.364881
 0.785000   -6.634144   26.991969
 0.790000   -6.489362   29.454768
 0.795000   -6.339596   29.935904
 0.800000   -6.190003   29.256390
 0.805000   -6.047032   27.196179
 0.810000   -5.918041   23.725575
 0.815000   -5.809777   19.551687
 0.820000   -5.722524   13.343509
 0.825000   -5.676342   5.445594
 0.830000   -5.668068   -1.882362
 0.835000   -5.695165   -8.795785
 0.840000   -5.756026   -15.143236
 0.845000   -5.846598   -20.436189
 0.850000   -5.960388   -24.058028
 0.855000   -6.087178   -26.160372
 0.860000   -6.221992   -27.579131
 0.865000   -6.362969   -28.517988
 0.870000   -6.507172   -28.347033
 0.875000   -6.646440   -26.871719
 0.880000   -6.775889   -23.290436
 0.885000   -6.879344   -15.662722
 0.890000   -6.932516   -3.921111
 0.895000   -6.918555   10.552073
 0.900000   -6.826995   26.310818
 0.905000   -6.655447   36.667453
 0.910000   -6.460321   29.862657
 0.915000   -6.356820   -11.165309
 0.920000   -6.571974   -124.594036
 0.925000   -7.602761   -371.143336
 0.930000   -10.283407   -828.158802
 0.935000   -15.884349   -1584.810151
 0.940000   -26.131509   -2690.449227
 0.945000   -42.788841   -4051.185496
 0.950000   -66.643364   -5371.899846
 0.955000   -96.507839   -6150.543015
 0.960000   -128.148794   -5805.292332
 0.965000   -154.560763   -3945.642221
 0.970000   -167.605216   -668.691033
 0.975000   -161.247673   3127.228369
 0.980000   -136.332932   5913.692021
 0.985000   -102.110753   6766.891314
 0.990000   -68.664019   6113.210875
 0.995000   -40.978644   4801.497837
 1.000000   -20.649041   3330.343456
201 psinorm omepp() domepp/dpsiN
 0.000000   38.279143   -59.061209
 0.005000   37.939817   -76.669256
 0.010000   37.512450   -84.945964
 0.015000   37.090357   -83.898358
 0.020000   36.673467   -82.864704
 0.025000   36.261710   -81.844804
 0.030000   35.855019   -80.838463
 0.035000   35.453325   -79.845489
 0.040000   35.056564   -78.865693
 0.045000   34.664668   -77.898888
 0.050000   34.277575   -76.944891
 0.055000   33.895220   -76.003522
 0.060000   33.517540   -75.074601
 0.065000   33.144474   -74.157954
 0.070000   32.775960   -73.253407
 0.075000   32.411939   -72.360791
 0.080000   32.052352   -71.479937
 0.085000   31.697140   -70.610681
 0.090000   31.346245   -69.752859
 0.095000   30.999612   -68.906312
 0.100000   30.657182   -68.070880
 0.105000   30.318903   -67.246409
 0.110000   29.984718   -66.432745
 0.115000   29.654575   -65.629737
 0.120000   29.328421   -64.837236
 0.125000   29.006203   -64.055096
 0.130000   28.687870   -63.283171
 0.135000   28.373371   -62.521320
 0.140000   28.062657   -61.769403
 0.145000   27.755677   -61.027280
 0.150000   27.452384   -60.294817
 0.155000   27.152729   -59.571878
 0.160000   26.856665   -58.858332
 0.165000   26.564146   -58.154048
 0.170000   26.275125   -57.458898
 0.175000   25.989557   -56.772756
 0.180000   25.707397   -56.095497
 0.185000   25.428602   -55.426997
 0.190000   25.153127   -54.767137
 0.195000   24.880930   -54.115797
 0.200000   24.611969   -53.472859
 0.205000   24.346202   -52.838208
 0.210000   24.083587   -52.211729
 0.215000   23.824084   -51.593311
 0.220000   23.567654   -50.982842
 0.225000   23.314256   -50.380213
 0.230000   23.063852   -49.785317
 0.235000   22.816403   -49.198047
 0.240000   22.571871   -48.618300
 0.245000   22.330220   -48.045972
 0.250000   22.091412   -47.480961
 0.255000   21.855410   -46.923169
 0.260000   21.622180   -46.372495
 0.265000   21.391685   -45.828844
 0.270000   21.163892   -45.292119
 0.275000   20.938764   -44.762225
 0.280000   20.716269   -44.239071
 0.285000   20.496373   -43.722564
 0.290000   20.279044   -43.212615
 0.295000   20.064247   -42.709133
 0.300000   19.851952   -42.212032
 0.305000   19.642127   -41.721224
 0.310000   19.434740   -41.236625
 0.315000   19.229761   -40.758151
 0.320000   19.027159   -40.285718
 0.325000   18.826904   -39.819245
 0.330000   18.628966   -39.358653
 0.335000   18.433317   -38.903860
 0.340000   18.239927   -38.454790
 0.345000   18.048769   -38.011365
 0.350000   17.859814   -37.573510
 0.355000   17.673034   -37.141149
 0.360000   17.488402   -36.714208
 0.365000   17.305892   -36.292615
 0.370000   17.125476   -35.876299
 0.375000   16.947129   -35.465188
 0.380000   16.770824   -35.059212
 0.385000   16.596537   -34.658304
 0.390000   16.424241   -34.262395
 0.395000   16.253913   -33.871419
 0.400000   16.085527   -33.485309
 0.405000   15.919060   -33.104002
 0.410000   15.754487   -32.727432
 0.415000   15.591785   -32.355538
 0.420000   15.430932   -31.988256
 0.425000   15.271903   -31.625525
 0.430000   15.114676   -31.267285
 0.435000   14.959230   -30.913477
 0.440000   14.805542   -30.564042
 0.445000   14.653590   -30.218921
 0.450000   14.503352   -29.878059
 0.455000   14.354809   -29.541397
 0.460000   14.207938   -29.208882
 0.465000   14.062720   -28.880457
 0.470000   13.919134   -28.556070
 0.475000   13.777160   -28.235667
 0.480000   13.636777   -27.919196
 0.485000   13.497968   -27.606604
 0.490000   13.360711   -27.297841
 0.495000   13.224989   -26.992857
 0.500000   13.090783   -26.691602
 0.505000   12.958073   -26.394027
 0.510000   12.826842   -26.100084
 0.515000   12.697072   -25.809725
 0.520000   12.568745   -25.522904
 0.525000   12.441843   -25.239574
 0.530000   12.316349   -24.959690
 0.535000   12.192246   -24.683206
 0.540000   12.069517   -24.410079
 0.545000   11.948146   -24.140264
 0.550000   11.828115   -23.873719
 0.555000   11.709408   -23.610401
 0.560000   11.592011   -23.350269
 0.565000   11.475906   -23.093280
 0.570000   11.361078   -22.839394
 0.575000   11.247512   -22.588571
 0.580000   11.135192   -22.340771
 0.585000   11.024104   -22.095955
 0.590000   10.914233   -21.854085
 0.595000   10.805563   -21.615122
 0.600000   10.698081   -21.379029
 0.605000   10.591773   -21.145770
 0.610000   10.486624   -20.915306
 0.615000   10.382620   -20.687604
 0.620000   10.279748   -20.462627
 0.625000   10.177994   -20.240339
 0.630000   10.077344   -20.020708
 0.635000   9.977786   -19.803699
 0.640000   9.879307   -19.589279
 0.645000   9.781894   -19.377414
 0.650000   9.685533   -19.168073
 0.655000   9.590213   -18.961225
 0.660000   9.495921   -18.756837
 0.665000   9.402645   -18.554882
 0.670000   9.310372   -18.355329
 0.675000   9.219091   -18.158151
 0.680000   9.128791   -17.963321
 0.685000   9.039458   -17.770816
 0.690000   8.951082   -17.580613
 0.695000   8.863652   -17.392694
 0.700000   8.777155   -17.207046
 0.705000   8.691581   -17.023661
 0.710000   8.606919   -16.842539
 0.715000   8.523156   -16.663693
 0.720000   8.440282   -16.487151
 0.725000   8.358285   -16.312964
 0.730000   8.277152   -16.141214
 0.735000   8.196872   -15.972024
 0.740000   8.117432   -15.805577
 0.745000   8.038817   -15.642138
 0.750000   7.961011   -15.482085
 0.755000   7.883996   -15.325954
 0.760000   7.807751   -15.174500
 0.765000   7.732251   -15.028779
 0.770000   7.657463   -14.890265
 0.775000   7.583348   -14.761012
 0.780000   7.509853   -14.643870
 0.785000   7.436909   -14.542789
 0.790000   7.364425   -14.463232
 0.795000   7.292277   -14.412740
 0.800000   7.220298   -14.401698
 0.805000   7.148260   -14.444381
 0.810000   7.075854   -14.560356
 0.815000   7.002657   -14.776374
 0.820000   6.928090   -15.128887
 0.825000   6.851368   -15.667378
 0.830000   6.771417   -16.458718
 0.835000   6.686781   -17.592797
 0.840000   6.595489   -19.189657
 0.845000   6.494884   -21.408320
 0.850000   6.381405   -24.457318
 0.855000   6.250311   -28.606548
 0.860000   6.095340   -34.199281
 0.865000   5.908318   -41.661699
 0.870000   5.678723   -51.504550
 0.875000   5.393272   -64.306685
 0.880000   5.035656   -80.661576
 0.885000   4.586657   -101.053095
 0.890000   4.025125   -125.601596
 0.895000   3.330641   -153.579848
 0.900000   2.489327   -182.533642
 0.905000   1.505304   -206.750627
 0.910000   0.421820   -214.721543
 0.915000   -0.641911   -185.219780
 0.920000   -1.430377   -81.963815
 0.925000   -1.461549   151.819693
 0.930000   0.087819   594.120547
 0.935000   4.479656   1329.057350
 0.940000   13.378393   2399.560126
 0.945000   28.475258   3721.571526
 0.950000   50.594108   4997.282036
 0.955000   78.448078   5717.915591
 0.960000   107.773264   5316.435381
 0.965000   131.612432   3419.770326
 0.970000   141.970967   170.938811
 0.975000   133.321820   -3431.514032
 0.980000   107.655827   -5799.069657
 0.985000   75.331123   -6025.995592
 0.990000   47.395871   -4700.453104
 0.995000   28.326592   -3046.223092
 1.000000   16.933640   -1510.957664
201 psinorm kpol(km/s/T) dkpol/dpsiN
 0.000000   -0.042806   181.104144
 0.005000   0.680152   108.079048
 0.010000   1.037984   68.363528
 0.015000   1.363787   63.915225
 0.020000   1.677137   61.418860
 0.025000   1.977976   58.540344
 0.030000   2.262540   54.271981
 0.035000   2.520696   49.472258
 0.040000   2.757263   45.021621
 0.045000   2.970912   40.529018
 0.050000   3.162553   36.431570
 0.055000   3.335228   33.298013
 0.060000   3.495533   31.315277
 0.065000   3.648380   30.438368
 0.070000   3.799917   30.356093
 0.075000   3.951941   30.766586
 0.080000   4.107583   31.514981
 0.085000   4.267091   32.630191
 0.090000   4.433885   34.011385
 0.095000   4.607205   35.133021
 0.100000   4.785215   35.901847
 0.105000   4.966223   36.317663
 0.110000   5.148391   36.484764
 0.115000   5.331071   36.119764
 0.120000   5.509589   35.175394
 0.125000   5.682825   33.726316
 0.130000   5.846852   31.982467
 0.135000   6.002650   29.983123
 0.140000   6.146683   27.762632
 0.145000   6.280276   25.337810
 0.150000   6.400061   22.851575
 0.155000   6.508792   20.643482
 0.160000   6.606496   18.735912
 0.165000   6.696151   17.082276
 0.170000   6.777319   15.533943
 0.175000   6.851490   14.261855
 0.180000   6.919938   13.021817
 0.185000   6.981708   11.792422
 0.190000   7.037862   10.482493
 0.195000   7.086533   9.176465
 0.200000   7.129626   7.826421
 0.205000   7.164798   6.394908
 0.210000   7.193576   5.112311
 0.215000   7.215921   3.721924
 0.220000   7.230795   2.459901
 0.225000   7.240520   1.213087
 0.230000   7.242926   -0.104149
 0.235000   7.239478   -1.233201
 0.240000   7.230594   -2.528894
 0.245000   7.214189   -3.864357
 0.250000   7.191950   -5.138980
 0.255000   7.162799   -6.620192
 0.260000   7.125748   -8.052135
 0.265000   7.082278   -9.452629
 0.270000   7.031222   -10.907171
 0.275000   6.973206   -12.234308
 0.280000   6.908879   -13.629243
 0.285000   6.836914   -14.955571
 0.290000   6.759323   -16.186534
 0.295000   6.675049   -17.537188
 0.300000   6.583951   -18.829204
 0.305000   6.486757   -20.223424
 0.310000   6.381717   -21.971140
 0.315000   6.267045   -23.824714
 0.320000   6.143470   -25.960144
 0.325000   6.007444   -28.546482
 0.330000   5.858005   -31.217425
 0.335000   5.695270   -34.052158
 0.340000   5.517483   -37.130047
 0.345000   5.323969   -40.098691
 0.350000   5.116497   -42.892984
 0.355000   4.895039   -45.405970
 0.360000   4.662437   -47.161450
 0.365000   4.423425   -48.337097
 0.370000   4.179066   -49.075989
 0.375000   3.932665   -49.122860
 0.380000   3.687837   -48.378829
 0.385000   3.448877   -47.293310
 0.390000   3.214904   -46.194553
 0.395000   2.986931   -45.110526
 0.400000   2.763799   -44.237106
 0.405000   2.544560   -43.636105
 0.410000   2.327438   -43.445132
 0.415000   2.110109   -43.671544
 0.420000   1.890722   -44.051485
 0.425000   1.669594   -44.488522
 0.430000   1.445837   -45.167103
 0.435000   1.217923   -46.568016
 0.440000   0.980157   -50.207744
 0.445000   0.715845   -56.475695
 0.450000   0.415400   -64.567812
 0.455000   0.070167   -74.301856
 0.460000   -0.327618   -85.285302
 0.465000   -0.782686   -97.407147
 0.470000   -1.301690   -110.195280
 0.475000   -1.884639   -120.935800
 0.480000   -2.511048   -128.187169
 0.485000   -3.166510   -132.161060
 0.490000   -3.832659   -132.436559
 0.495000   -4.490876   -128.540987
 0.500000   -5.118068   -120.061910
 0.505000   -5.691495   -108.336790
 0.510000   -6.201436   -95.068633
 0.515000   -6.642181   -81.172869
 0.520000   -7.013165   -67.646546
 0.525000   -7.318647   -54.698520
 0.530000   -7.560150   -43.206682
 0.535000   -7.750714   -34.371401
 0.540000   -7.903864   -27.995633
 0.545000   -8.030670   -23.477570
 0.550000   -8.138640   -20.456419
 0.555000   -8.235234   -18.805185
 0.560000   -8.326692   -17.918547
 0.565000   -8.414420   -17.089312
 0.570000   -8.497585   -16.242467
 0.575000   -8.576844   -15.480038
 0.580000   -8.652385   -14.608690
 0.585000   -8.722931   -13.651511
 0.590000   -8.788900   -12.717539
 0.595000   -8.850107   -11.706537
 0.600000   -8.905966   -10.633221
 0.605000   -8.956439   -9.524825
 0.610000   -9.001214   -8.528536
 0.615000   -9.041724   -7.573761
 0.620000   -9.076952   -6.587533
 0.625000   -9.107599   -5.773355
 0.630000   -9.134685   -5.090870
 0.635000   -9.158508   -4.447877
 0.640000   -9.179164   -3.863638
 0.645000   -9.197145   -3.474380
 0.650000   -9.213908   -3.183462
 0.655000   -9.228979   -2.889194
 0.660000   -9.242800   -2.702712
 0.665000   -9.256006   -2.623583
 0.670000   -9.269036   -2.546975
 0.675000   -9.281476   -2.487948
 0.680000   -9.293915   -2.553717
 0.685000   -9.307013   -2.638498
 0.690000   -9.320300   -2.712261
 0.695000   -9.334136   -2.876607
 0.700000   -9.349066   -3.109077
 0.705000   -9.365227   -3.386124
 0.710000   -9.382927   -3.719823
 0.715000   -9.402425   -4.137212
 0.720000   -9.424299   -4.652160
 0.725000   -9.448946   -5.204742
 0.730000   -9.476347   -5.798023
 0.735000   -9.506927   -6.546973
 0.740000   -9.541817   -7.297979
 0.745000   -9.579906   -7.993171
 0.750000   -9.621748   -8.742715
 0.755000   -9.667334   -9.528021
 0.760000   -9.717028   -10.205141
 0.765000   -9.769385   -10.676713
 0.770000   -9.823796   -11.221856
 0.775000   -9.881604   -11.704045
 0.780000   -9.940836   -12.077267
 0.785000   -10.002376   -12.624745
 0.790000   -10.067084   -13.620853
 0.795000   -10.138585   -15.220534
 0.800000   -10.219289   -17.356239
 0.805000   -10.312147   -20.080029
 0.810000   -10.420089   -23.274204
 0.815000   -10.544889   -26.752518
 0.820000   -10.687614   -30.533485
 0.825000   -10.850224   -34.007681
 0.830000   -11.027691   -36.336692
 0.835000   -11.213591   -37.448764
 0.840000   -11.402179   -37.349309
 0.845000   -11.587084   -35.782139
 0.850000   -11.760000   -32.673704
 0.855000   -11.913821   -28.566585
 0.860000   -12.045666   -24.214117
 0.865000   -12.155962   -19.822260
 0.870000   -12.243889   -15.432989
 0.875000   -12.310292   -11.322087
 0.880000   -12.357109   -7.638367
 0.885000   -12.386676   -4.175819
 0.890000   -12.398868   -0.771024
 0.895000   -12.394386   2.604008
 0.900000   -12.372828   6.033420
 0.905000   -12.334052   9.645602
 0.910000   -12.276372   13.394687
 0.915000   -12.200105   16.923080
 0.920000   -12.107141   20.032363
 0.925000   -11.999781   22.664146
 0.930000   -11.880499   25.701208
 0.935000   -11.742769   30.836238
 0.940000   -11.572137   35.724459
 0.945000   -11.385525   36.928783
 0.950000   -11.202849   33.059817
 0.955000   -11.054927   16.429808
 0.960000   -11.038551   -23.139996
 0.965000   -11.286326   -87.081558
 0.970000   -11.909367   -142.914152
 0.975000   -12.715468   -84.754237
 0.980000   -12.756909   243.380930
 0.985000   -10.281659   914.041742
 0.990000   -3.616492   1708.674972
 0.995000   6.805091   2059.797020
 1.000000   16.981479   2010.758030
201 psinorm omghb() domghb/dpsiN
 0.000000   -0.000043   -0.006749
 0.005000   -0.000217   -0.062964
 0.010000   -0.000673   -0.053004
 0.015000   -0.000747   -0.002136
 0.020000   -0.000694   0.025685
 0.025000   -0.000491   0.061426
 0.030000   -0.000080   0.107455
 0.035000   0.000584   0.161455
 0.040000   0.001535   0.213010
 0.045000   0.002714   0.239334
 0.050000   0.003928   0.234513
 0.055000   0.005059   0.222574
 0.060000   0.006154   0.199691
 0.065000   0.007056   0.165254
 0.070000   0.007806   0.133322
 0.075000   0.008389   0.103675
 0.080000   0.008843   0.076556
 0.085000   0.009155   0.046539
 0.090000   0.009308   0.026219
 0.095000   0.009417   0.007872
 0.100000   0.009387   -0.004951
 0.105000   0.009368   0.023754
 0.110000   0.009625   0.046315
 0.115000   0.009831   0.054355
 0.120000   0.010168   0.077617
 0.125000   0.010607   0.106709
 0.130000   0.011235   0.163684
 0.135000   0.012244   0.207511
 0.140000   0.013310   0.214595
 0.145000   0.014390   0.203874
 0.150000   0.015349   0.183714
 0.155000   0.016227   0.155078
 0.160000   0.016900   0.096726
 0.165000   0.017194   0.057716
 0.170000   0.017477   0.026875
 0.175000   0.017463   0.006485
 0.180000   0.017542   0.000419
 0.185000   0.017467   -0.002715
 0.190000   0.017515   -0.021818
 0.195000   0.017249   -0.049125
 0.200000   0.017024   -0.036890
 0.205000   0.016880   -0.062107
 0.210000   0.016403   -0.057167
 0.215000   0.016308   -0.035198
 0.220000   0.016051   0.015817
 0.225000   0.016466   0.227691
 0.230000   0.018327   0.308741
 0.235000   0.019554   0.289005
 0.240000   0.021218   0.308494
 0.245000   0.022639   0.266851
 0.250000   0.023886   0.324943
 0.255000   0.025888   0.209655
 0.260000   0.025983   0.097816
 0.265000   0.026866   0.160699
 0.270000   0.027590   0.095939
 0.275000   0.027826   0.062308
 0.280000   0.028213   0.095917
 0.285000   0.028785   -0.094224
 0.290000   0.027270   -0.197956
 0.295000   0.026805   -0.123740
 0.300000   0.026033   -0.159912
 0.305000   0.025206   -0.139596
 0.310000   0.024637   -0.165567
 0.315000   0.023551   -0.117457
 0.320000   0.023462   0.028864
 0.325000   0.023839   0.104690
 0.330000   0.024509   0.177173
 0.335000   0.025611   0.276538
 0.340000   0.027275   0.194600
 0.345000   0.027557   0.310120
 0.350000   0.030376   0.537691
 0.355000   0.032934   0.474673
 0.360000   0.035123   0.407282
 0.365000   0.037007   0.323159
 0.370000   0.038354   0.239881
 0.375000   0.039405   0.218824
 0.380000   0.040542   0.123815
 0.385000   0.040644   -0.008287
 0.390000   0.040460   -0.084546
 0.395000   0.039798   -0.129198
 0.400000   0.039168   -0.034611
 0.405000   0.039452   -0.114943
 0.410000   0.038018   -0.229240
 0.415000   0.037160   -0.119597
 0.420000   0.036822   -0.057528
 0.425000   0.036584   -0.007315
 0.430000   0.036749   0.125293
 0.435000   0.037837   0.430076
 0.440000   0.041050   0.964080
 0.445000   0.047478   1.520241
 0.450000   0.056252   2.214505
 0.455000   0.069623   2.729494
 0.460000   0.083547   2.784245
 0.465000   0.097466   2.781760
 0.470000   0.111365   2.653730
 0.475000   0.124003   2.286704
 0.480000   0.134232   1.825524
 0.485000   0.142258   0.977504
 0.490000   0.144007   -0.091024
 0.495000   0.141348   -0.906359
 0.500000   0.134943   -1.555161
 0.505000   0.125796   -1.986205
 0.510000   0.115081   -2.398044
 0.515000   0.101816   -2.360742
 0.520000   0.091474   -1.834257
 0.525000   0.083473   -1.437523
 0.530000   0.077099   -1.054091
 0.535000   0.072932   -0.606532
 0.540000   0.071033   -0.085312
 0.545000   0.072079   0.532434
 0.550000   0.076358   1.057682
 0.555000   0.082656   1.416267
 0.560000   0.090520   1.657159
 0.565000   0.099228   1.793290
 0.570000   0.108453   1.986476
 0.575000   0.119092   2.213391
 0.580000   0.130587   2.383724
 0.585000   0.142930   2.669026
 0.590000   0.157277   2.820906
 0.595000   0.171139   2.893963
 0.600000   0.186217   3.127821
 0.605000   0.202417   3.298294
 0.610000   0.219200   3.259135
 0.615000   0.235008   3.141692
 0.620000   0.250617   2.636139
 0.625000   0.261370   1.958148
 0.630000   0.270198   1.374971
 0.635000   0.275119   0.466821
 0.640000   0.274867   -0.510346
 0.645000   0.270016   -1.561201
 0.650000   0.259255   -2.298257
 0.655000   0.247033   -2.791918
 0.660000   0.231335   -3.441952
 0.665000   0.212614   -4.041322
 0.670000   0.190922   -4.182942
 0.675000   0.170784   -4.112138
 0.680000   0.149801   -3.736149
 0.685000   0.133423   -3.153970
 0.690000   0.118261   -2.922965
 0.695000   0.104193   -2.577043
 0.700000   0.092491   -1.983623
 0.705000   0.084357   -1.214088
 0.710000   0.080350   -0.728630
 0.715000   0.077071   -0.785329
 0.720000   0.072496   -0.909384
 0.725000   0.067977   -0.942713
 0.730000   0.063069   -1.073043
 0.735000   0.057246   -1.033811
 0.740000   0.052731   -1.286319
 0.745000   0.044383   -1.852905
 0.750000   0.034202   -1.887275
 0.755000   0.025511   -1.754579
 0.760000   0.016656   -1.763331
 0.765000   0.007877   -1.734935
 0.770000   -0.000693   -1.757108
 0.775000   -0.009694   -1.608486
 0.780000   -0.016778   -1.271841
 0.785000   -0.022412   -0.935423
 0.790000   -0.026132   -0.571631
 0.795000   -0.028129   -0.259658
 0.800000   -0.028729   0.164481
 0.805000   -0.026484   1.206423
 0.810000   -0.016664   1.931904
 0.815000   -0.007165   2.116822
 0.820000   0.004504   2.522376
 0.825000   0.018059   2.790904
 0.830000   0.032413   3.066002
 0.835000   0.048719   3.226139
 0.840000   0.064674   2.909077
 0.845000   0.077810   2.513395
 0.850000   0.089808   2.401462
 0.855000   0.101824   2.544925
 0.860000   0.115257   2.976579
 0.865000   0.131590   3.361391
 0.870000   0.148871   3.796844
 0.875000   0.169559   4.425802
 0.880000   0.193129   4.826918
 0.885000   0.217828   4.950837
 0.890000   0.242638   5.588982
 0.895000   0.273718   5.186565
 0.900000   0.294503   4.489177
 0.905000   0.318609   4.750808
 0.910000   0.342011   4.578826
 0.915000   0.364398   4.360046
 0.920000   0.385612   6.660134
 0.925000   0.430999   6.030949
 0.930000   0.445921   4.678049
 0.935000   0.477780   8.584880
 0.940000   0.531770   13.115369
 0.945000   0.608933   17.710616
 0.950000   0.708876   27.166573
 0.955000   0.880599   26.553067
 0.960000   0.974407   15.437277
 0.965000   1.034972   0.330636
 0.970000   0.977713   -38.098955
 0.975000   0.653982   -110.582358
 0.980000   -0.128110   -210.862863
 0.985000   -1.454646   -284.373375
 0.990000   -2.971844   -228.088062
 0.995000   -3.735527   -7.136665
 1.000000   -3.043211   284.063282
201 psinorm nz1(10^20/m^3) dnz1/dpsiN
 0.000000   0.014029   0.000001
 0.005000   0.014028   -0.000198
 0.010000   0.014027   -0.000397
 0.015000   0.014024   -0.000597
 0.020000   0.014021   -0.000798
 0.025000   0.014016   -0.000999
 0.030000   0.014011   -0.001201
 0.035000   0.014004   -0.001402
 0.040000   0.013997   -0.001605
 0.045000   0.013988   -0.001807
 0.050000   0.013979   -0.002009
 0.055000   0.013968   -0.002209
 0.060000   0.013957   -0.002408
 0.065000   0.013944   -0.002605
 0.070000   0.013931   -0.002798
 0.075000   0.013916   -0.002987
 0.080000   0.013901   -0.003170
 0.085000   0.013884   -0.003349
 0.090000   0.013867   -0.003521
 0.095000   0.013849   -0.003686
 0.100000   0.013830   -0.003844
 0.105000   0.013811   -0.003994
 0.110000   0.013790   -0.004137
 0.115000   0.013769   -0.004274
 0.120000   0.013748   -0.004406
 0.125000   0.013725   -0.004531
 0.130000   0.013702   -0.004651
 0.135000   0.013679   -0.004766
 0.140000   0.013655   -0.004876
 0.145000   0.013630   -0.004980
 0.150000   0.013605   -0.005078
 0.155000   0.013579   -0.005171
 0.160000   0.013553   -0.005258
 0.165000   0.013527   -0.005340
 0.170000   0.013500   -0.005415
 0.175000   0.013473   -0.005484
 0.180000   0.013445   -0.005546
 0.185000   0.013417   -0.005601
 0.190000   0.013389   -0.005649
 0.195000   0.013361   -0.005690
 0.200000   0.013332   -0.005722
 0.205000   0.013303   -0.005744
 0.210000   0.013275   -0.005756
 0.215000   0.013246   -0.005758
 0.220000   0.013217   -0.005749
 0.225000   0.013188   -0.005727
 0.230000   0.013160   -0.005693
 0.235000   0.013131   -0.005646
 0.240000   0.013103   -0.005587
 0.245000   0.013076   -0.005519
 0.250000   0.013048   -0.005443
 0.255000   0.013021   -0.005362
 0.260000   0.012994   -0.005274
 0.265000   0.012968   -0.005181
 0.270000   0.012943   -0.005080
 0.275000   0.012918   -0.004972
 0.280000   0.012893   -0.004856
 0.285000   0.012869   -0.004731
 0.290000   0.012846   -0.004595
 0.295000   0.012823   -0.004443
 0.300000   0.012801   -0.004279
 0.305000   0.012780   -0.004101
 0.310000   0.012760   -0.003911
 0.315000   0.012741   -0.003708
 0.320000   0.012723   -0.003493
 0.325000   0.012706   -0.003270
 0.330000   0.012690   -0.003039
 0.335000   0.012676   -0.002802
 0.340000   0.012662   -0.002560
 0.345000   0.012650   -0.002313
 0.350000   0.012639   -0.002064
 0.355000   0.012630   -0.001817
 0.360000   0.012621   -0.001569
 0.365000   0.012614   -0.001323
 0.370000   0.012608   -0.001077
 0.375000   0.012603   -0.000833
 0.380000   0.012600   -0.000590
 0.385000   0.012597   -0.000346
 0.390000   0.012596   -0.000100
 0.395000   0.012596   0.000149
 0.400000   0.012598   0.000401
 0.405000   0.012600   0.000656
 0.410000   0.012604   0.000912
 0.415000   0.012609   0.001168
 0.420000   0.012616   0.001422
 0.425000   0.012624   0.001673
 0.430000   0.012633   0.001917
 0.435000   0.012643   0.002153
 0.440000   0.012654   0.002377
 0.445000   0.012666   0.002588
 0.450000   0.012680   0.002783
 0.455000   0.012694   0.002963
 0.460000   0.012710   0.003125
 0.465000   0.012726   0.003269
 0.470000   0.012742   0.003394
 0.475000   0.012760   0.003505
 0.480000   0.012777   0.003601
 0.485000   0.012796   0.003681
 0.490000   0.012814   0.003748
 0.495000   0.012833   0.003800
 0.500000   0.012852   0.003840
 0.505000   0.012871   0.003868
 0.510000   0.012891   0.003881
 0.515000   0.012910   0.003878
 0.520000   0.012930   0.003855
 0.525000   0.012949   0.003809
 0.530000   0.012968   0.003739
 0.535000   0.012986   0.003641
 0.540000   0.013004   0.003517
 0.545000   0.013021   0.003369
 0.550000   0.013038   0.003195
 0.555000   0.013053   0.002999
 0.560000   0.013068   0.002780
 0.565000   0.013081   0.002544
 0.570000   0.013093   0.002294
 0.575000   0.013104   0.002027
 0.580000   0.013113   0.001743
 0.585000   0.013121   0.001438
 0.590000   0.013128   0.001112
 0.595000   0.013133   0.000760
 0.600000   0.013135   0.000378
 0.605000   0.013136   -0.000036
 0.610000   0.013135   -0.000480
 0.615000   0.013132   -0.000956
 0.620000   0.013126   -0.001460
 0.625000   0.013117   -0.001988
 0.630000   0.013106   -0.002531
 0.635000   0.013092   -0.003087
 0.640000   0.013075   -0.003649
 0.645000   0.013055   -0.004218
 0.650000   0.013033   -0.004797
 0.655000   0.013007   -0.005393
 0.660000   0.012979   -0.006010
 0.665000   0.012947   -0.006646
 0.670000   0.012912   -0.007303
 0.675000   0.012874   -0.007980
 0.680000   0.012832   -0.008685
 0.685000   0.012787   -0.009411
 0.690000   0.012738   -0.010140
 0.695000   0.012686   -0.010873
 0.700000   0.012630   -0.011621
 0.705000   0.012570   -0.012401
 0.710000   0.012506   -0.013266
 0.715000   0.012437   -0.014234
 0.720000   0.012363   -0.015261
 0.725000   0.012284   -0.016324
 0.730000   0.012200   -0.017417
 0.735000   0.012110   -0.018520
 0.740000   0.012015   -0.019641
 0.745000   0.011914   -0.020734
 0.750000   0.011807   -0.021689
 0.755000   0.011697   -0.022475
 0.760000   0.011583   -0.023089
 0.765000   0.011466   -0.023504
 0.770000   0.011348   -0.023693
 0.775000   0.011229   -0.023620
 0.780000   0.011111   -0.023300
 0.785000   0.010996   -0.022777
 0.790000   0.010884   -0.022070
 0.795000   0.010775   -0.021200
 0.800000   0.010672   -0.020174
 0.805000   0.010574   -0.019003
 0.810000   0.010482   -0.017814
 0.815000   0.010395   -0.016682
 0.820000   0.010315   -0.015591
 0.825000   0.010240   -0.014565
 0.830000   0.010169   -0.013621
 0.835000   0.010103   -0.012792
 0.840000   0.010041   -0.012118
 0.845000   0.009982   -0.011556
 0.850000   0.009926   -0.011032
 0.855000   0.009872   -0.010517
 0.860000   0.009821   -0.009997
 0.865000   0.009772   -0.009480
 0.870000   0.009726   -0.008986
 0.875000   0.009682   -0.008541
 0.880000   0.009640   -0.008160
 0.885000   0.009600   -0.007831
 0.890000   0.009562   -0.007543
 0.895000   0.009525   -0.007333
 0.900000   0.009489   -0.007182
 0.905000   0.009453   -0.007089
 0.910000   0.009418   -0.007127
 0.915000   0.009382   -0.007347
 0.920000   0.009344   -0.007868
 0.925000   0.009303   -0.009071
 0.930000   0.009254   -0.011376
 0.935000   0.009189   -0.015458
 0.940000   0.009099   -0.022594
 0.945000   0.008963   -0.034375
 0.950000   0.008755   -0.052472
 0.955000   0.008439   -0.078740
 0.960000   0.007968   -0.111851
 0.965000   0.007320   -0.146356
 0.970000   0.006504   -0.174987
 0.975000   0.005570   -0.189957
 0.980000   0.004605   -0.186915
 0.985000   0.003701   -0.167504
 0.990000   0.002930   -0.137956
 0.995000   0.002322   -0.106139
 1.000000   0.001868   -0.075215
201 psinorm vtor1(km/s) dvtor1/dpsiN
 0.000000   62.658885   326.363897
 0.005000   63.924277   179.792955
 0.010000   64.456815   93.589924
 0.015000   64.860177   73.474396
 0.020000   65.191559   61.459323
 0.025000   65.474770   53.276101
 0.030000   65.724320   46.993461
 0.035000   65.944704   41.226730
 0.040000   66.136587   35.924100
 0.045000   66.303945   31.117575
 0.050000   66.447763   26.442342
 0.055000   66.568369   21.818577
 0.060000   66.665949   17.406486
 0.065000   66.742434   13.308543
 0.070000   66.799034   9.471827
 0.075000   66.837152   5.863807
 0.080000   66.857672   2.484156
 0.085000   66.861994   -0.663851
 0.090000   66.851034   -3.643568
 0.095000   66.825558   -6.377083
 0.100000   66.787263   -8.773149
 0.105000   66.737826   -11.094283
 0.110000   66.676320   -13.485887
 0.115000   66.602968   -15.815139
 0.120000   66.518169   -18.040749
 0.125000   66.422560   -20.161269
 0.130000   66.316556   -22.100403
 0.135000   66.201556   -23.854853
 0.140000   66.078007   -25.577151
 0.145000   65.945785   -27.300384
 0.150000   65.805003   -28.978444
 0.155000   65.656000   -30.579502
 0.160000   65.499208   -32.079765
 0.165000   65.335202   -33.439825
 0.170000   65.164810   -34.694194
 0.175000   64.988260   -35.898473
 0.180000   64.805825   -37.059815
 0.185000   64.617662   -38.173196
 0.190000   64.424094   -39.234940
 0.195000   64.225313   -40.277021
 0.200000   64.021323   -41.286734
 0.205000   63.812446   -42.225989
 0.210000   63.599063   -43.096067
 0.215000   63.381485   -43.914483
 0.220000   63.159919   -44.676839
 0.225000   62.934717   -45.421947
 0.230000   62.705699   -46.206216
 0.235000   62.472654   -47.027837
 0.240000   62.235421   -47.863761
 0.245000   61.994017   -48.685347
 0.250000   61.748567   -49.484087
 0.255000   61.499176   -50.244905
 0.260000   61.246118   -50.847930
 0.265000   60.990697   -51.242879
 0.270000   60.733689   -51.470233
 0.275000   60.475994   -51.504554
 0.280000   60.218644   -51.335873
 0.285000   59.962636   -50.954587
 0.290000   59.709098   -50.317469
 0.295000   59.459461   -49.428214
 0.300000   59.214816   -48.330739
 0.305000   58.976153   -47.046705
 0.310000   58.744349   -45.592623
 0.315000   58.520227   -43.933301
 0.320000   58.305016   -42.144080
 0.325000   58.098786   -40.306647
 0.330000   57.901949   -38.400116
 0.335000   57.714785   -36.446944
 0.340000   57.537480   -34.460781
 0.345000   57.370177   -32.396042
 0.350000   57.213519   -30.289509
 0.355000   57.067282   -28.224133
 0.360000   56.931278   -26.190256
 0.365000   56.805380   -24.194008
 0.370000   56.689338   -22.256220
 0.375000   56.582818   -20.390827
 0.380000   56.485430   -18.611040
 0.385000   56.396707   -16.915351
 0.390000   56.316276   -15.292196
 0.395000   56.243785   -13.730730
 0.400000   56.178969   -12.209380
 0.405000   56.121691   -10.720132
 0.410000   56.071768   -9.245716
 0.415000   56.029234   -7.753810
 0.420000   55.994230   -6.255434
 0.425000   55.966680   -4.784979
 0.430000   55.946380   -3.358341
 0.435000   55.933097   -1.979047
 0.440000   55.926589   -0.675388
 0.445000   55.926343   0.502014
 0.450000   55.931609   1.535243
 0.455000   55.941695   2.427883
 0.460000   55.955888   3.182554
 0.465000   55.973521   3.794984
 0.470000   55.993838   4.260135
 0.475000   56.016122   4.589563
 0.480000   56.039734   4.758457
 0.485000   56.063707   4.699804
 0.490000   56.086732   4.338298
 0.495000   56.107090   3.574511
 0.500000   56.122477   2.286705
 0.505000   56.129957   0.392014
 0.510000   56.126397   -2.199157
 0.515000   56.107965   -5.605224
 0.520000   56.070345   -9.897324
 0.525000   56.008992   -15.104431
 0.530000   55.919300   -21.179266
 0.535000   55.797199   -27.972895
 0.540000   55.639572   -35.373342
 0.545000   55.443466   -43.358700
 0.550000   55.205985   -51.947405
 0.555000   54.923992   -61.230786
 0.560000   54.593677   -71.415015
 0.565000   54.209841   -82.671386
 0.570000   53.766963   -95.067955
 0.575000   53.259162   -108.686099
 0.580000   52.680102   -123.608892
 0.585000   52.023073   -139.923652
 0.590000   51.280865   -158.162942
 0.595000   50.441444   -177.886018
 0.600000   49.502005   -198.400792
 0.605000   48.457436   -219.770458
 0.610000   47.304301   -241.601659
 0.615000   46.041419   -263.376292
 0.620000   44.670538   -284.955981
 0.625000   43.191859   -304.229324
 0.630000   41.628244   -318.986256
 0.635000   40.001997   -328.898371
 0.640000   38.339261   -333.309682
 0.645000   36.668900   -331.862825
 0.650000   35.020632   -323.594556
 0.655000   33.432954   -309.249384
 0.660000   31.928139   -290.887919
 0.665000   30.524075   -269.370541
 0.670000   29.234433   -245.685085
 0.675000   28.067224   -220.938386
 0.680000   27.025049   -195.199622
 0.685000   26.115228   -170.377050
 0.690000   25.321279   -148.668183
 0.695000   24.628546   -129.605077
 0.700000   24.025228   -112.897997
 0.705000   23.499566   -98.472740
 0.710000   23.040501   -86.106918
 0.715000   22.638497   -75.810741
 0.720000   22.282393   -67.131533
 0.725000   21.967182   -59.099228
 0.730000   21.691401   -51.230800
 0.735000   21.454874   -43.362122
 0.740000   21.257780   -35.511326
 0.745000   21.099760   -27.770325
 0.750000   20.980077   -20.273078
 0.755000   20.897030   -13.208297
 0.760000   20.847994   -6.735927
 0.765000   20.829670   -0.972126
 0.770000   20.838272   4.005279
 0.775000   20.869723   8.155804
 0.780000   20.919830   11.450263
 0.785000   20.984226   13.844406
 0.790000   21.058274   15.278116
 0.795000   21.137007   15.678184
 0.800000   21.215056   14.963023
 0.805000   21.286637   13.036127
 0.810000   21.345417   9.791356
 0.815000   21.384551   5.161798
 0.820000   21.397035   -0.894927
 0.825000   21.375602   -8.432864
 0.830000   21.312707   -17.512590
 0.835000   21.200476   -28.216797
 0.840000   21.030539   -40.508335
 0.845000   20.795392   -54.301402
 0.850000   20.487525   -69.603359
 0.855000   20.099359   -86.467833
 0.860000   19.622847   -105.099704
 0.865000   19.048362   -126.138244
 0.870000   18.361464   -149.272660
 0.875000   17.555635   -173.784248
 0.880000   16.623622   -199.493208
 0.885000   15.560703   -225.791394
 0.890000   14.365708   -251.885319
 0.895000   13.041850   -277.607772
 0.900000   11.589630   -300.665638
 0.905000   10.035193   -318.835262
 0.910000   8.401277   -331.880461
 0.915000   6.716389   -338.631026
 0.920000   5.014967   -337.904592
 0.925000   3.337343   -329.365281
 0.930000   1.721314   -310.990976
 0.935000   0.227433   -281.131092
 0.940000   -1.089997   -240.620986
 0.945000   -2.178777   -190.281625
 0.950000   -2.992813   -131.894509
 0.955000   -3.497722   -68.363910
 0.960000   -3.676452   -3.566041
 0.965000   -3.533382   57.902450
 0.970000   -3.097428   111.581078
 0.975000   -2.417571   153.918094
 0.980000   -1.558247   182.439657
 0.985000   -0.593175   195.665144
 0.990000   0.398405   193.917373
 0.995000   1.345999   179.266008
 1.000000   2.191065   158.760438
201 psinorm vpol1(km/s) dvpol1/dpsiN
 0.000000   -0.000219   6.765625
 0.005000   0.036672   7.990625
 0.010000   0.079688   9.179688
 0.015000   0.128469   10.257812
 0.020000   0.182266   11.139063
 0.025000   0.239859   11.785938
 0.030000   0.300125   12.082813
 0.035000   0.360687   12.087500
 0.040000   0.421000   11.962500
 0.045000   0.480313   11.707813
 0.050000   0.538078   11.382812
 0.055000   0.594141   11.107813
 0.060000   0.649156   10.978125
 0.065000   0.703922   11.035937
 0.070000   0.759516   11.214062
 0.075000   0.816063   11.479687
 0.080000   0.874313   11.842187
 0.085000   0.934484   12.287500
 0.090000   0.997188   12.793750
 0.095000   1.062422   13.267188
 0.100000   1.129859   13.668750
 0.105000   1.199109   13.989062
 0.110000   1.269750   14.232813
 0.115000   1.341438   14.350000
 0.120000   1.413250   14.301562
 0.125000   1.484453   14.095312
 0.130000   1.554203   13.782813
 0.135000   1.622281   13.379687
 0.140000   1.688000   12.882813
 0.145000   1.751109   12.295313
 0.150000   1.810953   11.651563
 0.155000   1.867625   11.062500
 0.160000   1.921578   10.534375
 0.165000   1.972969   10.050000
 0.170000   2.022078   9.595313
 0.175000   2.068922   9.192187
 0.180000   2.114000   8.798438
 0.185000   2.156906   8.376563
 0.190000   2.197766   7.945312
 0.195000   2.236359   7.475000
 0.200000   2.272516   6.978125
 0.205000   2.306141   6.473438
 0.210000   2.337250   5.976563
 0.215000   2.365906   5.465625
 0.220000   2.391906   4.951562
 0.225000   2.415422   4.443750
 0.230000   2.436344   3.926562
 0.235000   2.454687   3.429688
 0.240000   2.470641   2.910938
 0.245000   2.483797   2.335938
 0.250000   2.494000   1.767187
 0.255000   2.501469   1.168750
 0.260000   2.505688   0.532813
 0.265000   2.506797   -0.081250
 0.270000   2.504875   -0.707813
 0.275000   2.499719   -1.328125
 0.280000   2.491594   -1.940625
 0.285000   2.480313   -2.554688
 0.290000   2.466047   -3.156250
 0.295000   2.448750   -3.753125
 0.300000   2.428516   -4.376562
 0.305000   2.404984   -5.050000
 0.310000   2.378016   -5.801562
 0.315000   2.346969   -6.654688
 0.320000   2.311469   -7.620313
 0.325000   2.270766   -8.706250
 0.330000   2.224406   -9.889063
 0.335000   2.171875   -11.140625
 0.340000   2.113000   -12.445312
 0.345000   2.047422   -13.767187
 0.350000   1.975328   -15.026563
 0.355000   1.897156   -16.139063
 0.360000   1.813937   -17.007812
 0.365000   1.727078   -17.650000
 0.370000   1.637438   -18.078125
 0.375000   1.546297   -18.268750
 0.380000   1.454750   -18.143750
 0.385000   1.364859   -17.842187
 0.390000   1.276328   -17.550000
 0.395000   1.189359   -17.260937
 0.400000   1.103719   -17.025000
 0.405000   1.019109   -16.901562
 0.410000   0.934703   -16.945312
 0.415000   0.849656   -17.139063
 0.420000   0.763313   -17.392188
 0.425000   0.675734   -17.675000
 0.430000   0.586562   -18.046875
 0.435000   0.495266   -18.706250
 0.440000   0.399500   -20.287500
 0.445000   0.292391   -22.946875
 0.450000   0.170031   -26.360937
 0.455000   0.028781   -30.467187
 0.460000   -0.134641   -35.104687
 0.465000   -0.322266   -40.232812
 0.470000   -0.536969   -45.654687
 0.475000   -0.778813   -50.243750
 0.480000   -1.039406   -53.409375
 0.485000   -1.312906   -55.226562
 0.490000   -1.591672   -55.485937
 0.495000   -1.867766   -54.006250
 0.500000   -2.131734   -50.626562
 0.505000   -2.374031   -45.837500
 0.510000   -2.590109   -40.370312
 0.515000   -2.777734   -34.650000
 0.520000   -2.936609   -29.043750
 0.525000   -3.068172   -23.629687
 0.530000   -3.172906   -18.828125
 0.535000   -3.256453   -15.150000
 0.540000   -3.324406   -12.445312
 0.545000   -3.380906   -10.515625
 0.550000   -3.429563   -9.259375
 0.555000   -3.473500   -8.546875
 0.560000   -3.515031   -8.134375
 0.565000   -3.554844   -7.775000
 0.570000   -3.592781   -7.420313
 0.575000   -3.629047   -7.057813
 0.580000   -3.663359   -6.654688
 0.585000   -3.695594   -6.256250
 0.590000   -3.725922   -5.835938
 0.595000   -3.753953   -5.365625
 0.600000   -3.779578   -4.898438
 0.605000   -3.802938   -4.425000
 0.610000   -3.823828   -3.960937
 0.615000   -3.842547   -3.520313
 0.620000   -3.859031   -3.103125
 0.625000   -3.873578   -2.732812
 0.630000   -3.886359   -2.403125
 0.635000   -3.897609   -2.115625
 0.640000   -3.907516   -1.864063
 0.645000   -3.916250   -1.662500
 0.650000   -3.924141   -1.506250
 0.655000   -3.931313   -1.381250
 0.660000   -3.937953   -1.284375
 0.665000   -3.944156   -1.218750
 0.670000   -3.950141   -1.171875
 0.675000   -3.955875   -1.146875
 0.680000   -3.961609   -1.146875
 0.685000   -3.967344   -1.154688
 0.690000   -3.973156   -1.185938
 0.695000   -3.979203   -1.245313
 0.700000   -3.985609   -1.318750
 0.705000   -3.992391   -1.421875
 0.710000   -3.999828   -1.564063
 0.715000   -4.008031   -1.721875
 0.720000   -4.017047   -1.917187
 0.725000   -4.027203   -2.148438
 0.730000   -4.038531   -2.395313
 0.735000   -4.051156   -2.690625
 0.740000   -4.065437   -2.992188
 0.745000   -4.081078   -3.287500
 0.750000   -4.098313   -3.590625
 0.755000   -4.116984   -3.900000
 0.760000   -4.137313   -4.178125
 0.765000   -4.158766   -4.376562
 0.770000   -4.181078   -4.581250
 0.775000   -4.204578   -4.759375
 0.780000   -4.228672   -4.915625
 0.785000   -4.253734   -5.134375
 0.790000   -4.280016   -5.526562
 0.795000   -4.309000   -6.185937
 0.800000   -4.341875   -7.089062
 0.805000   -4.379891   -8.215625
 0.810000   -4.424031   -9.532813
 0.815000   -4.475219   -10.993750
 0.820000   -4.533969   -12.582812
 0.825000   -4.601047   -14.006250
 0.830000   -4.674031   -14.946875
 0.835000   -4.750516   -15.403125
 0.840000   -4.828062   -15.321875
 0.845000   -4.903734   -14.595312
 0.850000   -4.974016   -13.240625
 0.855000   -5.036141   -11.489062
 0.860000   -5.088906   -9.587500
 0.865000   -5.132016   -7.664063
 0.870000   -5.165547   -5.793750
 0.875000   -5.189953   -4.037500
 0.880000   -5.205922   -2.412500
 0.885000   -5.214078   -0.898438
 0.890000   -5.214906   0.535938
 0.895000   -5.208719   1.998438
 0.900000   -5.194922   3.512500
 0.905000   -5.173594   5.054688
 0.910000   -5.144375   6.617188
 0.915000   -5.107422   8.050000
 0.920000   -5.063875   9.301562
 0.925000   -5.014406   10.383594
 0.930000   -4.960039   11.347656
 0.935000   -4.900930   12.500781
 0.940000   -4.835031   13.864062
 0.945000   -4.762289   14.402344
 0.950000   -4.691008   12.135156
 0.955000   -4.640937   4.145312
 0.960000   -4.649555   -12.874219
 0.965000   -4.769680   -39.996875
 0.970000   -5.049523   -62.934375
 0.975000   -5.399023   -37.435938
 0.980000   -5.423883   102.171094
 0.985000   -4.377313   388.316406
 0.990000   -1.540719   727.087500
 0.995000   2.893563   874.739844
 1.000000   7.206680   850.507031
3 N Z A of ION SPECIES
 6.000000   6.000000   12.010700
 1.000000   1.000000   2.000000
 1.000000   1.000000   2.000000
