201 psinorm ne(10^20/m^3) dne/dpsiN
 0.000000   0.500235   -0.447347
 0.005000   0.498007   -0.443959
 0.010000   0.495796   -0.440584
 0.015000   0.493601   -0.437236
 0.020000   0.491423   -0.433915
 0.025000   0.489262   -0.430622
 0.030000   0.487117   -0.427355
 0.035000   0.484989   -0.424114
 0.040000   0.482876   -0.420900
 0.045000   0.480780   -0.417711
 0.050000   0.478699   -0.414548
 0.055000   0.476634   -0.411410
 0.060000   0.474585   -0.408298
 0.065000   0.472551   -0.405210
 0.070000   0.470533   -0.402147
 0.075000   0.468530   -0.399109
 0.080000   0.466542   -0.396094
 0.085000   0.464569   -0.393104
 0.090000   0.462611   -0.390137
 0.095000   0.460667   -0.387194
 0.100000   0.458739   -0.384274
 0.105000   0.456825   -0.381377
 0.110000   0.454925   -0.378503
 0.115000   0.453040   -0.375652
 0.120000   0.451168   -0.372823
 0.125000   0.449311   -0.370016
 0.130000   0.447468   -0.367232
 0.135000   0.445639   -0.364469
 0.140000   0.443824   -0.361727
 0.145000   0.442022   -0.359007
 0.150000   0.440233   -0.356308
 0.155000   0.438459   -0.353631
 0.160000   0.436697   -0.350973
 0.165000   0.434949   -0.348337
 0.170000   0.433214   -0.345721
 0.175000   0.431492   -0.343125
 0.180000   0.429783   -0.340549
 0.185000   0.428086   -0.337993
 0.190000   0.426403   -0.335456
 0.195000   0.424732   -0.332939
 0.200000   0.423073   -0.330441
 0.205000   0.421427   -0.327962
 0.210000   0.419794   -0.325502
 0.215000   0.418172   -0.323061
 0.220000   0.416563   -0.320639
 0.225000   0.414966   -0.318234
 0.230000   0.413381   -0.315848
 0.235000   0.411807   -0.313480
 0.240000   0.410246   -0.311130
 0.245000   0.408696   -0.308797
 0.250000   0.407158   -0.306482
 0.255000   0.405631   -0.304185
 0.260000   0.404116   -0.301904
 0.265000   0.402612   -0.299641
 0.270000   0.401120   -0.297394
 0.275000   0.399638   -0.295165
 0.280000   0.398168   -0.292951
 0.285000   0.396709   -0.290755
 0.290000   0.395260   -0.288574
 0.295000   0.393823   -0.286410
 0.300000   0.392396   -0.284261
 0.305000   0.390980   -0.282128
 0.310000   0.389575   -0.280011
 0.315000   0.388180   -0.277910
 0.320000   0.386796   -0.275823
 0.325000   0.385422   -0.273752
 0.330000   0.384058   -0.271696
 0.335000   0.382705   -0.269656
 0.340000   0.381362   -0.267629
 0.345000   0.380029   -0.265618
 0.350000   0.378706   -0.263621
 0.355000   0.377393   -0.261638
 0.360000   0.376089   -0.259670
 0.365000   0.374796   -0.257716
 0.370000   0.373512   -0.255775
 0.375000   0.372238   -0.253849
 0.380000   0.370974   -0.251936
 0.385000   0.369719   -0.250037
 0.390000   0.368473   -0.248152
 0.395000   0.367237   -0.246280
 0.400000   0.366011   -0.244421
 0.405000   0.364793   -0.242575
 0.410000   0.363585   -0.240742
 0.415000   0.362386   -0.238922
 0.420000   0.361196   -0.237115
 0.425000   0.360014   -0.235320
 0.430000   0.358842   -0.233538
 0.435000   0.357679   -0.231768
 0.440000   0.356525   -0.230011
 0.445000   0.355379   -0.228265
 0.450000   0.354242   -0.226532
 0.455000   0.353114   -0.224811
 0.460000   0.351994   -0.223101
 0.465000   0.350883   -0.221403
 0.470000   0.349780   -0.219717
 0.475000   0.348685   -0.218043
 0.480000   0.347599   -0.216379
 0.485000   0.346522   -0.214727
 0.490000   0.345452   -0.213086
 0.495000   0.344391   -0.211457
 0.500000   0.343338   -0.209838
 0.505000   0.342292   -0.208230
 0.510000   0.341255   -0.206633
 0.515000   0.340226   -0.205046
 0.520000   0.339205   -0.203471
 0.525000   0.338191   -0.201905
 0.530000   0.337186   -0.200350
 0.535000   0.336188   -0.198805
 0.540000   0.335198   -0.197271
 0.545000   0.334215   -0.195746
 0.550000   0.333240   -0.194232
 0.555000   0.332273   -0.192727
 0.560000   0.331313   -0.191232
 0.565000   0.330361   -0.189747
 0.570000   0.329416   -0.188272
 0.575000   0.328478   -0.186806
 0.580000   0.327547   -0.185349
 0.585000   0.326624   -0.183902
 0.590000   0.325708   -0.182464
 0.595000   0.324800   -0.181036
 0.600000   0.323898   -0.179616
 0.605000   0.323004   -0.178205
 0.610000   0.322116   -0.176804
 0.615000   0.321236   -0.175411
 0.620000   0.320362   -0.174027
 0.625000   0.319495   -0.172652
 0.630000   0.318635   -0.171285
 0.635000   0.317782   -0.169926
 0.640000   0.316936   -0.168577
 0.645000   0.316097   -0.167235
 0.650000   0.315264   -0.165902
 0.655000   0.314438   -0.164577
 0.660000   0.313618   -0.163260
 0.665000   0.312805   -0.161951
 0.670000   0.311999   -0.160650
 0.675000   0.311199   -0.159357
 0.680000   0.310405   -0.158072
 0.685000   0.309618   -0.156794
 0.690000   0.308837   -0.155525
 0.695000   0.308063   -0.154262
 0.700000   0.307294   -0.153008
 0.705000   0.306532   -0.151760
 0.710000   0.305777   -0.150521
 0.715000   0.305027   -0.149288
 0.720000   0.304284   -0.148063
 0.725000   0.303547   -0.146844
 0.730000   0.302815   -0.145633
 0.735000   0.302090   -0.144429
 0.740000   0.301371   -0.143232
 0.745000   0.300658   -0.142042
 0.750000   0.299951   -0.140859
 0.755000   0.299249   -0.139682
 0.760000   0.298554   -0.138512
 0.765000   0.297864   -0.137349
 0.770000   0.297180   -0.136192
 0.775000   0.296502   -0.135042
 0.780000   0.295830   -0.133898
 0.785000   0.295163   -0.132761
 0.790000   0.294502   -0.131630
 0.795000   0.293847   -0.130505
 0.800000   0.293197   -0.129386
 0.805000   0.292553   -0.128273
 0.810000   0.291915   -0.127167
 0.815000   0.291282   -0.126066
 0.820000   0.290654   -0.124972
 0.825000   0.290032   -0.123883
 0.830000   0.289415   -0.122800
 0.835000   0.288804   -0.121723
 0.840000   0.288198   -0.120652
 0.845000   0.287597   -0.119586
 0.850000   0.287002   -0.118526
 0.855000   0.286412   -0.117472
 0.860000   0.285827   -0.116422
 0.865000   0.285248   -0.115379
 0.870000   0.284674   -0.114341
 0.875000   0.284104   -0.113308
 0.880000   0.283540   -0.112280
 0.885000   0.282982   -0.111257
 0.890000   0.282428   -0.110240
 0.895000   0.281879   -0.109227
 0.900000   0.281336   -0.108219
 0.905000   0.280797   -0.107217
 0.910000   0.280263   -0.106223
 0.915000   0.279735   -0.105252
 0.920000   0.279211   -0.104353
 0.925000   0.278691   -0.103688
 0.930000   0.278174   -0.103783
 0.935000   0.277653   -0.106275
 0.940000   0.277111   -0.116158
 0.945000   0.276492   -0.148358
 0.950000   0.275628   -0.246280
 0.955000   0.274029   -0.529638
 0.960000   0.270331   -1.288366
 0.965000   0.261145   -3.005167
 0.970000   0.240280   -5.709380
 0.975000   0.204052   -7.721607
 0.980000   0.163064   -7.116064
 0.985000   0.132891   -4.773454
 0.990000   0.115329   -2.782909
 0.995000   0.105062   -1.717735
 1.000000   0.098152   -1.046338
201 psinorm te(KeV) dte/dpsiN
 0.000000   4.363156   -5.503820
 0.005000   4.335686   -5.483950
 0.010000   4.308316   -5.464050
 0.015000   4.281046   -5.444089
 0.020000   4.253875   -5.424069
 0.025000   4.226805   -5.403992
 0.030000   4.199835   -5.383859
 0.035000   4.172967   -5.363671
 0.040000   4.146199   -5.343430
 0.045000   4.119532   -5.323137
 0.050000   4.092967   -5.302793
 0.055000   4.066504   -5.282400
 0.060000   4.040143   -5.261959
 0.065000   4.013885   -5.241472
 0.070000   3.987729   -5.220939
 0.075000   3.961675   -5.200363
 0.080000   3.935725   -5.179744
 0.085000   3.909878   -5.159085
 0.090000   3.884134   -5.138385
 0.095000   3.858494   -5.117647
 0.100000   3.832958   -5.096871
 0.105000   3.807525   -5.076060
 0.110000   3.782197   -5.055214
 0.115000   3.756973   -5.034335
 0.120000   3.731854   -5.013424
 0.125000   3.706839   -4.992483
 0.130000   3.681929   -4.971511
 0.135000   3.657124   -4.950512
 0.140000   3.632424   -4.929486
 0.145000   3.607829   -4.908434
 0.150000   3.583339   -4.887358
 0.155000   3.558955   -4.866258
 0.160000   3.534677   -4.845137
 0.165000   3.510504   -4.823995
 0.170000   3.486437   -4.802834
 0.175000   3.462476   -4.781654
 0.180000   3.438620   -4.760457
 0.185000   3.414871   -4.739244
 0.190000   3.391228   -4.718017
 0.195000   3.367691   -4.696776
 0.200000   3.344260   -4.675523
 0.205000   3.320936   -4.654259
 0.210000   3.297718   -4.632985
 0.215000   3.274606   -4.611702
 0.220000   3.251601   -4.590412
 0.225000   3.228702   -4.569115
 0.230000   3.205909   -4.547812
 0.235000   3.183224   -4.526505
 0.240000   3.160644   -4.505196
 0.245000   3.138172   -4.483884
 0.250000   3.115806   -4.462571
 0.255000   3.093546   -4.441258
 0.260000   3.071393   -4.419947
 0.265000   3.049346   -4.398638
 0.270000   3.027407   -4.377332
 0.275000   3.005573   -4.356031
 0.280000   2.983846   -4.334736
 0.285000   2.962226   -4.313447
 0.290000   2.940712   -4.292165
 0.295000   2.919304   -4.270893
 0.300000   2.898003   -4.249630
 0.305000   2.876808   -4.228377
 0.310000   2.855719   -4.207136
 0.315000   2.834736   -4.185908
 0.320000   2.813860   -4.164694
 0.325000   2.793090   -4.143494
 0.330000   2.772425   -4.122310
 0.335000   2.751866   -4.101143
 0.340000   2.731414   -4.079993
 0.345000   2.711067   -4.058862
 0.350000   2.690825   -4.037750
 0.355000   2.670689   -4.016658
 0.360000   2.650658   -3.995588
 0.365000   2.630733   -3.974540
 0.370000   2.610913   -3.953515
 0.375000   2.591198   -3.932515
 0.380000   2.571588   -3.911539
 0.385000   2.552083   -3.890589
 0.390000   2.532682   -3.869665
 0.395000   2.513386   -3.848769
 0.400000   2.494194   -3.827902
 0.405000   2.475107   -3.807064
 0.410000   2.456124   -3.786256
 0.415000   2.437244   -3.765478
 0.420000   2.418469   -3.744733
 0.425000   2.399797   -3.724020
 0.430000   2.381229   -3.703340
 0.435000   2.362764   -3.682695
 0.440000   2.344402   -3.662085
 0.445000   2.326143   -3.641510
 0.450000   2.307987   -3.620972
 0.455000   2.289933   -3.600471
 0.460000   2.271982   -3.580008
 0.465000   2.254133   -3.559584
 0.470000   2.236386   -3.539199
 0.475000   2.218741   -3.518855
 0.480000   2.201198   -3.498551
 0.485000   2.183755   -3.478289
 0.490000   2.166415   -3.458070
 0.495000   2.149175   -3.437893
 0.500000   2.132036   -3.417761
 0.505000   2.114997   -3.397673
 0.510000   2.098059   -3.377630
 0.515000   2.081221   -3.357632
 0.520000   2.064483   -3.337681
 0.525000   2.047844   -3.317778
 0.530000   2.031305   -3.297921
 0.535000   2.014865   -3.278114
 0.540000   1.998524   -3.258355
 0.545000   1.982281   -3.238645
 0.550000   1.966137   -3.218986
 0.555000   1.950091   -3.199378
 0.560000   1.934144   -3.179821
 0.565000   1.918293   -3.160316
 0.570000   1.902540   -3.140863
 0.575000   1.886885   -3.121463
 0.580000   1.871326   -3.102117
 0.585000   1.855863   -3.082826
 0.590000   1.840497   -3.063588
 0.595000   1.825228   -3.044407
 0.600000   1.810053   -3.025280
 0.605000   1.794975   -3.006210
 0.610000   1.779991   -2.987197
 0.615000   1.765103   -2.968241
 0.620000   1.750309   -2.949343
 0.625000   1.735609   -2.930503
 0.630000   1.721004   -2.911722
 0.635000   1.706492   -2.893000
 0.640000   1.692074   -2.874337
 0.645000   1.677749   -2.855735
 0.650000   1.663517   -2.837193
 0.655000   1.649377   -2.818712
 0.660000   1.635329   -2.800292
 0.665000   1.621374   -2.781934
 0.670000   1.607510   -2.763638
 0.675000   1.593738   -2.745405
 0.680000   1.580056   -2.727235
 0.685000   1.566465   -2.709129
 0.690000   1.552965   -2.691086
 0.695000   1.539554   -2.673107
 0.700000   1.526234   -2.655192
 0.705000   1.513002   -2.637343
 0.710000   1.499860   -2.619558
 0.715000   1.486807   -2.601839
 0.720000   1.473842   -2.584186
 0.725000   1.460965   -2.566600
 0.730000   1.448176   -2.549079
 0.735000   1.435474   -2.531626
 0.740000   1.422860   -2.514240
 0.745000   1.410332   -2.496921
 0.750000   1.397890   -2.479669
 0.755000   1.385535   -2.462486
 0.760000   1.373266   -2.445371
 0.765000   1.361081   -2.428325
 0.770000   1.348982   -2.411347
 0.775000   1.336968   -2.394439
 0.780000   1.325038   -2.377599
 0.785000   1.313192   -2.360829
 0.790000   1.301430   -2.344129
 0.795000   1.289751   -2.327499
 0.800000   1.278155   -2.310939
 0.805000   1.266641   -2.294450
 0.810000   1.255210   -2.278031
 0.815000   1.243861   -2.261682
 0.820000   1.232593   -2.245404
 0.825000   1.221407   -2.229196
 0.830000   1.210301   -2.213057
 0.835000   1.199276   -2.196988
 0.840000   1.188331   -2.180987
 0.845000   1.177466   -2.165051
 0.850000   1.166681   -2.149177
 0.855000   1.155975   -2.133360
 0.860000   1.145347   -2.117591
 0.865000   1.134799   -2.101858
 0.870000   1.124329   -2.086143
 0.875000   1.113937   -2.070424
 0.880000   1.103625   -2.054671
 0.885000   1.093391   -2.038857
 0.890000   1.083236   -2.022972
 0.895000   1.073161   -2.007063
 0.900000   1.063165   -1.991333
 0.905000   1.053248   -1.976342
 0.910000   1.043402   -1.963437
 0.915000   1.033613   -1.955609
 0.920000   1.023846   -1.959224
 0.925000   1.014021   -1.987386
 0.930000   1.003972   -2.066416
 0.935000   0.993357   -2.247985
 0.940000   0.981492   -2.630983
 0.945000   0.967047   -3.397990
 0.950000   0.947512   -4.866338
 0.955000   0.918384   -7.526589
 0.960000   0.872246   -11.956765
 0.965000   0.798816   -18.353849
 0.970000   0.688708   -25.509672
 0.975000   0.543719   -30.167996
 0.980000   0.387028   -29.015323
 0.985000   0.253566   -22.441597
 0.990000   0.162612   -14.423395
 0.995000   0.109332   -8.267497
 1.000000   0.079937   -3.490554
201 psinorm ni(10^20/m^3) dni/dpsiN
 0.000000   0.304652   -0.529314
 0.005000   0.302272   -0.422739
 0.010000   0.300425   -0.336153
 0.015000   0.298911   -0.275194
 0.020000   0.297673   -0.224267
 0.025000   0.296668   -0.181465
 0.030000   0.295858   -0.145919
 0.035000   0.295209   -0.115960
 0.040000   0.294699   -0.090210
 0.045000   0.294307   -0.068759
 0.050000   0.294011   -0.050665
 0.055000   0.293800   -0.035844
 0.060000   0.293653   -0.024342
 0.065000   0.293557   -0.015413
 0.070000   0.293499   -0.008779
 0.075000   0.293469   -0.004058
 0.080000   0.293458   -0.001160
 0.085000   0.293457   0.000032
 0.090000   0.293458   -0.000087
 0.095000   0.293456   -0.001255
 0.100000   0.293446   -0.003508
 0.105000   0.293421   -0.007154
 0.110000   0.293374   -0.011542
 0.115000   0.293306   -0.016088
 0.120000   0.293213   -0.021171
 0.125000   0.293094   -0.026705
 0.130000   0.292946   -0.032615
 0.135000   0.292768   -0.038823
 0.140000   0.292558   -0.045181
 0.145000   0.292316   -0.051679
 0.150000   0.292041   -0.058322
 0.155000   0.291733   -0.065003
 0.160000   0.291391   -0.071652
 0.165000   0.291016   -0.078231
 0.170000   0.290609   -0.084690
 0.175000   0.290169   -0.090990
 0.180000   0.289699   -0.097096
 0.185000   0.289199   -0.103002
 0.190000   0.288669   -0.108712
 0.195000   0.288111   -0.114196
 0.200000   0.287527   -0.119432
 0.205000   0.286917   -0.124423
 0.210000   0.286283   -0.129651
 0.215000   0.285621   -0.134667
 0.220000   0.284936   -0.138913
 0.225000   0.284231   -0.142827
 0.230000   0.283508   -0.146461
 0.235000   0.282767   -0.149809
 0.240000   0.282010   -0.152892
 0.245000   0.281238   -0.156051
 0.250000   0.280449   -0.159214
 0.255000   0.279646   -0.161789
 0.260000   0.278831   -0.163882
 0.265000   0.278007   -0.165796
 0.270000   0.277173   -0.167537
 0.275000   0.276332   -0.169443
 0.280000   0.275479   -0.171335
 0.285000   0.274618   -0.172732
 0.290000   0.273752   -0.173846
 0.295000   0.272880   -0.174865
 0.300000   0.272003   -0.175980
 0.305000   0.271120   -0.177211
 0.310000   0.270231   -0.178127
 0.315000   0.269339   -0.178729
 0.320000   0.268444   -0.179263
 0.325000   0.267546   -0.179910
 0.330000   0.266644   -0.180604
 0.335000   0.265740   -0.180996
 0.340000   0.264835   -0.181163
 0.345000   0.263928   -0.181267
 0.350000   0.263022   -0.181559
 0.355000   0.262113   -0.181782
 0.360000   0.261204   -0.181711
 0.365000   0.260296   -0.181635
 0.370000   0.259388   -0.181670
 0.375000   0.258479   -0.181765
 0.380000   0.257570   -0.181725
 0.385000   0.256662   -0.181604
 0.390000   0.255754   -0.181518
 0.395000   0.254847   -0.181524
 0.400000   0.253939   -0.181474
 0.405000   0.253032   -0.181306
 0.410000   0.252126   -0.181135
 0.415000   0.251220   -0.181061
 0.420000   0.250315   -0.180949
 0.425000   0.249411   -0.180687
 0.430000   0.248508   -0.180396
 0.435000   0.247607   -0.180181
 0.440000   0.246706   -0.179936
 0.445000   0.245808   -0.179542
 0.450000   0.244911   -0.179102
 0.455000   0.244017   -0.178710
 0.460000   0.243124   -0.178295
 0.465000   0.242234   -0.177745
 0.470000   0.241346   -0.177127
 0.475000   0.240462   -0.176522
 0.480000   0.239581   -0.175877
 0.485000   0.238704   -0.175092
 0.490000   0.237830   -0.174203
 0.495000   0.236962   -0.173288
 0.500000   0.236097   -0.172317
 0.505000   0.235238   -0.171199
 0.510000   0.234385   -0.169953
 0.515000   0.233539   -0.168650
 0.520000   0.232699   -0.167284
 0.525000   0.231866   -0.165779
 0.530000   0.231041   -0.164134
 0.535000   0.230225   -0.162405
 0.540000   0.229417   -0.160607
 0.545000   0.228619   -0.158671
 0.550000   0.227830   -0.156578
 0.555000   0.227053   -0.154383
 0.560000   0.226287   -0.152116
 0.565000   0.225532   -0.149716
 0.570000   0.224789   -0.147146
 0.575000   0.224060   -0.144457
 0.580000   0.223345   -0.141682
 0.585000   0.222643   -0.138782
 0.590000   0.221957   -0.135723
 0.595000   0.221286   -0.132552
 0.600000   0.220631   -0.129286
 0.605000   0.219993   -0.125922
 0.610000   0.219372   -0.122442
 0.615000   0.218769   -0.118851
 0.620000   0.218184   -0.115139
 0.625000   0.217618   -0.111283
 0.630000   0.217071   -0.107267
 0.635000   0.216545   -0.103090
 0.640000   0.216040   -0.098756
 0.645000   0.215557   -0.094257
 0.650000   0.215097   -0.089560
 0.655000   0.214662   -0.084718
 0.660000   0.214250   -0.079810
 0.665000   0.213864   -0.074822
 0.670000   0.213502   -0.069693
 0.675000   0.213167   -0.064356
 0.680000   0.212858   -0.058548
 0.685000   0.212581   -0.052104
 0.690000   0.212337   -0.045155
 0.695000   0.212130   -0.037709
 0.700000   0.211960   -0.029810
 0.705000   0.211832   -0.021567
 0.710000   0.211745   -0.012840
 0.715000   0.211703   -0.003866
 0.720000   0.211706   0.004867
 0.725000   0.211752   0.013227
 0.730000   0.211838   0.021094
 0.735000   0.211963   0.028278
 0.740000   0.212121   0.034573
 0.745000   0.212308   0.039619
 0.750000   0.212517   0.043172
 0.755000   0.212740   0.045272
 0.760000   0.212970   0.045985
 0.765000   0.213200   0.045428
 0.770000   0.213424   0.043613
 0.775000   0.213636   0.040734
 0.780000   0.213832   0.037467
 0.785000   0.214011   0.034117
 0.790000   0.214173   0.030650
 0.795000   0.214317   0.027220
 0.800000   0.214445   0.023916
 0.805000   0.214556   0.020926
 0.810000   0.214654   0.018430
 0.815000   0.214741   0.016172
 0.820000   0.214816   0.013795
 0.825000   0.214879   0.011156
 0.830000   0.214928   0.008190
 0.835000   0.214961   0.004874
 0.840000   0.214976   0.001380
 0.845000   0.214974   -0.002150
 0.850000   0.214955   -0.005715
 0.855000   0.214917   -0.009241
 0.860000   0.214862   -0.012671
 0.865000   0.214791   -0.015889
 0.870000   0.214703   -0.018645
 0.875000   0.214604   -0.020913
 0.880000   0.214494   -0.022837
 0.885000   0.214376   -0.024461
 0.890000   0.214250   -0.025788
 0.895000   0.214118   -0.026478
 0.900000   0.213985   -0.026673
 0.905000   0.213851   -0.026637
 0.910000   0.213719   -0.026054
 0.915000   0.213591   -0.024531
 0.920000   0.213473   -0.021403
 0.925000   0.213377   -0.014760
 0.930000   0.213326   -0.003741
 0.935000   0.213339   0.012216
 0.940000   0.213448   0.034273
 0.945000   0.213682   0.056606
 0.950000   0.214014   0.048032
 0.955000   0.214162   -0.093068
 0.960000   0.213083   -0.652259
 0.965000   0.207640   -2.131322
 0.970000   0.191770   -4.597566
 0.975000   0.161664   -6.430565
 0.980000   0.127464   -5.760276
 0.985000   0.104061   -3.486913
 0.990000   0.092595   -1.676773
 0.995000   0.087293   -0.845311
 1.000000   0.084142   -0.415227
201 psinorm ti(KeV) dti/dpsiN
 0.000000   5.494323   0.003549
 0.005000   5.493544   -0.315348
 0.010000   5.491170   -0.639396
 0.015000   5.487150   -0.973288
 0.020000   5.481437   -1.316031
 0.025000   5.473990   -1.666451
 0.030000   5.464773   -2.023184
 0.035000   5.453758   -2.384694
 0.040000   5.440926   -2.748715
 0.045000   5.426271   -3.113606
 0.050000   5.409790   -3.478189
 0.055000   5.391489   -3.840664
 0.060000   5.371383   -4.199604
 0.065000   5.349493   -4.553950
 0.070000   5.325843   -4.902116
 0.075000   5.300472   -5.243899
 0.080000   5.273404   -5.578995
 0.085000   5.244682   -5.905388
 0.090000   5.214350   -6.221880
 0.095000   5.182463   -6.527706
 0.100000   5.149073   -6.821236
 0.105000   5.114250   -7.102815
 0.110000   5.078045   -7.373898
 0.115000   5.040511   -7.633687
 0.120000   5.001708   -7.881314
 0.125000   4.961698   -8.116074
 0.130000   4.920548   -8.336103
 0.135000   4.878337   -8.540555
 0.140000   4.835142   -8.730507
 0.145000   4.791032   -8.905981
 0.150000   4.746082   -9.066598
 0.155000   4.700366   -9.212583
 0.160000   4.653956   -9.343690
 0.165000   4.606929   -9.459907
 0.170000   4.559357   -9.561844
 0.175000   4.511311   -9.649293
 0.180000   4.462864   -9.721971
 0.185000   4.414091   -9.780320
 0.190000   4.365061   -9.824886
 0.195000   4.315842   -9.858150
 0.200000   4.266480   -9.883776
 0.205000   4.217005   -9.903187
 0.210000   4.167448   -9.916630
 0.215000   4.117838   -9.924530
 0.220000   4.068203   -9.928348
 0.225000   4.018555   -9.930816
 0.230000   3.968894   -9.927070
 0.235000   3.919284   -9.912868
 0.240000   3.869766   -9.889175
 0.245000   3.820392   -9.853708
 0.250000   3.771229   -9.804526
 0.255000   3.722347   -9.740306
 0.260000   3.673826   -9.656242
 0.265000   3.625785   -9.551733
 0.270000   3.578308   -9.430542
 0.275000   3.531479   -9.293080
 0.280000   3.485377   -9.139775
 0.285000   3.440081   -8.968075
 0.290000   3.395697   -8.781279
 0.295000   3.352269   -8.585114
 0.300000   3.309846   -8.381226
 0.305000   3.268456   -8.173735
 0.310000   3.228108   -7.967169
 0.315000   3.188785   -7.765623
 0.320000   3.150452   -7.575160
 0.325000   3.113033   -7.396622
 0.330000   3.076486   -7.226297
 0.335000   3.040770   -7.063642
 0.340000   3.005849   -6.907953
 0.345000   2.971691   -6.763860
 0.350000   2.938211   -6.626585
 0.355000   2.905425   -6.487760
 0.360000   2.873333   -6.348896
 0.365000   2.841936   -6.209186
 0.370000   2.811241   -6.066685
 0.375000   2.781269   -5.920908
 0.380000   2.752032   -5.762032
 0.385000   2.723649   -5.583795
 0.390000   2.696194   -5.392584
 0.395000   2.669723   -5.191721
 0.400000   2.644277   -4.983433
 0.405000   2.619889   -4.765521
 0.410000   2.596622   -4.541289
 0.415000   2.574476   -4.321592
 0.420000   2.553406   -4.110178
 0.425000   2.533374   -3.907496
 0.430000   2.514331   -3.715048
 0.435000   2.496223   -3.530315
 0.440000   2.479028   -3.355798
 0.445000   2.462665   -3.198790
 0.450000   2.447040   -3.058168
 0.455000   2.432084   -2.931162
 0.460000   2.417728   -2.817775
 0.465000   2.403906   -2.717586
 0.470000   2.390552   -2.632142
 0.475000   2.377585   -2.562066
 0.480000   2.364932   -2.503647
 0.485000   2.352548   -2.453130
 0.490000   2.340401   -2.407984
 0.495000   2.328468   -2.366271
 0.500000   2.316738   -2.326803
 0.505000   2.305200   -2.289983
 0.510000   2.293838   -2.257345
 0.515000   2.282627   -2.229684
 0.520000   2.271541   -2.207078
 0.525000   2.260556   -2.189526
 0.530000   2.249646   -2.177092
 0.535000   2.238785   -2.169203
 0.540000   2.227954   -2.165338
 0.545000   2.217132   -2.165480
 0.550000   2.206299   -2.169372
 0.555000   2.195438   -2.176810
 0.560000   2.184531   -2.187767
 0.565000   2.173560   -2.201400
 0.570000   2.162517   -2.217065
 0.575000   2.151390   -2.234835
 0.580000   2.140169   -2.254367
 0.585000   2.128846   -2.275299
 0.590000   2.117416   -2.297302
 0.595000   2.105873   -2.320247
 0.600000   2.094213   -2.344378
 0.605000   2.082429   -2.369853
 0.610000   2.070515   -2.396498
 0.615000   2.058464   -2.424067
 0.620000   2.046274   -2.452756
 0.625000   2.033937   -2.481902
 0.630000   2.021455   -2.510616
 0.635000   2.008830   -2.538862
 0.640000   1.996066   -2.566318
 0.645000   1.983167   -2.592647
 0.650000   1.970140   -2.618231
 0.655000   1.956985   -2.643184
 0.660000   1.943708   -2.667555
 0.665000   1.930309   -2.691846
 0.670000   1.916790   -2.715945
 0.675000   1.903150   -2.739491
 0.680000   1.889395   -2.762997
 0.685000   1.875520   -2.783384
 0.690000   1.861561   -2.796830
 0.695000   1.847552   -2.804032
 0.700000   1.833520   -2.805942
 0.705000   1.819492   -2.803057
 0.710000   1.805490   -2.795577
 0.715000   1.791536   -2.783300
 0.720000   1.777657   -2.766500
 0.725000   1.763871   -2.745743
 0.730000   1.750199   -2.721324
 0.735000   1.736658   -2.693633
 0.740000   1.723263   -2.662911
 0.745000   1.710029   -2.631389
 0.750000   1.696949   -2.602418
 0.755000   1.684005   -2.576891
 0.760000   1.671180   -2.554634
 0.765000   1.658459   -2.535632
 0.770000   1.645824   -2.520437
 0.775000   1.633254   -2.507727
 0.780000   1.620747   -2.492902
 0.785000   1.608325   -2.474418
 0.790000   1.596003   -2.453473
 0.795000   1.583790   -2.430419
 0.800000   1.571698   -2.405859
 0.805000   1.559732   -2.381431
 0.810000   1.547884   -2.360039
 0.815000   1.536132   -2.343562
 0.820000   1.524448   -2.332436
 0.825000   1.512807   -2.326923
 0.830000   1.501179   -2.327406
 0.835000   1.489533   -2.334264
 0.840000   1.477837   -2.346823
 0.845000   1.466065   -2.367086
 0.850000   1.454166   -2.399158
 0.855000   1.442073   -2.445370
 0.860000   1.429712   -2.508052
 0.865000   1.416993   -2.593693
 0.870000   1.403775   -2.697231
 0.875000   1.390020   -2.813374
 0.880000   1.375641   -2.947498
 0.885000   1.360545   -3.100711
 0.890000   1.344634   -3.274862
 0.895000   1.327797   -3.488013
 0.900000   1.309754   -3.740656
 0.905000   1.290390   -4.030747
 0.910000   1.269447   -4.375675
 0.915000   1.246634   -4.780657
 0.920000   1.221640   -5.248679
 0.925000   1.194147   -5.818333
 0.930000   1.163457   -6.458981
 0.935000   1.129557   -7.118285
 0.940000   1.092274   -7.804552
 0.945000   1.051511   -8.496643
 0.950000   1.007307   -9.165539
 0.955000   0.959856   -9.817444
 0.960000   0.909133   -10.393440
 0.965000   0.855922   -10.814881
 0.970000   0.800984   -11.074832
 0.975000   0.745173   -11.152252
 0.980000   0.689462   -11.030233
 0.985000   0.634871   -10.714958
 0.990000   0.582312   -10.199311
 0.995000   0.532878   -9.502259
 1.000000   0.487290   -8.733095
201 psinorm nb(10^20/m^3) dnb/dpsiN
 0.000000   0.104300   0.081964
 0.005000   0.104452   -0.021076
 0.010000   0.104089   -0.104136
 0.015000   0.103411   -0.161590
 0.020000   0.102473   -0.209031
 0.025000   0.101320   -0.248365
 0.030000   0.099990   -0.280460
 0.035000   0.098516   -0.306984
 0.040000   0.096920   -0.329315
 0.045000   0.095223   -0.347364
 0.050000   0.093446   -0.362068
 0.055000   0.091602   -0.373514
 0.060000   0.089711   -0.381653
 0.065000   0.087785   -0.387230
 0.070000   0.085839   -0.390523
 0.075000   0.083880   -0.391911
 0.080000   0.081920   -0.391481
 0.085000   0.079965   -0.389351
 0.090000   0.078026   -0.385914
 0.095000   0.076106   -0.381434
 0.100000   0.074212   -0.375873
 0.105000   0.072348   -0.368924
 0.110000   0.070522   -0.361239
 0.115000   0.068735   -0.353402
 0.120000   0.066988   -0.345037
 0.125000   0.065285   -0.336229
 0.130000   0.063626   -0.327056
 0.135000   0.062014   -0.317599
 0.140000   0.060450   -0.308001
 0.145000   0.058934   -0.298278
 0.150000   0.057467   -0.288422
 0.155000   0.056050   -0.278547
 0.160000   0.054682   -0.268721
 0.165000   0.053363   -0.258985
 0.170000   0.052092   -0.249388
 0.175000   0.050869   -0.239970
 0.180000   0.049692   -0.230770
 0.185000   0.048561   -0.221798
 0.190000   0.047474   -0.213052
 0.195000   0.046431   -0.204567
 0.200000   0.045429   -0.196361
 0.205000   0.044467   -0.188431
 0.210000   0.043544   -0.180297
 0.215000   0.042664   -0.172402
 0.220000   0.041820   -0.165301
 0.225000   0.041011   -0.158549
 0.230000   0.040235   -0.152097
 0.235000   0.039490   -0.145962
 0.240000   0.038775   -0.140126
 0.245000   0.038089   -0.134250
 0.250000   0.037433   -0.128412
 0.255000   0.036805   -0.123203
 0.260000   0.036201   -0.118536
 0.265000   0.035619   -0.114121
 0.270000   0.035059   -0.109949
 0.275000   0.034520   -0.105685
 0.280000   0.034003   -0.101515
 0.285000   0.033505   -0.097925
 0.290000   0.033023   -0.094707
 0.295000   0.032558   -0.091675
 0.300000   0.032107   -0.088634
 0.305000   0.031671   -0.085562
 0.310000   0.031251   -0.082889
 0.315000   0.030842   -0.080619
 0.320000   0.030445   -0.078487
 0.325000   0.030058   -0.076293
 0.330000   0.029682   -0.074101
 0.335000   0.029317   -0.072258
 0.340000   0.028959   -0.070684
 0.345000   0.028610   -0.069210
 0.350000   0.028267   -0.067586
 0.355000   0.027934   -0.066080
 0.360000   0.027606   -0.064924
 0.365000   0.027285   -0.063834
 0.370000   0.026968   -0.062693
 0.375000   0.026658   -0.061552
 0.380000   0.026353   -0.060600
 0.385000   0.026052   -0.059781
 0.390000   0.025755   -0.058970
 0.395000   0.025462   -0.058101
 0.400000   0.025174   -0.057318
 0.405000   0.024889   -0.056673
 0.410000   0.024607   -0.056044
 0.415000   0.024328   -0.055320
 0.420000   0.024054   -0.054631
 0.425000   0.023782   -0.054084
 0.430000   0.023513   -0.053548
 0.435000   0.023247   -0.052916
 0.440000   0.022984   -0.052289
 0.445000   0.022724   -0.051786
 0.450000   0.022466   -0.051302
 0.455000   0.022211   -0.050741
 0.460000   0.021959   -0.050173
 0.465000   0.021709   -0.049707
 0.470000   0.021461   -0.049273
 0.475000   0.021216   -0.048780
 0.480000   0.020974   -0.048272
 0.485000   0.020733   -0.047847
 0.490000   0.020495   -0.047459
 0.495000   0.020259   -0.047026
 0.500000   0.020025   -0.046572
 0.505000   0.019793   -0.046180
 0.510000   0.019563   -0.045830
 0.515000   0.019335   -0.045445
 0.520000   0.019109   -0.045029
 0.525000   0.018885   -0.044657
 0.530000   0.018662   -0.044328
 0.535000   0.018441   -0.043986
 0.540000   0.018222   -0.043617
 0.545000   0.018005   -0.043285
 0.550000   0.017789   -0.043007
 0.555000   0.017575   -0.042728
 0.560000   0.017362   -0.042415
 0.565000   0.017151   -0.042128
 0.570000   0.016941   -0.041901
 0.575000   0.016732   -0.041684
 0.580000   0.016524   -0.041442
 0.585000   0.016317   -0.041218
 0.590000   0.016112   -0.041049
 0.595000   0.015907   -0.040896
 0.600000   0.015703   -0.040746
 0.605000   0.015500   -0.040609
 0.610000   0.015297   -0.040506
 0.615000   0.015094   -0.040427
 0.620000   0.014892   -0.040362
 0.625000   0.014691   -0.040312
 0.630000   0.014489   -0.040289
 0.635000   0.014288   -0.040289
 0.640000   0.014086   -0.040305
 0.645000   0.013885   -0.040343
 0.650000   0.013683   -0.040407
 0.655000   0.013481   -0.040485
 0.660000   0.013278   -0.040573
 0.665000   0.013075   -0.040671
 0.670000   0.012871   -0.040802
 0.675000   0.012667   -0.040949
 0.680000   0.012462   -0.041088
 0.685000   0.012256   -0.041235
 0.690000   0.012050   -0.041391
 0.695000   0.011842   -0.041586
 0.700000   0.011634   -0.041792
 0.705000   0.011424   -0.041977
 0.710000   0.011214   -0.042168
 0.715000   0.011003   -0.042363
 0.720000   0.010790   -0.042589
 0.725000   0.010577   -0.042817
 0.730000   0.010362   -0.043016
 0.735000   0.010147   -0.043208
 0.740000   0.009930   -0.043395
 0.745000   0.009713   -0.043584
 0.750000   0.009494   -0.043770
 0.755000   0.009275   -0.043926
 0.760000   0.009055   -0.044054
 0.765000   0.008834   -0.044164
 0.770000   0.008613   -0.044254
 0.775000   0.008392   -0.044330
 0.780000   0.008170   -0.044385
 0.785000   0.007948   -0.044411
 0.790000   0.007726   -0.044410
 0.795000   0.007504   -0.044386
 0.800000   0.007282   -0.044337
 0.805000   0.007061   -0.044268
 0.810000   0.006839   -0.044173
 0.815000   0.006619   -0.044060
 0.820000   0.006399   -0.043933
 0.825000   0.006180   -0.043785
 0.830000   0.005961   -0.043613
 0.835000   0.005743   -0.043415
 0.840000   0.005527   -0.043189
 0.845000   0.005312   -0.042918
 0.850000   0.005098   -0.042600
 0.855000   0.004886   -0.042256
 0.860000   0.004675   -0.041883
 0.865000   0.004467   -0.041469
 0.870000   0.004260   -0.041014
 0.875000   0.004057   -0.040516
 0.880000   0.003855   -0.039972
 0.885000   0.003657   -0.039381
 0.890000   0.003461   -0.038743
 0.895000   0.003269   -0.038053
 0.900000   0.003081   -0.037292
 0.905000   0.002896   -0.036490
 0.910000   0.002716   -0.035679
 0.915000   0.002540   -0.034924
 0.920000   0.002367   -0.034381
 0.925000   0.002196   -0.034137
 0.930000   0.002025   -0.034216
 0.935000   0.001854   -0.034628
 0.940000   0.001679   -0.035365
 0.945000   0.001500   -0.036362
 0.950000   0.001316   -0.037356
 0.955000   0.001127   -0.037569
 0.960000   0.000940   -0.036062
 0.965000   0.000766   -0.032584
 0.970000   0.000614   -0.027707
 0.975000   0.000489   -0.022376
 0.980000   0.000390   -0.017515
 0.985000   0.000314   -0.014159
 0.990000   0.000249   -0.012502
 0.995000   0.000189   -0.012570
 1.000000   0.000123   -0.013717
201 psinorm pb(KPa) dpb/dpsiN
 0.000000   42.993345   11.466187
 0.005000   42.948179   -29.532650
 0.010000   42.698018   -62.527432
 0.015000   42.322904   -85.081638
 0.020000   41.847202   -103.267139
 0.025000   41.290233   -117.959771
 0.030000   40.667604   -129.410227
 0.035000   39.996131   -138.624867
 0.040000   39.281356   -146.472350
 0.045000   38.531407   -152.677085
 0.050000   37.754585   -157.636549
 0.055000   36.955042   -161.346512
 0.060000   36.141120   -163.727873
 0.065000   35.317763   -165.124701
 0.070000   34.489873   -165.667246
 0.075000   33.661091   -165.538260
 0.080000   32.834490   -164.740794
 0.085000   32.013683   -163.277049
 0.090000   31.201720   -161.341658
 0.095000   30.400266   -159.041862
 0.100000   29.611301   -156.345711
 0.105000   28.836809   -153.073743
 0.110000   28.080563   -149.541600
 0.115000   27.341393   -146.049756
 0.120000   26.620066   -142.398944
 0.125000   25.917403   -138.601138
 0.130000   25.234055   -134.676759
 0.135000   24.570636   -130.661864
 0.140000   23.927436   -126.642444
 0.145000   23.304211   -122.603070
 0.150000   22.701405   -118.496383
 0.155000   22.119248   -114.381578
 0.160000   21.557589   -110.302559
 0.165000   21.016222   -106.276536
 0.170000   20.494824   -102.317312
 0.175000   19.993049   -98.435352
 0.180000   19.510471   -94.644131
 0.185000   19.046608   -90.952814
 0.190000   18.600942   -87.369092
 0.195000   18.172917   -83.899740
 0.200000   17.761945   -80.547701
 0.205000   17.367440   -77.314247
 0.210000   16.988803   -74.011426
 0.215000   16.627325   -70.811489
 0.220000   16.280688   -67.928307
 0.225000   15.948042   -65.189534
 0.230000   15.628792   -62.574453
 0.235000   15.322298   -60.086799
 0.240000   15.027924   -57.720365
 0.245000   14.745094   -55.344870
 0.250000   14.474476   -52.990229
 0.255000   14.215192   -50.883303
 0.260000   13.965643   -48.988314
 0.265000   13.725309   -47.194947
 0.270000   13.493693   -45.500224
 0.275000   13.270306   -43.786823
 0.280000   13.055825   -42.114770
 0.285000   12.849159   -40.656332
 0.290000   12.649262   -39.339701
 0.295000   12.455762   -38.096470
 0.300000   12.268297   -36.853408
 0.305000   12.087228   -35.602330
 0.310000   11.912274   -34.506305
 0.315000   11.742165   -33.566413
 0.320000   11.576609   -32.683187
 0.325000   11.415333   -31.779770
 0.330000   11.258812   -30.864248
 0.335000   11.106690   -30.080566
 0.340000   10.958006   -29.417751
 0.345000   10.812513   -28.798429
 0.350000   10.670022   -28.125384
 0.355000   10.531259   -27.499380
 0.360000   10.395028   -27.006844
 0.365000   10.261191   -26.540735
 0.370000   10.129621   -26.057849
 0.375000   10.000612   -25.576617
 0.380000   9.873854   -25.167966
 0.385000   9.748932   -24.811397
 0.390000   9.625740   -24.462993
 0.395000   9.504302   -24.096850
 0.400000   9.384772   -23.760398
 0.405000   9.266698   -23.473779
 0.410000   9.150034   -23.193873
 0.415000   9.034760   -22.881255
 0.420000   8.921222   -22.582309
 0.425000   8.808937   -22.334039
 0.430000   8.697881   -22.090352
 0.435000   8.588033   -21.812572
 0.440000   8.479756   -21.537627
 0.445000   8.372657   -21.307752
 0.450000   8.266678   -21.085995
 0.455000   8.161797   -20.841101
 0.460000   8.058267   -20.596348
 0.465000   7.955833   -20.386941
 0.470000   7.854398   -20.189375
 0.475000   7.753940   -19.973692
 0.480000   7.654661   -19.755693
 0.485000   7.556383   -19.567217
 0.490000   7.458989   -19.392153
 0.495000   7.362461   -19.204262
 0.500000   7.266946   -19.010584
 0.505000   7.172355   -18.837869
 0.510000   7.078567   -18.678261
 0.515000   6.985573   -18.508186
 0.520000   6.893485   -18.326811
 0.525000   6.802305   -18.156560
 0.530000   6.711920   -17.999370
 0.535000   6.622311   -17.842109
 0.540000   6.533499   -17.676877
 0.545000   6.445542   -17.520821
 0.550000   6.358290   -17.381101
 0.555000   6.271731   -17.241068
 0.560000   6.185880   -17.089305
 0.565000   6.100838   -16.945799
 0.570000   6.016422   -16.822443
 0.575000   5.932614   -16.702506
 0.580000   5.849397   -16.573855
 0.585000   5.766875   -16.448830
 0.590000   5.684908   -16.342625
 0.595000   5.603449   -16.244148
 0.600000   5.522467   -16.145618
 0.605000   5.441993   -16.047932
 0.610000   5.361988   -15.961992
 0.615000   5.282373   -15.886564
 0.620000   5.203122   -15.815213
 0.625000   5.124221   -15.748990
 0.630000   5.045632   -15.692494
 0.635000   4.967296   -15.644544
 0.640000   4.889187   -15.601645
 0.645000   4.811279   -15.566665
 0.650000   4.733520   -15.540268
 0.655000   4.655877   -15.518521
 0.660000   4.578335   -15.499724
 0.665000   4.500879   -15.483515
 0.670000   4.423500   -15.477401
 0.675000   4.346105   -15.475450
 0.680000   4.268745   -15.471007
 0.685000   4.191395   -15.470197
 0.690000   4.114043   -15.470760
 0.695000   4.036688   -15.483196
 0.700000   3.959211   -15.499942
 0.705000   3.881688   -15.510819
 0.710000   3.804103   -15.524193
 0.715000   3.726446   -15.538724
 0.720000   3.648716   -15.563632
 0.725000   3.570810   -15.590020
 0.730000   3.492816   -15.606899
 0.735000   3.414741   -15.622247
 0.740000   3.336593   -15.635741
 0.745000   3.258384   -15.649718
 0.750000   3.180096   -15.661710
 0.755000   3.101766   -15.663249
 0.760000   3.023463   -15.654818
 0.765000   2.945218   -15.639532
 0.770000   2.867068   -15.616696
 0.775000   2.789051   -15.588947
 0.780000   2.711179   -15.555118
 0.785000   2.633500   -15.511648
 0.790000   2.556062   -15.459867
 0.795000   2.478901   -15.400319
 0.800000   2.402059   -15.332442
 0.805000   2.325577   -15.256246
 0.810000   2.249497   -15.167937
 0.815000   2.173898   -15.070721
 0.820000   2.098789   -14.967912
 0.825000   2.024219   -14.855978
 0.830000   1.950230   -14.734939
 0.835000   1.876869   -14.603920
 0.840000   1.804190   -14.462173
 0.845000   1.732247   -14.303306
 0.850000   1.661157   -14.126347
 0.855000   1.590984   -13.942114
 0.860000   1.521736   -13.750073
 0.865000   1.453483   -13.544592
 0.870000   1.386290   -13.326273
 0.875000   1.320221   -13.094895
 0.880000   1.255341   -12.849834
 0.885000   1.191722   -12.590808
 0.890000   1.129433   -12.318401
 0.895000   1.068538   -12.031631
 0.900000   1.009117   -11.720573
 0.905000   0.951332   -11.400609
 0.910000   0.895111   -11.085453
 0.915000   0.840478   -10.785012
 0.920000   0.787261   -10.536776
 0.925000   0.735110   -10.365067
 0.930000   0.683610   -10.284881
 0.935000   0.632261   -10.312063
 0.940000   0.580489   -10.465313
 0.945000   0.527608   -10.762397
 0.950000   0.472865   -11.174737
 0.955000   0.415861   -11.527304
 0.960000   0.357592   -11.535203
 0.965000   0.300509   -10.993221
 0.970000   0.247660   -9.936510
 0.975000   0.201144   -8.725835
 0.980000   0.160402   -7.790401
 0.985000   0.123240   -7.086428
 0.990000   0.089537   -6.071345
 0.995000   0.062526   -4.994323
 1.000000   0.039594   -4.178486
201 psinorm ptot(KPa) dptot/dpsiN
 0.000000   106.119951   -110.500937
 0.005000   105.486349   -142.939694
 0.010000   104.690554   -169.153657
 0.015000   103.794813   -187.223317
 0.020000   102.818321   -201.849031
 0.025000   101.776323   -213.737640
 0.030000   100.680945   -223.059685
 0.035000   99.545726   -230.669844
 0.040000   98.374246   -237.306380
 0.045000   97.172662   -242.694209
 0.050000   95.947304   -247.143415
 0.055000   94.701228   -250.632713
 0.060000   93.440977   -253.079015
 0.065000   92.170438   -254.754837
 0.070000   90.893428   -255.756875
 0.075000   89.612869   -256.232051
 0.080000   88.331108   -256.172052
 0.085000   87.051148   -255.556456
 0.090000   85.775543   -254.538214
 0.095000   84.505766   -253.196218
 0.100000   83.243581   -251.491242
 0.105000   81.990854   -249.267715
 0.110000   80.750904   -246.792443
 0.115000   79.522929   -244.312362
 0.120000   78.307780   -241.653075
 0.125000   77.106399   -238.814470
 0.130000   75.919636   -235.800108
 0.135000   74.748398   -232.634120
 0.140000   73.593295   -229.395273
 0.145000   72.454445   -226.066355
 0.150000   71.332631   -222.597967
 0.155000   70.228465   -219.041434
 0.160000   69.142217   -215.434023
 0.165000   68.074125   -211.789976
 0.170000   67.024317   -208.122553
 0.175000   65.992899   -204.438741
 0.180000   64.979929   -200.748827
 0.185000   63.985411   -197.064231
 0.190000   63.009287   -193.396559
 0.195000   62.051446   -189.763361
 0.200000   61.111654   -186.184914
 0.205000   60.189596   -182.670441
 0.210000   59.284949   -179.065931
 0.215000   58.398937   -175.516312
 0.220000   57.529786   -172.206615
 0.225000   56.676871   -169.008339
 0.230000   55.839703   -165.882014
 0.235000   55.018051   -162.811748
 0.240000   54.211585   -159.798552
 0.245000   53.420065   -156.723242
 0.250000   52.644353   -153.602792
 0.255000   51.884037   -150.623468
 0.260000   51.138118   -147.735413
 0.265000   50.406683   -144.845478
 0.270000   49.689663   -141.970460
 0.275000   48.986979   -139.015293
 0.280000   48.299510   -136.032820
 0.285000   47.626650   -133.157915
 0.290000   46.967931   -130.347949
 0.295000   46.323171   -127.572689
 0.300000   45.692204   -124.777358
 0.305000   45.075397   -121.974099
 0.310000   44.472463   -119.324417
 0.315000   43.882153   -116.848750
 0.320000   43.303976   -114.488180
 0.325000   42.737271   -112.178273
 0.330000   42.182193   -109.906400
 0.335000   41.638207   -107.796539
 0.340000   41.104228   -105.838419
 0.345000   40.579823   -103.983152
 0.350000   40.064396   -102.123483
 0.355000   39.558588   -100.310418
 0.360000   39.061292   -98.626793
 0.365000   38.572320   -96.975624
 0.370000   38.091536   -95.310446
 0.375000   37.619216   -93.645237
 0.380000   37.155083   -91.999804
 0.385000   36.699218   -90.329681
 0.390000   36.251787   -88.624872
 0.395000   35.812969   -86.876925
 0.400000   35.383017   -85.136986
 0.405000   34.961599   -83.413773
 0.410000   34.548880   -81.683653
 0.415000   34.144763   -79.957858
 0.420000   33.749301   -78.292728
 0.425000   33.361836   -76.722127
 0.430000   32.982080   -75.210877
 0.435000   32.609727   -73.713266
 0.440000   32.244947   -72.271882
 0.445000   31.887008   -70.954012
 0.450000   31.535407   -69.721170
 0.455000   31.189796   -68.533351
 0.460000   30.850073   -67.410211
 0.465000   30.515694   -66.380137
 0.470000   30.186272   -65.427768
 0.475000   29.861416   -64.528038
 0.480000   29.540992   -63.678819
 0.485000   29.224628   -62.892216
 0.490000   28.912070   -62.143019
 0.495000   28.603198   -61.399758
 0.500000   28.298072   -60.663466
 0.505000   27.996563   -59.958998
 0.510000   27.698482   -59.285242
 0.515000   27.403711   -58.624181
 0.520000   27.112240   -57.974860
 0.525000   26.823962   -57.356633
 0.530000   26.538674   -56.771450
 0.535000   26.256248   -56.205712
 0.540000   25.976617   -55.649794
 0.545000   25.699750   -55.118158
 0.550000   25.425435   -54.616177
 0.555000   25.153588   -54.128205
 0.560000   24.884153   -53.643666
 0.565000   24.617152   -53.177007
 0.570000   24.352383   -52.736373
 0.575000   24.089788   -52.307040
 0.580000   23.829313   -51.876673
 0.585000   23.571021   -51.454867
 0.590000   23.314764   -51.054410
 0.595000   23.060477   -50.665294
 0.600000   22.808111   -50.281285
 0.605000   22.557664   -49.903731
 0.610000   22.309074   -49.542267
 0.615000   22.062241   -49.194989
 0.620000   21.817124   -48.856040
 0.625000   21.573681   -48.523422
 0.630000   21.331890   -48.198088
 0.635000   21.091700   -47.878811
 0.640000   20.853102   -47.561241
 0.645000   20.616088   -47.246916
 0.650000   20.380632   -46.937190
 0.655000   20.146716   -46.630203
 0.660000   19.914330   -46.326599
 0.665000   19.683450   -46.027633
 0.670000   19.454054   -45.738820
 0.675000   19.226062   -45.451411
 0.680000   18.999540   -45.154374
 0.685000   18.774518   -44.838774
 0.690000   18.551152   -44.492352
 0.695000   18.329594   -44.128700
 0.700000   18.109865   -43.745372
 0.705000   17.892141   -43.337177
 0.710000   17.676493   -42.910025
 0.715000   17.463040   -42.467815
 0.720000   17.251815   -42.032376
 0.725000   17.042717   -41.599809
 0.730000   16.835817   -41.162791
 0.735000   16.631089   -40.734560
 0.740000   16.428472   -40.319749
 0.745000   16.227891   -39.936144
 0.750000   16.029110   -39.597996
 0.755000   15.831911   -39.298168
 0.760000   15.636128   -39.034023
 0.765000   15.441571   -38.805054
 0.770000   15.248078   -38.611412
 0.775000   15.055457   -38.445912
 0.780000   14.863619   -38.275469
 0.785000   14.672702   -38.084137
 0.790000   14.482777   -37.878243
 0.795000   14.293920   -37.656242
 0.800000   14.106215   -37.417963
 0.805000   13.919740   -37.165506
 0.810000   13.734560   -36.902136
 0.815000   13.550719   -36.643371
 0.820000   13.368126   -36.401490
 0.825000   13.186704   -36.176714
 0.830000   13.006359   -35.971566
 0.835000   12.826988   -35.786816
 0.840000   12.648491   -35.615618
 0.845000   12.470832   -35.455919
 0.850000   12.293932   -35.321538
 0.855000   12.117617   -35.230024
 0.860000   11.941631   -35.188045
 0.865000   11.765736   -35.211049
 0.870000   11.589521   -35.276515
 0.875000   11.412971   -35.364493
 0.880000   11.235876   -35.496435
 0.885000   11.058007   -35.676690
 0.890000   10.879109   -35.912470
 0.895000   10.698882   -36.262009
 0.900000   10.516489   -36.720635
 0.905000   10.331676   -37.303369
 0.910000   10.143455   -38.086893
 0.915000   9.950807   -39.106897
 0.920000   9.752386   -40.430381
 0.925000   9.546503   -42.253314
 0.930000   9.329853   -44.599442
 0.935000   9.100509   -47.556374
 0.940000   8.854290   -51.692848
 0.945000   8.583580   -58.104233
 0.950000   8.273247   -69.155126
 0.955000   7.892029   -89.734536
 0.960000   7.375902   -128.128533
 0.965000   6.610744   -191.345880
 0.970000   5.462443   -261.856022
 0.975000   3.992183   -281.806177
 0.980000   2.644381   -222.223616
 0.985000   1.769947   -135.552776
 0.990000   1.288853   -75.308934
 0.995000   1.016858   -44.856651
 1.000000   0.840287   -25.771673
201 psinorm omeg(kRad/s) domeg/dpsiN
 0.000000   61.202801   0.038325
 0.005000   61.202346   -0.220468
 0.010000   61.200597   -0.544953
 0.015000   61.196896   -1.017823
 0.020000   61.190418   -1.669580
 0.025000   61.180201   -2.524485
 0.030000   61.165174   -3.599137
 0.035000   61.144209   -4.898671
 0.040000   61.116187   -6.399145
 0.045000   61.080218   -8.069254
 0.050000   61.035494   -9.879887
 0.055000   60.981419   -11.785624
 0.060000   60.917638   -13.739326
 0.065000   60.844026   -15.699556
 0.070000   60.760643   -17.583623
 0.075000   60.668190   -19.411057
 0.080000   60.566532   -21.250126
 0.085000   60.455688   -23.081469
 0.090000   60.335717   -24.912774
 0.095000   60.206561   -26.768432
 0.100000   60.068033   -28.639111
 0.105000   59.920169   -30.548776
 0.110000   59.762545   -32.524141
 0.115000   59.594928   -34.532542
 0.120000   59.417220   -36.557325
 0.125000   59.229355   -38.587860
 0.130000   59.031341   -40.576633
 0.135000   58.823588   -42.500304
 0.140000   58.606338   -44.392579
 0.145000   58.379663   -46.257826
 0.150000   58.143760   -48.087656
 0.155000   57.898786   -49.891317
 0.160000   57.644847   -51.664360
 0.165000   57.382142   -53.409015
 0.170000   57.110757   -55.139284
 0.175000   56.830750   -56.840956
 0.180000   56.542347   -58.499344
 0.185000   56.245756   -60.117537
 0.190000   55.941172   -61.685942
 0.195000   55.628897   -63.163528
 0.200000   55.309536   -64.512751
 0.205000   54.983769   -65.707652
 0.210000   54.652460   -66.726180
 0.215000   54.316507   -67.564248
 0.220000   53.976817   -68.200350
 0.225000   53.634504   -68.601625
 0.230000   53.290801   -68.864434
 0.235000   52.945860   -69.047726
 0.240000   52.600324   -69.096407
 0.245000   52.254896   -68.995656
 0.250000   51.910367   -68.703943
 0.255000   51.567856   -68.131525
 0.260000   51.229052   -67.406854
 0.265000   50.893788   -66.648592
 0.270000   50.562566   -65.804328
 0.275000   50.235744   -64.903705
 0.280000   49.913529   -63.971044
 0.285000   49.596034   -62.997330
 0.290000   49.283556   -62.110305
 0.295000   48.974931   -61.374296
 0.300000   48.669813   -60.697218
 0.305000   48.367959   -60.054103
 0.310000   48.069272   -59.411967
 0.315000   47.773839   -58.737952
 0.320000   47.481892   -58.028478
 0.325000   47.193554   -57.288789
 0.330000   46.909004   -56.514017
 0.335000   46.628414   -55.705860
 0.340000   46.351946   -54.865807
 0.345000   46.079756   -54.002197
 0.350000   45.811924   -53.112665
 0.355000   45.548629   -52.188478
 0.360000   45.290039   -51.231618
 0.365000   45.036313   -50.241337
 0.370000   44.787626   -49.213608
 0.375000   44.544177   -48.139308
 0.380000   44.306233   -46.990050
 0.385000   44.074277   -45.754271
 0.390000   43.848690   -44.447943
 0.395000   43.629797   -43.081155
 0.400000   43.417878   -41.663359
 0.405000   43.213164   -40.187011
 0.410000   43.016008   -38.705923
 0.415000   42.826104   -37.347151
 0.420000   42.642537   -36.186780
 0.425000   42.464236   -35.242404
 0.430000   42.290113   -34.504642
 0.435000   42.119190   -34.016148
 0.440000   41.949951   -33.736454
 0.445000   41.781826   -33.465807
 0.450000   41.615293   -33.123990
 0.455000   41.450586   -32.713937
 0.460000   41.288154   -32.195230
 0.465000   41.128633   -31.595547
 0.470000   40.972198   -30.875478
 0.475000   40.819879   -29.874656
 0.480000   40.673452   -28.604366
 0.485000   40.533835   -27.166681
 0.490000   40.401785   -25.600635
 0.495000   40.277829   -23.962054
 0.500000   40.162164   -22.298766
 0.505000   40.054841   -20.681588
 0.510000   39.955348   -19.218569
 0.515000   39.862655   -17.980418
 0.520000   39.775544   -16.998466
 0.525000   39.692671   -16.292085
 0.530000   39.612623   -15.870557
 0.535000   39.533965   -15.750659
 0.540000   39.455117   -15.943593
 0.545000   39.374529   -16.446080
 0.550000   39.290656   -17.255795
 0.555000   39.201971   -18.366180
 0.560000   39.106994   -19.764249
 0.565000   39.004329   -21.456133
 0.570000   38.892433   -23.443697
 0.575000   38.769892   -25.711484
 0.580000   38.635318   -28.253661
 0.585000   38.487355   -31.064543
 0.590000   38.324673   -34.133463
 0.595000   38.146020   -37.410915
 0.600000   37.950564   -40.824866
 0.605000   37.737772   -44.317590
 0.610000   37.507388   -47.834691
 0.615000   37.259425   -51.323489
 0.620000   36.994153   -54.670805
 0.625000   36.712717   -57.870702
 0.630000   36.415446   -60.959538
 0.635000   36.103121   -63.878920
 0.640000   35.776657   -66.609592
 0.645000   35.437025   -69.143956
 0.650000   35.085217   -71.436089
 0.655000   34.722665   -73.652780
 0.660000   34.348689   -75.993979
 0.665000   33.962725   -78.457578
 0.670000   33.564113   -81.066531
 0.675000   33.152060   -83.834578
 0.680000   32.725768   -86.855264
 0.685000   32.283507   -89.876857
 0.690000   31.826999   -92.462196
 0.695000   31.358885   -94.549303
 0.700000   30.881506   -96.163637
 0.705000   30.397249   -97.301237
 0.710000   29.908494   -97.988123
 0.715000   29.417367   -98.150407
 0.720000   28.926990   -97.700233
 0.725000   28.440365   -96.678922
 0.730000   27.960200   -95.126326
 0.735000   27.489102   -93.074002
 0.740000   27.029460   -90.579675
 0.745000   26.583305   -87.838287
 0.750000   26.151077   -85.089487
 0.755000   25.732410   -82.410638
 0.760000   25.326971   -79.792693
 0.765000   24.934483   -77.215581
 0.770000   24.554815   -74.720805
 0.775000   24.187275   -72.235570
 0.780000   23.832460   -69.479338
 0.785000   23.492482   -66.449171
 0.790000   23.167968   -63.359579
 0.795000   22.858886   -60.352008
 0.800000   22.564448   -57.586742
 0.805000   22.283019   -55.227611
 0.810000   22.012172   -53.434979
 0.815000   21.748669   -52.358421
 0.820000   21.488587   -52.099362
 0.825000   21.227675   -52.710692
 0.830000   20.961481   -54.215482
 0.835000   20.685520   -56.567113
 0.840000   20.395809   -59.728195
 0.845000   20.088238   -63.765549
 0.850000   19.758154   -68.775160
 0.855000   19.400487   -74.839551
 0.860000   19.009758   -82.053603
 0.865000   18.579951   -90.697237
 0.870000   18.102786   -100.627438
 0.875000   17.573676   -111.529002
 0.880000   16.987496   -123.357355
 0.885000   16.340103   -135.865662
 0.890000   15.628839   -148.714493
 0.895000   14.852958   -162.035036
 0.900000   14.008489   -174.633774
 0.905000   13.106620   -185.127382
 0.910000   12.157215   -193.243506
 0.915000   11.174185   -198.175612
 0.920000   10.175459   -199.172200
 0.925000   9.182463   -195.818724
 0.930000   8.217272   -187.231538
 0.935000   7.310148   -173.406622
 0.940000   6.483206   -155.777902
 0.945000   5.752369   -135.713217
 0.950000   5.126073   -114.767186
 0.955000   4.604697   -94.317604
 0.960000   4.182897   -75.909947
 0.965000   3.845597   -60.775066
 0.970000   3.575147   -49.242955
 0.975000   3.353168   -41.321558
 0.980000   3.161931   -36.746165
 0.985000   2.985706   -34.911227
 0.990000   2.812819   -35.231525
 0.995000   2.633391   -37.191003
 1.000000   2.440909   -39.801791
201 psinorm omegp(kRad/s) domegp/dpsiN
 0.000000   0.006858   109.455121
 0.005000   0.451939   68.577037
 0.010000   0.692629   46.392952
 0.015000   0.915868   44.103317
 0.020000   1.133662   43.007997
 0.025000   1.345948   41.448280
 0.030000   1.548145   38.932205
 0.035000   1.735270   36.231947
 0.040000   1.910464   33.790158
 0.045000   2.073172   31.457791
 0.050000   2.225042   29.631942
 0.055000   2.369491   28.572155
 0.060000   2.510764   28.237956
 0.065000   2.651871   28.275674
 0.070000   2.793520   28.433949
 0.075000   2.936210   28.487886
 0.080000   3.078399   28.242451
 0.085000   3.218635   27.697154
 0.090000   3.355371   26.665662
 0.095000   3.485291   25.224526
 0.100000   3.607616   23.546707
 0.105000   3.720758   21.710849
 0.110000   3.824724   19.861078
 0.115000   3.919369   18.004088
 0.120000   4.004765   16.357158
 0.125000   4.082941   15.142015
 0.130000   4.156185   14.251940
 0.135000   4.225460   13.511596
 0.140000   4.291301   12.877071
 0.145000   4.354231   12.307207
 0.150000   4.414373   11.661844
 0.155000   4.470849   10.953098
 0.160000   4.523904   10.139717
 0.165000   4.572247   9.289997
 0.170000   4.616804   8.318989
 0.175000   4.655436   7.178312
 0.180000   4.688588   5.976781
 0.185000   4.715204   4.692928
 0.190000   4.735517   3.485854
 0.195000   4.750063   2.260393
 0.200000   4.758121   1.157173
 0.205000   4.761635   0.139363
 0.210000   4.759514   -0.820826
 0.215000   4.753426   -1.523028
 0.220000   4.744284   -2.208164
 0.225000   4.731345   -2.814162
 0.230000   4.716142   -3.369389
 0.235000   4.697651   -4.036177
 0.240000   4.675781   -4.638233
 0.245000   4.651268   -5.308549
 0.250000   4.622695   -6.059412
 0.255000   4.590674   -6.754985
 0.260000   4.555145   -7.541669
 0.265000   4.515258   -8.318816
 0.270000   4.471957   -9.075250
 0.275000   4.424505   -9.968545
 0.280000   4.372272   -10.840699
 0.285000   4.316098   -11.765403
 0.290000   4.254618   -12.892347
 0.295000   4.187175   -14.014623
 0.300000   4.114472   -15.217518
 0.305000   4.034999   -16.579125
 0.310000   3.948680   -17.879054
 0.315000   3.856209   -19.210059
 0.320000   3.756580   -20.600710
 0.325000   3.650202   -21.796896
 0.330000   3.538611   -22.835488
 0.335000   3.421847   -23.759368
 0.340000   3.301017   -24.393531
 0.345000   3.177912   -24.829949
 0.350000   3.052718   -25.125093
 0.355000   2.926661   -25.260552
 0.360000   2.800112   -25.461898
 0.365000   2.672042   -25.806935
 0.370000   2.542043   -26.213514
 0.375000   2.409907   -26.769757
 0.380000   2.274345   -27.613204
 0.385000   2.133775   -28.598758
 0.390000   1.988358   -29.552215
 0.395000   1.838252   -30.494168
 0.400000   1.683416   -31.483596
 0.405000   1.523416   -32.732439
 0.410000   1.356091   -35.077803
 0.415000   1.172638   -38.760709
 0.420000   0.968484   -43.411973
 0.425000   0.738519   -49.045271
 0.430000   0.478032   -55.526708
 0.435000   0.183252   -62.780273
 0.440000   -0.149771   -70.860164
 0.445000   -0.525350   -78.434137
 0.450000   -0.934112   -84.527405
 0.455000   -1.370624   -89.294843
 0.460000   -1.827061   -92.285834
 0.465000   -2.293482   -93.046163
 0.470000   -2.757523   -90.889635
 0.475000   -3.202379   -86.009579
 0.480000   -3.617618   -79.297745
 0.485000   -3.995356   -71.361886
 0.490000   -4.331237   -62.720751
 0.495000   -4.622564   -53.445018
 0.500000   -4.865687   -44.345296
 0.505000   -5.066017   -36.911722
 0.510000   -5.234805   -31.283728
 0.515000   -5.378854   -27.072049
 0.520000   -5.505525   -24.367430
 0.525000   -5.622528   -23.039150
 0.530000   -5.735917   -22.769287
 0.535000   -5.850221   -23.132415
 0.540000   -5.967241   -23.745697
 0.545000   -6.087678   -24.396403
 0.550000   -6.211205   -24.938635
 0.555000   -6.337065   -25.491266
 0.560000   -6.466117   -25.613795
 0.565000   -6.593202   -24.853189
 0.570000   -6.714649   -23.463061
 0.575000   -6.827833   -21.531917
 0.580000   -6.929968   -19.069277
 0.585000   -7.018526   -16.153584
 0.590000   -7.091504   -13.057903
 0.595000   -7.149105   -9.973061
 0.600000   -7.191235   -7.011148
 0.605000   -7.219216   -4.389650
 0.610000   -7.235131   -2.174492
 0.615000   -7.240961   -0.306225
 0.620000   -7.238194   1.184890
 0.625000   -7.229112   2.244135
 0.630000   -7.215752   3.038797
 0.635000   -7.198724   3.705182
 0.640000   -7.178700   4.246499
 0.645000   -7.156259   4.684165
 0.650000   -7.131859   5.102023
 0.655000   -7.105239   5.525983
 0.660000   -7.076599   5.879458
 0.665000   -7.046445   6.180527
 0.670000   -7.014794   6.488383
 0.675000   -6.981561   6.848602
 0.680000   -6.946308   7.268331
 0.685000   -6.908877   7.807879
 0.690000   -6.868229   8.511416
 0.695000   -6.823763   9.298365
 0.700000   -6.775245   10.159396
 0.705000   -6.722169   11.040021
 0.710000   -6.664845   11.716602
 0.715000   -6.605003   12.014776
 0.720000   -6.544697   11.891561
 0.725000   -6.486088   11.306409
 0.730000   -6.431633   10.217794
 0.735000   -6.383910   8.623469
 0.740000   -6.345399   6.702705
 0.745000   -6.316883   4.689911
 0.750000   -6.298499   2.732524
 0.755000   -6.289557   0.977659
 0.760000   -6.288723   -0.419860
 0.765000   -6.293756   -1.471969
 0.770000   -6.303443   -2.388661
 0.775000   -6.317643   -3.324161
 0.780000   -6.336684   -4.397851
 0.785000   -6.361621   -5.755374
 0.790000   -6.394238   -7.690197
 0.795000   -6.438523   -10.095850
 0.800000   -6.495196   -12.616445
 0.805000   -6.564688   -15.122972
 0.810000   -6.646426   -17.403827
 0.815000   -6.738726   -19.199465
 0.820000   -6.838421   -20.305610
 0.825000   -6.941782   -20.448419
 0.830000   -7.042905   -19.472134
 0.835000   -7.136503   -17.443750
 0.840000   -7.217342   -14.467844
 0.845000   -7.281182   -10.780706
 0.850000   -7.325149   -6.658679
 0.855000   -7.347769   -2.453154
 0.860000   -7.349681   1.579698
 0.865000   -7.331972   5.345559
 0.870000   -7.296225   8.855136
 0.875000   -7.243420   12.187425
 0.880000   -7.174351   15.406273
 0.885000   -7.089358   18.482569
 0.890000   -6.989525   21.309435
 0.895000   -6.876263   23.789644
 0.900000   -6.751629   25.826108
 0.905000   -6.618002   27.410547
 0.910000   -6.477524   28.751542
 0.915000   -6.330487   30.100490
 0.920000   -6.176519   31.736389
 0.925000   -6.013123   33.934059
 0.930000   -5.837178   36.732608
 0.935000   -5.645797   40.499386
 0.940000   -5.432184   44.584355
 0.945000   -5.199953   46.540113
 0.950000   -4.966783   45.296552
 0.955000   -4.746988   42.562349
 0.960000   -4.541160   43.938426
 0.965000   -4.307603   57.067220
 0.970000   -3.970487   90.575042
 0.975000   -3.401853   150.365999
 0.980000   -2.466827   229.908807
 0.985000   -1.102765   309.378737
 0.990000   0.626960   361.434942
 0.995000   2.511585   361.398097
 1.000000   4.240941   330.344456
201 psinorm omgvb(kRad/s) domgvb/dpsiN
 0.000000   61.209660   109.493446
 0.005000   61.654285   68.356569
 0.010000   61.893225   45.847999
 0.015000   62.112765   43.085494
 0.020000   62.324080   41.338417
 0.025000   62.526149   38.923795
 0.030000   62.713318   35.333068
 0.035000   62.879480   31.333276
 0.040000   63.026651   27.391013
 0.045000   63.153390   23.388537
 0.050000   63.260536   19.752056
 0.055000   63.350910   16.786531
 0.060000   63.428402   14.498630
 0.065000   63.495897   12.576118
 0.070000   63.554163   10.850326
 0.075000   63.604400   9.076828
 0.080000   63.644931   6.992326
 0.085000   63.674323   4.615685
 0.090000   63.691088   1.752888
 0.095000   63.691852   -1.543907
 0.100000   63.675649   -5.092404
 0.105000   63.640928   -8.837927
 0.110000   63.587270   -12.663062
 0.115000   63.514297   -16.528454
 0.120000   63.421985   -20.200167
 0.125000   63.312296   -23.445845
 0.130000   63.187527   -26.324693
 0.135000   63.049049   -28.988707
 0.140000   62.897640   -31.515508
 0.145000   62.733894   -33.950619
 0.150000   62.558133   -36.425812
 0.155000   62.369635   -38.938219
 0.160000   62.168751   -41.524644
 0.165000   61.954389   -44.119018
 0.170000   61.727561   -46.820295
 0.175000   61.486186   -49.662644
 0.180000   61.230935   -52.522563
 0.185000   60.960960   -55.424608
 0.190000   60.676688   -58.200088
 0.195000   60.378960   -60.903135
 0.200000   60.067657   -63.355578
 0.205000   59.745404   -65.568289
 0.210000   59.411974   -67.547005
 0.215000   59.069934   -69.087275
 0.220000   58.721102   -70.408514
 0.225000   58.365849   -71.415787
 0.230000   58.006944   -72.233822
 0.235000   57.643510   -73.083904
 0.240000   57.276105   -73.734640
 0.245000   56.906164   -74.304205
 0.250000   56.533063   -74.763355
 0.255000   56.158530   -74.886510
 0.260000   55.784197   -74.948522
 0.265000   55.409045   -74.967408
 0.270000   55.034523   -74.879578
 0.275000   54.660249   -74.872250
 0.280000   54.285801   -74.811743
 0.285000   53.912132   -74.762733
 0.290000   53.538174   -75.002652
 0.295000   53.162105   -75.388919
 0.300000   52.784284   -75.914736
 0.305000   52.402958   -76.633228
 0.310000   52.017952   -77.291021
 0.315000   51.630048   -77.948011
 0.320000   51.238472   -78.629188
 0.325000   50.843756   -79.085686
 0.330000   50.447615   -79.349506
 0.335000   50.050261   -79.465228
 0.340000   49.652963   -79.259337
 0.345000   49.257668   -78.832146
 0.350000   48.864641   -78.237758
 0.355000   48.475290   -77.449030
 0.360000   48.090151   -76.693516
 0.365000   47.708355   -76.048271
 0.370000   47.329668   -75.427122
 0.375000   46.954084   -74.909065
 0.380000   46.580578   -74.603254
 0.385000   46.208051   -74.353029
 0.390000   45.837047   -74.000158
 0.395000   45.468049   -73.575323
 0.400000   45.101294   -73.146955
 0.405000   44.736580   -72.919450
 0.410000   44.372100   -73.783726
 0.415000   43.998743   -76.107861
 0.420000   43.611021   -79.598753
 0.425000   43.202755   -84.287675
 0.430000   42.768144   -90.031350
 0.435000   42.302442   -96.796421
 0.440000   41.800180   -104.596618
 0.445000   41.256475   -111.899944
 0.450000   40.681181   -117.651395
 0.455000   40.079962   -122.008780
 0.460000   39.461093   -124.481064
 0.465000   38.835151   -124.641710
 0.470000   38.214676   -121.765112
 0.475000   37.617500   -115.884235
 0.480000   37.055833   -107.902111
 0.485000   36.538479   -98.528567
 0.490000   36.070548   -88.321386
 0.495000   35.655265   -77.407072
 0.500000   35.296477   -66.644062
 0.505000   34.988824   -57.593310
 0.510000   34.720544   -50.502298
 0.515000   34.483801   -45.052467
 0.520000   34.270019   -41.365896
 0.525000   34.070142   -39.331235
 0.530000   33.876707   -38.639843
 0.535000   33.683744   -38.883074
 0.540000   33.487876   -39.689290
 0.545000   33.286851   -40.842483
 0.550000   33.079451   -42.194430
 0.555000   32.864907   -43.857447
 0.560000   32.640877   -45.378044
 0.565000   32.411126   -46.309322
 0.570000   32.177784   -46.906758
 0.575000   31.942059   -47.243400
 0.580000   31.705350   -47.322937
 0.585000   31.468829   -47.218127
 0.590000   31.233168   -47.191366
 0.595000   30.996916   -47.383975
 0.600000   30.759329   -47.836014
 0.605000   30.518555   -48.707241
 0.610000   30.272256   -50.009183
 0.615000   30.018464   -51.629714
 0.620000   29.755959   -53.485915
 0.625000   29.483604   -55.626567
 0.630000   29.199693   -57.920741
 0.635000   28.904397   -60.173738
 0.640000   28.597956   -62.363093
 0.645000   28.280766   -64.459791
 0.650000   27.953358   -66.334066
 0.655000   27.617425   -68.126798
 0.660000   27.272090   -70.114520
 0.665000   26.916280   -72.277051
 0.670000   26.549320   -74.578148
 0.675000   26.170499   -76.985976
 0.680000   25.779460   -79.586933
 0.685000   25.374629   -82.068978
 0.690000   24.958770   -83.950781
 0.695000   24.535122   -85.250938
 0.700000   24.106261   -86.004241
 0.705000   23.675079   -86.261216
 0.710000   23.243649   -86.271521
 0.715000   22.812364   -86.135631
 0.720000   22.382292   -85.808673
 0.725000   21.954277   -85.372513
 0.730000   21.528567   -84.908532
 0.735000   21.105192   -84.450533
 0.740000   20.684062   -83.876970
 0.745000   20.266422   -83.148377
 0.750000   19.852578   -82.356963
 0.755000   19.442853   -81.432979
 0.760000   19.038248   -80.212552
 0.765000   18.640727   -78.687550
 0.770000   18.251373   -77.109466
 0.775000   17.869632   -75.559730
 0.780000   17.495775   -73.877189
 0.785000   17.130861   -72.204546
 0.790000   16.773730   -71.049777
 0.795000   16.420363   -70.447858
 0.800000   16.069251   -70.203187
 0.805000   15.718331   -70.350582
 0.810000   15.365746   -70.838806
 0.815000   15.009943   -71.557886
 0.820000   14.650167   -72.404972
 0.825000   14.285893   -73.159111
 0.830000   13.918576   -73.687615
 0.835000   13.549017   -74.010863
 0.840000   13.178467   -74.196039
 0.845000   12.807057   -74.546254
 0.850000   12.433004   -75.433839
 0.855000   12.052718   -77.292705
 0.860000   11.660077   -80.473904
 0.865000   11.247979   -85.351678
 0.870000   10.806561   -91.772302
 0.875000   10.330256   -99.341577
 0.880000   9.813145   -107.951082
 0.885000   9.250745   -117.383093
 0.890000   8.639314   -127.405058
 0.895000   7.976695   -138.245391
 0.900000   7.256860   -148.807666
 0.905000   6.488618   -157.716835
 0.910000   5.679692   -164.491964
 0.915000   4.843698   -168.075122
 0.920000   3.998940   -167.435811
 0.925000   3.169340   -161.884665
 0.930000   2.380094   -150.498930
 0.935000   1.664351   -132.907236
 0.940000   1.051021   -111.193547
 0.945000   0.552416   -89.173104
 0.950000   0.159290   -69.470634
 0.955000   -0.142291   -51.755255
 0.960000   -0.358262   -31.971521
 0.965000   -0.462006   -3.707846
 0.970000   -0.395341   41.332086
 0.975000   -0.048685   109.044441
 0.980000   0.695104   193.162642
 0.985000   1.882941   274.467510
 0.990000   3.439779   326.203417
 0.995000   5.144975   324.207093
 1.000000   6.681850   290.542664
201 psinorm omgpp(kRad/s) domgpp/dpsiN
 0.000000   -0.043636   -21.699477
 0.005000   -0.176813   -31.571289
 0.010000   -0.359349   -37.075689
 0.015000   -0.547569   -38.160131
 0.020000   -0.740950   -39.121327
 0.025000   -0.938783   -39.928012
 0.030000   -1.140230   -40.581757
 0.035000   -1.344600   -41.068688
 0.040000   -1.550917   -41.361667
 0.045000   -1.758217   -41.461512
 0.050000   -1.965532   -41.329093
 0.055000   -2.171508   -40.968761
 0.060000   -2.375220   -40.608393
 0.065000   -2.577592   -40.232759
 0.070000   -2.777547   -39.695370
 0.075000   -2.974546   -39.037120
 0.080000   -3.167918   -38.189667
 0.085000   -3.356442   -37.104765
 0.090000   -3.538966   -36.086470
 0.095000   -3.717307   -35.099803
 0.100000   -3.889964   -33.935958
 0.105000   -4.056667   -32.725009
 0.110000   -4.217214   -31.463270
 0.115000   -4.371299   -30.101404
 0.120000   -4.518228   -28.815573
 0.125000   -4.659455   -27.469317
 0.130000   -4.792921   -25.880611
 0.135000   -4.918261   -24.232960
 0.140000   -5.035251   -22.553026
 0.145000   -5.143791   -20.734245
 0.150000   -5.242593   -19.112543
 0.155000   -5.334917   -17.656125
 0.160000   -5.419155   -16.022955
 0.165000   -5.495146   -14.357056
 0.170000   -5.562725   -12.657951
 0.175000   -5.621726   -10.828635
 0.180000   -5.671012   -9.133733
 0.185000   -5.713063   -7.636796
 0.190000   -5.747380   -6.178891
 0.195000   -5.774852   -4.917822
 0.200000   -5.796558   -3.877906
 0.205000   -5.813631   -3.284046
 0.210000   -5.829398   -2.821793
 0.215000   -5.841849   -2.116433
 0.220000   -5.850563   -1.385840
 0.225000   -5.855707   -0.645660
 0.230000   -5.857019   0.162460
 0.235000   -5.854083   0.612014
 0.240000   -5.850899   1.692867
 0.245000   -5.837154   3.882539
 0.250000   -5.812074   6.026942
 0.255000   -5.776885   8.071251
 0.260000   -5.731361   10.137152
 0.265000   -5.675513   12.214358
 0.270000   -5.609218   14.515598
 0.275000   -5.530357   16.804298
 0.280000   -5.441175   18.764850
 0.285000   -5.342709   20.550557
 0.290000   -5.235669   22.178065
 0.295000   -5.120928   23.895707
 0.300000   -4.996712   25.155339
 0.305000   -4.869375   25.121004
 0.310000   -4.745502   24.513686
 0.315000   -4.624238   23.900971
 0.320000   -4.506492   23.148293
 0.325000   -4.392755   22.191789
 0.330000   -4.284574   20.932909
 0.335000   -4.183426   19.977409
 0.340000   -4.084800   19.453242
 0.345000   -3.988893   18.978706
 0.350000   -3.895013   18.647195
 0.355000   -3.802421   18.218576
 0.360000   -3.712827   17.692695
 0.365000   -3.625495   18.274849
 0.370000   -3.530079   19.590428
 0.375000   -3.429590   20.740853
 0.380000   -3.322670   22.085332
 0.385000   -3.208737   23.497164
 0.390000   -3.087699   25.152417
 0.395000   -2.957213   26.515433
 0.400000   -2.822544   27.140301
 0.405000   -2.685810   27.382474
 0.410000   -2.548720   27.277460
 0.415000   -2.413035   26.911429
 0.420000   -2.279605   26.792796
 0.425000   -2.145107   25.500227
 0.430000   -2.024603   23.380837
 0.435000   -1.911299   21.914901
 0.440000   -1.805454   20.401578
 0.445000   -1.707283   18.854304
 0.450000   -1.616911   17.604102
 0.455000   -1.531242   15.724507
 0.460000   -1.459666   13.480610
 0.465000   -1.396436   11.824914
 0.470000   -1.341417   10.210181
 0.475000   -1.294334   8.664657
 0.480000   -1.254770   7.163826
 0.485000   -1.222696   6.130917
 0.490000   -1.193461   5.597181
 0.495000   -1.166724   5.071214
 0.500000   -1.142749   4.484121
 0.505000   -1.121883   3.812847
 0.510000   -1.104620   3.016785
 0.515000   -1.091715   2.151311
 0.520000   -1.083107   1.309876
 0.525000   -1.078616   0.494786
 0.530000   -1.078160   -0.300598
 0.535000   -1.081622   -1.071831
 0.540000   -1.088878   -1.854670
 0.545000   -1.100169   -2.586616
 0.550000   -1.114744   -3.230814
 0.555000   -1.132477   -3.861564
 0.560000   -1.153360   -4.474842
 0.565000   -1.177225   -5.053372
 0.570000   -1.203893   -5.612701
 0.575000   -1.233352   -6.108724
 0.580000   -1.264981   -6.518074
 0.585000   -1.298533   -6.897484
 0.590000   -1.333955   -7.258844
 0.595000   -1.371122   -7.600598
 0.600000   -1.409961   -7.944252
 0.605000   -1.450564   -8.293006
 0.610000   -1.492891   -8.610049
 0.615000   -1.536665   -8.904390
 0.620000   -1.581935   -9.201303
 0.625000   -1.628678   -9.491737
 0.630000   -1.676853   -9.822655
 0.635000   -1.726904   -10.182806
 0.640000   -1.778681   -10.375637
 0.645000   -1.830661   -10.470580
 0.650000   -1.883387   -10.619118
 0.655000   -1.936852   -10.763082
 0.660000   -1.991017   -10.965923
 0.665000   -2.046511   -11.331467
 0.670000   -2.104332   -11.668932
 0.675000   -2.163200   -12.141080
 0.680000   -2.225743   -12.885830
 0.685000   -2.292059   -13.617863
 0.690000   -2.361922   -14.414430
 0.695000   -2.436203   -15.643054
 0.700000   -2.518352   -15.999892
 0.705000   -2.596202   -15.603709
 0.710000   -2.674389   -15.562041
 0.715000   -2.751822   -15.272662
 0.720000   -2.827116   -14.728906
 0.725000   -2.899111   -14.079298
 0.730000   -2.967909   -12.102396
 0.735000   -3.020135   -9.273397
 0.740000   -3.060643   -6.820166
 0.745000   -3.088337   -4.167227
 0.750000   -3.102315   -1.365448
 0.755000   -3.101991   2.179105
 0.760000   -3.080524   5.315888
 0.765000   -3.048833   7.359663
 0.770000   -3.006927   9.268414
 0.775000   -2.956148   10.888328
 0.780000   -2.898044   12.185708
 0.785000   -2.834291   13.693138
 0.790000   -2.761113   14.026917
 0.795000   -2.694022   13.121345
 0.800000   -2.629899   12.410025
 0.805000   -2.569922   11.477011
 0.810000   -2.515129   10.432216
 0.815000   -2.465600   9.601710
 0.820000   -2.419112   9.371683
 0.825000   -2.371883   9.522895
 0.830000   -2.323883   9.593913
 0.835000   -2.275944   9.459035
 0.840000   -2.229293   9.035033
 0.845000   -2.185593   8.081895
 0.850000   -2.148474   6.356832
 0.855000   -2.122025   4.224585
 0.860000   -2.106228   1.919036
 0.865000   -2.102835   -0.688568
 0.870000   -2.113114   -3.512298
 0.875000   -2.137958   -7.189635
 0.880000   -2.185010   -10.962588
 0.885000   -2.247584   -13.612491
 0.890000   -2.321135   -16.654205
 0.895000   -2.414126   -20.940427
 0.900000   -2.530539   -26.096609
 0.905000   -2.675092   -34.079729
 0.910000   -2.871336   -44.807021
 0.915000   -3.123162   -53.780078
 0.920000   -3.409137   -62.993077
 0.925000   -3.753093   -75.804174
 0.930000   -4.167179   -92.044857
 0.935000   -4.673541   -117.619664
 0.940000   -5.343376   -157.225971
 0.945000   -6.245801   -204.184295
 0.950000   -7.385219   -266.581883
 0.955000   -8.911620   -350.975472
 0.960000   -10.894973   -440.267344
 0.965000   -13.314293   -515.248907
 0.970000   -16.047462   -543.531387
 0.975000   -18.749607   -464.060021
 0.980000   -20.688063   -282.207534
 0.985000   -21.571683   -47.076251
 0.990000   -21.158825   209.349559
 0.995000   -19.478187   428.664314
 1.000000   -16.872182   613.737714
201 psinorm omgeb(kRad/s) domgeb/dpsiN
 0.000000   61.166024   87.793970
 0.005000   61.477472   36.785280
 0.010000   61.533877   8.772310
 0.015000   61.565195   4.925363
 0.020000   61.583130   2.217089
 0.025000   61.587366   -1.004217
 0.030000   61.573088   -5.248689
 0.035000   61.534879   -9.735412
 0.040000   61.475734   -13.970654
 0.045000   61.395173   -18.072975
 0.050000   61.295004   -21.577037
 0.055000   61.179402   -24.182230
 0.060000   61.053182   -26.109764
 0.065000   60.918305   -27.656641
 0.070000   60.776616   -28.845043
 0.075000   60.629854   -29.960292
 0.080000   60.477013   -31.197341
 0.085000   60.317881   -32.489080
 0.090000   60.152122   -34.333582
 0.095000   59.974545   -36.643710
 0.100000   59.785685   -39.028361
 0.105000   59.584261   -41.562936
 0.110000   59.370055   -44.126332
 0.115000   59.142998   -46.629858
 0.120000   58.903757   -49.015741
 0.125000   58.652841   -50.915162
 0.130000   58.394605   -52.205304
 0.135000   58.130788   -53.221668
 0.140000   57.862389   -54.068534
 0.145000   57.590102   -54.684864
 0.150000   57.315540   -55.538355
 0.155000   57.034719   -56.594344
 0.160000   56.749597   -57.547599
 0.165000   56.459243   -58.476074
 0.170000   56.164836   -59.478246
 0.175000   55.864460   -60.491279
 0.180000   55.559923   -61.656297
 0.185000   55.247897   -63.061404
 0.190000   54.929309   -64.378979
 0.195000   54.604108   -65.820957
 0.200000   54.271099   -67.233483
 0.205000   53.931773   -68.852334
 0.210000   53.582576   -70.368798
 0.215000   53.228085   -71.203709
 0.220000   52.870539   -71.794354
 0.225000   52.510141   -72.061447
 0.230000   52.149924   -72.071362
 0.235000   51.789428   -72.471889
 0.240000   51.425206   -72.041773
 0.245000   51.069010   -70.421666
 0.250000   50.720989   -68.736413
 0.255000   50.381646   -66.815259
 0.260000   50.052836   -64.811371
 0.265000   49.733532   -62.753050
 0.270000   49.425306   -60.363981
 0.275000   49.129892   -58.067952
 0.280000   48.844626   -56.046893
 0.285000   48.569423   -54.212177
 0.290000   48.302505   -52.824587
 0.295000   48.041177   -51.493211
 0.300000   47.787572   -50.759397
 0.305000   47.533583   -51.512224
 0.310000   47.272450   -52.777335
 0.315000   47.005810   -54.047041
 0.320000   46.731980   -55.480895
 0.325000   46.451001   -56.893897
 0.330000   46.163041   -58.416597
 0.335000   45.866835   -59.487819
 0.340000   45.568163   -59.806096
 0.345000   45.268774   -59.853440
 0.350000   44.969628   -59.590564
 0.355000   44.672869   -59.230454
 0.360000   44.377324   -59.000821
 0.365000   44.082860   -57.773422
 0.370000   43.799589   -55.836694
 0.375000   43.524493   -54.168213
 0.380000   43.257907   -52.517923
 0.385000   42.999314   -50.855866
 0.390000   42.749349   -48.847741
 0.395000   42.510837   -47.059890
 0.400000   42.278750   -46.006654
 0.405000   42.050770   -45.536976
 0.410000   41.823380   -46.506266
 0.415000   41.585708   -49.196432
 0.420000   41.331416   -52.805957
 0.425000   41.057648   -58.787448
 0.430000   40.743541   -66.650513
 0.435000   40.391143   -74.881521
 0.440000   39.994726   -84.195041
 0.445000   39.549192   -93.045640
 0.450000   39.064270   -100.047293
 0.455000   38.548719   -106.284272
 0.460000   38.001427   -111.000454
 0.465000   37.438715   -112.816797
 0.470000   36.873259   -111.554931
 0.475000   36.323166   -107.219578
 0.480000   35.801063   -100.738284
 0.485000   35.315783   -92.397650
 0.490000   34.877087   -82.724205
 0.495000   34.488541   -72.335859
 0.500000   34.153728   -62.159940
 0.505000   33.866941   -53.780463
 0.510000   33.615923   -47.485513
 0.515000   33.392086   -42.901156
 0.520000   33.186912   -40.056020
 0.525000   32.991526   -38.836449
 0.530000   32.798547   -38.940441
 0.535000   32.602122   -39.954905
 0.540000   32.398998   -41.543960
 0.545000   32.186682   -43.429099
 0.550000   31.964707   -45.425244
 0.555000   31.732430   -47.719011
 0.560000   31.487517   -49.852886
 0.565000   31.233901   -51.362694
 0.570000   30.973890   -52.519459
 0.575000   30.708706   -53.352124
 0.580000   30.440369   -53.841011
 0.585000   30.170296   -54.115611
 0.590000   29.899213   -54.450210
 0.595000   29.625794   -54.984574
 0.600000   29.349367   -55.780266
 0.605000   29.067991   -57.000247
 0.610000   28.779365   -58.619231
 0.615000   28.481799   -60.534104
 0.620000   28.174024   -62.687219
 0.625000   27.854927   -65.118304
 0.630000   27.522841   -67.743396
 0.635000   27.177493   -70.356544
 0.640000   26.819275   -72.738730
 0.645000   26.450105   -74.930371
 0.650000   26.069972   -76.953184
 0.655000   25.680574   -78.889880
 0.660000   25.281073   -81.080443
 0.665000   24.869769   -83.608517
 0.670000   24.444988   -86.247081
 0.675000   24.007298   -89.127056
 0.680000   23.553717   -92.472764
 0.685000   23.082571   -95.686841
 0.690000   22.596849   -98.365211
 0.695000   22.098919   -100.893991
 0.700000   21.587909   -102.004134
 0.705000   21.078877   -101.864925
 0.710000   20.569259   -101.833562
 0.715000   20.060542   -101.408293
 0.720000   19.555176   -100.537579
 0.725000   19.055166   -99.451811
 0.730000   18.560658   -97.010928
 0.735000   18.085057   -93.723930
 0.740000   17.623419   -90.697137
 0.745000   17.178085   -87.315604
 0.750000   16.750263   -83.722410
 0.755000   16.340861   -79.253874
 0.760000   15.957724   -74.896665
 0.765000   15.591895   -71.327887
 0.770000   15.244445   -67.841052
 0.775000   14.913484   -64.671402
 0.780000   14.597731   -61.691481
 0.785000   14.296569   -58.511408
 0.790000   14.012617   -57.022860
 0.795000   13.726341   -57.326513
 0.800000   13.439352   -57.793162
 0.805000   13.148409   -58.873572
 0.810000   12.850616   -60.406590
 0.815000   12.544343   -61.956176
 0.820000   12.231055   -63.033289
 0.825000   11.914010   -63.636216
 0.830000   11.594693   -64.093702
 0.835000   11.273073   -64.551828
 0.840000   10.949174   -65.161007
 0.845000   10.621463   -66.464360
 0.850000   10.284531   -69.077008
 0.855000   9.930693   -73.068120
 0.860000   9.553849   -78.554868
 0.865000   9.145144   -86.040246
 0.870000   8.693447   -95.284601
 0.875000   8.192298   -106.531212
 0.880000   7.628135   -118.913670
 0.885000   7.003162   -130.995583
 0.890000   6.318179   -144.059263
 0.895000   5.562569   -159.185818
 0.900000   4.726321   -174.904275
 0.905000   3.813526   -191.796564
 0.910000   2.808355   -209.298985
 0.915000   1.720536   -221.855200
 0.920000   0.589803   -230.428888
 0.925000   -0.583752   -237.688839
 0.930000   -1.787085   -242.543787
 0.935000   -3.009190   -250.526900
 0.940000   -4.292354   -268.419519
 0.945000   -5.693386   -293.357399
 0.950000   -7.225928   -336.052517
 0.955000   -9.053911   -402.730727
 0.960000   -11.253235   -472.238865
 0.965000   -13.776299   -518.956752
 0.970000   -16.442803   -502.199301
 0.975000   -18.798292   -355.015580
 0.980000   -19.992959   -89.044892
 0.985000   -19.688741   227.391259
 0.990000   -17.719046   535.552976
 0.995000   -14.333212   752.871407
 1.000000   -10.190332   904.280378
201 psinorm er(kV/m) der/dpsiN
 0.000000   1.198429   1039.609745
 0.005000   5.445431   659.191116
 0.010000   7.790340   416.667002
 0.015000   9.612101   335.175364
 0.020000   11.142093   288.165955
 0.025000   12.493760   257.380451
 0.030000   13.715898   234.227611
 0.035000   14.836037   215.303066
 0.040000   15.868929   199.712400
 0.045000   16.833161   187.028955
 0.050000   17.739218   175.486182
 0.055000   18.588022   164.604897
 0.060000   19.385267   154.260473
 0.065000   20.130627   147.920961
 0.070000   20.864477   141.936682
 0.075000   21.549994   131.914866
 0.080000   22.183625   127.494461
 0.085000   22.824938   122.606032
 0.090000   23.409686   115.083085
 0.095000   23.975769   111.367847
 0.100000   24.523364   103.687241
 0.105000   25.012642   100.177155
 0.110000   25.525136   93.631928
 0.115000   25.948961   89.270737
 0.120000   26.417843   84.475472
 0.125000   26.793716   80.098614
 0.130000   27.218829   75.603035
 0.135000   27.549746   72.286995
 0.140000   27.941699   67.960467
 0.145000   28.229351   64.206400
 0.150000   28.583763   62.249873
 0.155000   28.851849   57.002761
 0.160000   29.153791   55.995018
 0.165000   29.411800   50.218196
 0.170000   29.655973   49.556896
 0.175000   29.907369   43.750436
 0.180000   30.093477   42.585259
 0.185000   30.333221   38.225808
 0.190000   30.475735   33.665148
 0.195000   30.669873   34.978684
 0.200000   30.825522   27.442408
 0.205000   30.944297   27.670928
 0.210000   31.102231   21.852226
 0.215000   31.162819   18.092114
 0.220000   31.283152   21.082191
 0.225000   31.373641   13.636548
 0.230000   31.419518   14.040781
 0.235000   31.514049   12.095389
 0.240000   31.540472   7.517821
 0.245000   31.589227   12.223756
 0.250000   31.662709   6.331569
 0.255000   31.652543   5.323337
 0.260000   31.715943   11.151321
 0.265000   31.764056   5.072950
 0.270000   31.766672   6.301094
 0.275000   31.827067   9.536812
 0.280000   31.862040   5.001325
 0.285000   31.877080   7.155904
 0.290000   31.933599   7.934417
 0.295000   31.956424   4.147789
 0.300000   31.975077   6.289664
 0.305000   32.019321   4.537637
 0.310000   32.020454   -0.176749
 0.315000   32.017553   0.820514
 0.320000   32.028659   -1.813242
 0.325000   31.999421   -6.230993
 0.330000   31.966349   -5.619313
 0.335000   31.943228   -7.804290
 0.340000   31.888306   -11.320684
 0.345000   31.830021   -10.122023
 0.350000   31.787086   -10.725713
 0.355000   31.722764   -13.771604
 0.360000   31.649370   -12.952020
 0.365000   31.593244   -12.029114
 0.370000   31.529079   -13.942637
 0.375000   31.453817   -12.652501
 0.380000   31.402554   -10.579356
 0.385000   31.348024   -12.633665
 0.390000   31.276217   -11.648123
 0.395000   31.231543   -8.725144
 0.400000   31.188966   -11.093942
 0.405000   31.120603   -11.757602
 0.410000   31.071390   -10.788469
 0.415000   31.012718   -14.880995
 0.420000   30.922580   -19.031628
 0.425000   30.822402   -22.838377
 0.430000   30.694196   -29.497461
 0.435000   30.527428   -37.529274
 0.440000   30.318903   -44.891041
 0.445000   30.078517   -51.542872
 0.450000   29.803474   -58.762698
 0.455000   29.490890   -64.402046
 0.460000   29.159454   -67.732452
 0.465000   28.813566   -70.641366
 0.470000   28.453040   -70.876654
 0.475000   28.104799   -67.546417
 0.480000   27.777576   -63.169048
 0.485000   27.473109   -58.022198
 0.490000   27.197354   -50.964534
 0.495000   26.963463   -42.743400
 0.500000   26.769920   -35.984997
 0.505000   26.603613   -30.055549
 0.510000   26.469365   -24.792138
 0.515000   26.355692   -21.767245
 0.520000   26.251692   -20.345993
 0.525000   26.152232   -19.493761
 0.530000   26.056755   -19.504871
 0.535000   25.957183   -21.216766
 0.540000   25.844587   -22.912389
 0.545000   25.728059   -24.134232
 0.550000   25.603245   -26.287741
 0.555000   25.465182   -28.833569
 0.560000   25.314909   -30.593135
 0.565000   25.159251   -31.783120
 0.570000   24.997078   -33.595146
 0.575000   24.823299   -34.650708
 0.580000   24.650571   -34.746597
 0.585000   24.475833   -35.491403
 0.590000   24.295657   -36.450704
 0.595000   24.111326   -36.902228
 0.600000   23.926634   -37.416931
 0.605000   23.737157   -39.324004
 0.610000   23.533394   -41.018132
 0.615000   23.326975   -42.178675
 0.620000   23.111607   -44.376805
 0.625000   22.883207   -47.117613
 0.630000   22.640431   -49.331285
 0.635000   22.389895   -51.233578
 0.640000   22.128096   -54.037776
 0.645000   21.849517   -56.306569
 0.650000   21.565030   -57.623812
 0.655000   21.273279   -59.441900
 0.660000   20.970611   -62.135064
 0.665000   20.651928   -64.379327
 0.670000   20.326818   -66.169422
 0.675000   19.990234   -69.233187
 0.680000   19.634486   -72.660419
 0.685000   19.263630   -75.143742
 0.690000   18.883048   -77.217729
 0.695000   18.491452   -80.405339
 0.700000   18.078995   -81.667857
 0.705000   17.674774   -80.937020
 0.710000   17.269625   -81.316789
 0.715000   16.861606   -81.892654
 0.720000   16.450698   -81.159811
 0.725000   16.050008   -79.748707
 0.730000   15.653211   -78.469120
 0.735000   15.265317   -76.328329
 0.740000   14.889928   -73.391224
 0.745000   14.531404   -70.294138
 0.750000   14.186986   -68.342238
 0.755000   13.847982   -64.840512
 0.760000   13.538581   -60.406009
 0.765000   13.243922   -57.638900
 0.770000   12.962192   -55.558845
 0.775000   12.688333   -52.830589
 0.780000   12.433886   -49.704732
 0.785000   12.191286   -47.519570
 0.790000   11.958691   -46.817524
 0.795000   11.723111   -46.819269
 0.800000   11.490498   -46.911749
 0.805000   11.253993   -48.503022
 0.810000   11.005468   -50.127325
 0.815000   10.752720   -51.036866
 0.820000   10.495099   -51.913458
 0.825000   10.233586   -53.184626
 0.830000   9.963253   -53.705319
 0.835000   9.696532   -53.591333
 0.840000   9.427340   -54.369519
 0.845000   9.152837   -56.041678
 0.850000   8.866923   -58.280626
 0.855000   8.570031   -61.414834
 0.860000   8.252774   -66.515858
 0.865000   7.904872   -73.399815
 0.870000   7.518776   -81.290658
 0.875000   7.091966   -90.879707
 0.880000   6.609979   -102.123176
 0.885000   6.070734   -112.928741
 0.890000   5.480692   -124.059335
 0.895000   4.830141   -137.203292
 0.900000   4.108659   -151.609543
 0.905000   3.314045   -166.574028
 0.910000   2.442919   -181.456804
 0.915000   1.499477   -192.599063
 0.920000   0.516928   -200.898392
 0.925000   -0.509507   -207.381797
 0.930000   -1.556890   -211.232478
 0.935000   -2.621832   -218.966739
 0.940000   -3.746557   -236.065420
 0.945000   -4.982486   -257.381139
 0.950000   -6.320369   -293.261304
 0.955000   -7.915099   -356.458543
 0.960000   -9.884954   -425.009111
 0.965000   -12.165190   -464.518242
 0.970000   -14.530137   -445.205370
 0.975000   -16.617244   -342.472358
 0.980000   -17.954860   -125.270084
 0.985000   -17.869944   183.924484
 0.990000   -16.115615   480.845294
 0.995000   -13.061492   686.726249
 1.000000   -9.248353   838.529209
201 psinorm ommvb() dommvb/dpsiN
 0.000000   38.146316   23076.752535
 0.005000   132.881993   14817.518096
 0.010000   186.321497   9813.047611
 0.015000   231.012469   8342.615785
 0.020000   269.747655   7020.485453
 0.025000   301.217323   5795.158570
 0.030000   327.699241   4944.450256
 0.035000   350.661826   4442.973336
 0.040000   372.128974   4014.999554
 0.045000   390.811821   3543.609762
 0.050000   407.565072   3244.622828
 0.055000   423.258050   2813.424401
 0.060000   435.699316   2403.392645
 0.065000   447.291976   2132.253147
 0.070000   457.021847   1847.054736
 0.075000   465.762523   1629.169177
 0.080000   473.313539   1388.656876
 0.085000   479.649092   1158.356609
 0.090000   484.897105   887.980085
 0.095000   488.528893   692.686103
 0.100000   491.823966   539.741552
 0.105000   493.926309   323.563576
 0.110000   495.059602   181.976802
 0.115000   495.746077   62.168553
 0.120000   495.681287   -152.988880
 0.125000   494.216188   -315.648340
 0.130000   492.524804   -396.220019
 0.135000   490.253988   -496.850275
 0.140000   487.556301   -578.644185
 0.145000   484.467546   -712.434049
 0.150000   480.431961   -861.034024
 0.155000   475.857206   -959.598467
 0.160000   470.835976   -1048.296156
 0.165000   465.374244   -1128.438691
 0.170000   459.551589   -1201.921474
 0.175000   453.355029   -1267.187514
 0.180000   446.879714   -1425.566829
 0.185000   439.099361   -1507.203640
 0.190000   431.807677   -1453.440278
 0.195000   424.564958   -1460.236305
 0.200000   417.205314   -1480.116300
 0.205000   409.763795   -1493.034517
 0.210000   402.274969   -1502.527496
 0.215000   394.738520   -1505.626150
 0.220000   387.218708   -1499.708263
 0.225000   379.741438   -1593.750166
 0.230000   371.281206   -1703.106832
 0.235000   362.710369   -1566.696661
 0.240000   355.614239   -1403.387421
 0.245000   348.676495   -1372.421077
 0.250000   341.890029   -1340.357717
 0.255000   335.272918   -1303.443942
 0.260000   328.855589   -1501.201659
 0.265000   320.260901   -1440.842667
 0.270000   314.447163   -1124.156251
 0.275000   309.019339   -1066.385844
 0.280000   303.783304   -1033.899880
 0.285000   298.680340   -1113.257424
 0.290000   292.650730   -1171.881213
 0.295000   286.961528   -994.205956
 0.300000   282.708670   -829.789707
 0.305000   278.663631   -789.506465
 0.310000   274.813606   -840.021012
 0.315000   270.263421   -878.279721
 0.320000   266.030808   -721.792433
 0.325000   263.045496   -595.054406
 0.330000   260.080264   -590.173076
 0.335000   257.143766   -656.764103
 0.340000   253.512623   -607.362861
 0.345000   251.070137   -436.513655
 0.350000   249.147487   -372.016359
 0.355000   247.349973   -378.933391
 0.360000   245.358153   -430.341692
 0.365000   243.046556   -352.358818
 0.370000   241.834565   -231.836336
 0.375000   240.728193   -210.490932
 0.380000   239.729655   -276.501672
 0.385000   237.963176   -239.624455
 0.390000   237.333411   -112.005616
 0.395000   236.843120   -93.853075
 0.400000   236.394880   -141.730921
 0.405000   235.425811   -153.270712
 0.410000   234.862173   -80.870171
 0.415000   234.617109   -48.437562
 0.420000   234.377797   -84.311776
 0.425000   233.773991   -122.615459
 0.430000   233.151643   -86.303391
 0.435000   232.910958   -51.724529
 0.440000   232.634398   -84.032416
 0.445000   232.070633   -133.564117
 0.450000   231.298756   -103.455266
 0.455000   231.036081   -54.179316
 0.460000   230.756963   -72.508435
 0.465000   230.310996   -117.505787
 0.470000   229.581905   -89.046478
 0.475000   229.420532   -26.981596
 0.480000   229.312089   -23.832143
 0.485000   229.182210   -57.190474
 0.490000   228.740185   -27.777158
 0.495000   228.904439   39.916633
 0.500000   229.139351   51.029756
 0.505000   229.414736   13.005981
 0.510000   229.269411   27.960318
 0.515000   229.694339   86.608658
 0.520000   230.135497   88.795749
 0.525000   230.582297   31.814410
 0.530000   230.453641   40.630515
 0.535000   230.988602   110.265095
 0.540000   231.556292   113.014998
 0.545000   232.118752   77.030437
 0.550000   232.326597   73.588944
 0.555000   232.854641   118.583521
 0.560000   233.512432   134.083794
 0.565000   234.195479   120.022837
 0.570000   234.712660   117.381851
 0.575000   235.369298   154.575388
 0.580000   236.258414   182.101513
 0.585000   237.190313   182.348463
 0.590000   238.081899   185.619848
 0.595000   239.046511   221.819756
 0.600000   240.300096   256.196698
 0.605000   241.608478   267.555054
 0.610000   242.975647   277.617258
 0.615000   244.384651   307.547513
 0.620000   246.051122   347.021147
 0.625000   247.854863   373.023054
 0.630000   249.781353   399.054723
 0.635000   251.845410   432.786637
 0.640000   254.109219   468.737899
 0.645000   256.532789   499.133850
 0.650000   259.100557   528.761395
 0.655000   261.820403   576.591708
 0.660000   264.866475   614.901264
 0.665000   267.969415   634.509445
 0.670000   271.211569   664.438199
 0.675000   274.613797   695.287050
 0.680000   278.164439   763.337663
 0.685000   282.247174   803.453454
 0.690000   286.198974   815.037298
 0.695000   290.397547   863.771257
 0.700000   294.836687   911.626346
 0.705000   299.513810   999.397045
 0.710000   304.830657   1053.622574
 0.715000   310.050036   1073.169405
 0.720000   315.562351   1131.905273
 0.725000   321.369089   1189.735848
 0.730000   327.459710   1277.197370
 0.735000   334.141063   1346.673120
 0.740000   340.926441   1377.443196
 0.745000   347.915495   1427.563367
 0.750000   355.202074   1487.373286
 0.755000   362.789227   1550.662722
 0.760000   370.708702   1622.698554
 0.765000   379.016213   1666.311075
 0.770000   387.371812   1711.910151
 0.775000   396.135314   1792.100838
 0.780000   405.292821   1869.327849
 0.785000   414.828593   1944.994752
 0.790000   424.742768   2007.763227
 0.795000   434.906225   2071.087130
 0.800000   445.453640   2155.255202
 0.805000   456.458777   2250.570663
 0.810000   467.959346   2351.561574
 0.815000   479.974393   2455.623626
 0.820000   492.515583   2561.804574
 0.825000   505.592439   2617.739747
 0.830000   518.692980   2722.510157
 0.835000   532.817540   2887.637292
 0.840000   547.569353   3019.521388
 0.845000   563.012754   3160.138493
 0.850000   579.170738   3306.559391
 0.855000   596.078348   3460.165603
 0.860000   613.772394   3613.175446
 0.865000   632.210103   3704.430094
 0.870000   650.816695   3788.851529
 0.875000   670.098618   4012.869793
 0.880000   690.945393   4265.797549
 0.885000   712.756593   4471.762591
 0.890000   735.663019   4705.434707
 0.895000   759.810940   4965.611975
 0.900000   785.319138   5252.021162
 0.905000   812.331152   5588.319276
 0.910000   841.202331   6122.728049
 0.915000   873.558432   7265.985228
 0.920000   913.862183   9365.579588
 0.925000   967.214228   12486.549450
 0.930000   1038.727678   16915.537758
 0.935000   1136.369606   23287.564966
 0.940000   1271.603328   32653.330911
 0.945000   1462.902915   46302.535702
 0.950000   1734.628685   63686.709964
 0.955000   2099.770015   78843.832828
 0.960000   2523.067013   84780.952389
 0.965000   2947.579539   78758.618013
 0.970000   3310.653193   70005.180710
 0.975000   3647.631346   79555.634808
 0.980000   4106.209541   103153.448887
 0.985000   4679.165835   96344.218256
 0.990000   5069.651724   39692.530369
 0.995000   5076.091138   277175.612429
 1.000000   7841.407848   828951.071452
201 psinorm ommpp() dommpp/dpsiN
 0.000000   23.019708   -22988.958565
 0.005000   -71.404521   -14780.732815
 0.010000   -124.787620   -9804.275301
 0.015000   -169.447274   -8337.690422
 0.020000   -208.164524   -7018.268363
 0.025000   -239.629957   -5796.162787
 0.030000   -266.126152   -4949.698945
 0.035000   -289.126947   -4452.708748
 0.040000   -310.653240   -4028.970208
 0.045000   -329.416649   -3561.682737
 0.050000   -346.270067   -3266.199866
 0.055000   -362.078647   -2837.606632
 0.060000   -374.646133   -2429.502409
 0.065000   -386.373671   -2159.909788
 0.070000   -396.245231   -1875.899780
 0.075000   -405.132669   -1659.129468
 0.080000   -412.836526   -1419.854218
 0.085000   -419.331211   -1190.845689
 0.090000   -424.744983   -922.313667
 0.095000   -428.554348   -729.329812
 0.100000   -432.038281   -578.769913
 0.105000   -434.342047   -365.126512
 0.110000   -435.689546   -226.103134
 0.115000   -436.603079   -108.798411
 0.120000   -436.777530   103.973140
 0.125000   -435.563347   264.733178
 0.130000   -434.130198   344.014715
 0.135000   -432.123200   443.628607
 0.140000   -429.693912   524.575651
 0.145000   -426.877443   657.749185
 0.150000   -423.116421   805.495668
 0.155000   -418.822487   903.004123
 0.160000   -414.086379   990.748556
 0.165000   -408.915001   1069.962617
 0.170000   -403.386753   1142.443229
 0.175000   -397.490569   1206.696235
 0.180000   -391.319791   1363.910532
 0.185000   -383.851464   1444.142235
 0.190000   -376.878368   1389.061299
 0.195000   -369.960851   1394.415348
 0.200000   -362.934215   1412.882817
 0.205000   -355.832022   1424.182182
 0.210000   -348.692393   1432.158698
 0.215000   -341.510435   1434.422441
 0.220000   -334.348169   1427.913909
 0.225000   -327.231296   1521.688719
 0.230000   -319.131282   1631.035470
 0.235000   -310.920942   1494.224772
 0.240000   -304.189034   1331.345648
 0.245000   -297.607485   1301.999411
 0.250000   -291.169040   1271.621305
 0.255000   -284.891272   1236.628683
 0.260000   -278.802753   1436.390288
 0.265000   -270.527369   1378.089616
 0.270000   -265.021857   1063.792271
 0.275000   -259.889447   1008.317892
 0.280000   -254.938678   977.852987
 0.285000   -250.110917   1059.045247
 0.290000   -244.348225   1119.056626
 0.295000   -238.920350   942.712745
 0.300000   -234.921098   779.030310
 0.305000   -231.130047   737.994240
 0.310000   -227.541155   787.243677
 0.315000   -223.257611   824.232680
 0.320000   -219.298829   666.311537
 0.325000   -216.594495   538.160510
 0.330000   -213.917224   531.756479
 0.335000   -211.276930   597.276284
 0.340000   -207.944461   547.556765
 0.345000   -205.801363   376.660215
 0.350000   -204.177859   312.425796
 0.355000   -202.677105   319.702936
 0.360000   -200.980829   371.340871
 0.365000   -198.963696   294.585396
 0.370000   -198.034975   175.999641
 0.375000   -197.203700   156.322720
 0.380000   -196.471748   223.983750
 0.385000   -194.963862   188.768589
 0.390000   -194.584062   63.157874
 0.395000   -194.332283   46.793185
 0.400000   -194.116130   95.724267
 0.405000   -193.375041   107.733736
 0.410000   -193.038793   34.363904
 0.415000   -193.031402   -0.758870
 0.420000   -193.046382   31.505819
 0.425000   -192.716344   63.828011
 0.430000   -192.408102   19.652877
 0.435000   -192.519815   -23.156991
 0.440000   -192.639671   -0.162625
 0.445000   -192.521441   40.518477
 0.450000   -192.234487   3.407973
 0.455000   -192.487361   -52.104956
 0.460000   -192.755536   -38.492019
 0.465000   -192.872281   4.688990
 0.470000   -192.708646   -22.508453
 0.475000   -193.097366   -80.237981
 0.480000   -193.511026   -76.906141
 0.485000   -193.866427   -35.207175
 0.490000   -193.863098   -54.947047
 0.495000   -194.415898   -112.252492
 0.500000   -194.985623   -113.189696
 0.505000   -195.547795   -66.786443
 0.510000   -195.653487   -75.445830
 0.515000   -196.302253   -129.509814
 0.520000   -196.948585   -128.851769
 0.525000   -197.590771   -70.650859
 0.530000   -197.655094   -79.570956
 0.535000   -198.386480   -150.220000
 0.540000   -199.157294   -154.558958
 0.545000   -199.932070   -120.459537
 0.550000   -200.361889   -119.014188
 0.555000   -201.122212   -166.302532
 0.560000   -202.024915   -183.936681
 0.565000   -202.961579   -171.385531
 0.570000   -203.738770   -169.901310
 0.575000   -204.660592   -207.927512
 0.580000   -205.818045   -235.942524
 0.585000   -207.020017   -236.464074
 0.590000   -208.182686   -240.070058
 0.595000   -209.420718   -276.804330
 0.600000   -210.950729   -311.976964
 0.605000   -212.540487   -324.555301
 0.610000   -214.196282   -336.236490
 0.615000   -215.902852   -368.081618
 0.620000   -217.877098   -409.708365
 0.625000   -219.999936   -438.141358
 0.630000   -222.258512   -466.798118
 0.635000   -224.667917   -503.143181
 0.640000   -227.289944   -541.476629
 0.645000   -230.082683   -574.064221
 0.650000   -233.030586   -605.714579
 0.655000   -236.139829   -655.481587
 0.660000   -239.585402   -695.981707
 0.665000   -243.099646   -718.117962
 0.670000   -246.766581   -750.685280
 0.675000   -250.606499   -784.414106
 0.680000   -254.610723   -855.810427
 0.685000   -259.164603   -899.140295
 0.690000   -263.602125   -913.402509
 0.695000   -268.298628   -964.665248
 0.700000   -273.248778   -1013.630480
 0.705000   -278.434933   -1101.261970
 0.710000   -284.261398   -1155.456136
 0.715000   -289.989494   -1174.577698
 0.720000   -296.007175   -1232.442853
 0.725000   -302.313923   -1289.187660
 0.730000   -308.899051   -1374.208298
 0.735000   -316.056006   -1440.397049
 0.740000   -323.303022   -1468.140333
 0.745000   -330.737409   -1514.878971
 0.750000   -338.451811   -1571.095696
 0.755000   -346.448366   -1629.916596
 0.760000   -354.750977   -1697.595219
 0.765000   -363.424318   -1737.638963
 0.770000   -372.127367   -1779.751203
 0.775000   -381.221830   -1856.772241
 0.780000   -390.695089   -1931.019330
 0.785000   -400.532024   -2003.506160
 0.790000   -410.730151   -2064.786087
 0.795000   -421.179885   -2128.413643
 0.800000   -432.014287   -2213.048364
 0.805000   -443.310368   -2309.444235
 0.810000   -455.108730   -2411.968165
 0.815000   -467.430050   -2517.579803
 0.820000   -480.284528   -2624.837863
 0.825000   -493.678429   -2681.375962
 0.830000   -507.098287   -2786.603859
 0.835000   -521.544467   -2952.189120
 0.840000   -536.620179   -3084.682394
 0.845000   -552.391291   -3226.602853
 0.850000   -568.886207   -3375.636399
 0.855000   -586.147655   -3533.233723
 0.860000   -604.218544   -3691.730315
 0.865000   -623.064958   -3790.470339
 0.870000   -642.123248   -3884.136130
 0.875000   -661.906320   -4119.401004
 0.880000   -683.317258   -4384.711219
 0.885000   -705.753432   -4602.758174
 0.890000   -729.344840   -4849.493970
 0.895000   -754.248371   -5124.797793
 0.900000   -780.592818   -5426.925437
 0.905000   -808.517626   -5780.115840
 0.910000   -838.393976   -6332.027034
 0.915000   -871.837896   -7487.840428
 0.920000   -913.272380   -9596.008476
 0.925000   -967.797981   -12724.238289
 0.930000   -1040.514763   -17158.081545
 0.935000   -1139.378796   -23538.091866
 0.940000   -1275.895682   -32921.750429
 0.945000   -1468.596301   -46595.893100
 0.950000   -1741.854613   -64022.762481
 0.955000   -2108.823925   -79246.563555
 0.960000   -2534.320248   -85253.191254
 0.965000   -2961.355838   -79277.574765
 0.970000   -3327.095996   -70507.380010
 0.975000   -3666.429638   -79910.650388
 0.980000   -4126.202500   -103242.493779
 0.985000   -4698.854576   -96116.826997
 0.990000   -5087.370770   -39156.977393
 0.995000   -5090.424350   -276422.741022
 1.000000   -7851.598180   -828046.791074
201 psinorm omevb() domevb/dpsiN
 0.000000   30.281865   112.892465
 0.005000   30.738894   69.919313
 0.010000   30.981058   45.863949
 0.015000   31.197534   41.896407
 0.020000   31.400022   39.067006
 0.025000   31.588204   35.724048
 0.030000   31.757262   31.357411
 0.035000   31.901778   26.748017
 0.040000   32.024743   22.389610
 0.045000   32.125674   18.163639
 0.050000   32.206379   14.535449
 0.055000   32.271028   11.805661
 0.060000   32.324436   9.753075
 0.065000   32.368559   8.080696
 0.070000   32.405243   6.766352
 0.075000   32.436223   5.524733
 0.080000   32.460490   4.160891
 0.085000   32.477832   2.741949
 0.090000   32.487909   0.769840
 0.095000   32.485530   -1.668288
 0.100000   32.471226   -4.181325
 0.105000   32.443717   -6.844660
 0.110000   32.402780   -9.537184
 0.115000   32.348345   -12.170195
 0.120000   32.281078   -14.685911
 0.125000   32.201486   -16.715506
 0.130000   32.113923   -18.136152
 0.135000   32.020124   -19.283342
 0.140000   31.921089   -20.261347
 0.145000   31.817511   -21.009122
 0.150000   31.710998   -21.994353
 0.155000   31.597567   -23.182368
 0.160000   31.479175   -24.267929
 0.165000   31.354888   -25.328979
 0.170000   31.225885   -26.463987
 0.175000   31.090248   -27.610109
 0.180000   30.949784   -28.908460
 0.185000   30.801164   -30.447137
 0.190000   30.645312   -31.898508
 0.195000   30.482178   -33.474501
 0.200000   30.310567   -35.021254
 0.205000   30.131966   -36.774533
 0.210000   29.942822   -38.425619
 0.215000   29.747710   -39.395338
 0.220000   29.548869   -40.120969
 0.225000   29.346500   -40.523217
 0.230000   29.143636   -40.668450
 0.235000   28.939816   -41.204447
 0.240000   28.731592   -40.909946
 0.245000   28.530716   -39.425592
 0.250000   28.337336   -37.876222
 0.255000   28.151954   -36.091073
 0.260000   27.976425   -34.223303
 0.265000   27.809721   -32.301207
 0.270000   27.653413   -30.048460
 0.275000   27.509236   -27.888846
 0.280000   27.374525   -26.004283
 0.285000   27.249193   -24.306139
 0.290000   27.131463   -23.055189
 0.295000   27.018641   -21.860514
 0.300000   26.912858   -21.263454
 0.305000   26.806007   -22.153081
 0.310000   26.691327   -23.555029
 0.315000   26.570457   -24.961604
 0.320000   26.441711   -26.532351
 0.325000   26.305133   -28.082262
 0.330000   26.160889   -29.741881
 0.335000   26.007714   -30.950024
 0.340000   25.851389   -31.405217
 0.345000   25.693662   -31.589466
 0.350000   25.535494   -31.463476
 0.355000   25.379027   -31.240227
 0.360000   25.223092   -31.147422
 0.365000   25.067553   -30.056812
 0.370000   24.922523   -28.256828
 0.375000   24.784985   -26.725037
 0.380000   24.655273   -25.211379
 0.385000   24.532871   -23.685888
 0.390000   24.418414   -21.814257
 0.395000   24.314729   -20.162821
 0.400000   24.216786   -19.245916
 0.405000   24.122269   -18.912476
 0.410000   24.027661   -20.017907
 0.415000   23.922090   -22.844109
 0.420000   23.799220   -26.589561
 0.425000   23.656195   -32.706862
 0.430000   23.472152   -40.705614
 0.435000   23.249139   -49.072181
 0.440000   22.981430   -58.521125
 0.445000   22.663927   -67.507008
 0.450000   22.306360   -74.643799
 0.455000   21.917489   -81.015763
 0.460000   21.496202   -85.866773
 0.465000   21.058822   -87.817779
 0.470000   20.618024   -86.690408
 0.475000   20.191918   -82.489374
 0.480000   19.793130   -76.142219
 0.485000   19.430495   -67.935537
 0.490000   19.113775   -58.395854
 0.495000   18.846537   -48.141072
 0.500000   18.632364   -38.098517
 0.505000   18.465552   -29.852194
 0.510000   18.333842   -23.690187
 0.515000   18.228650   -19.238555
 0.520000   18.141457   -16.525920
 0.525000   18.063391   -15.438623
 0.530000   17.987071   -15.674655
 0.535000   17.906644   -16.820921
 0.540000   17.818861   -18.541536
 0.545000   17.721229   -20.557988
 0.550000   17.613282   -22.685193
 0.555000   17.494377   -25.109762
 0.560000   17.362184   -27.374178
 0.565000   17.220635   -29.014260
 0.570000   17.072041   -30.301027
 0.575000   16.917625   -31.263420
 0.580000   16.759407   -31.881755
 0.585000   16.598807   -32.285517
 0.590000   16.436552   -32.748990
 0.595000   16.271317   -33.411935
 0.600000   16.102433   -34.335911
 0.605000   15.927958   -35.683875
 0.610000   15.745594   -37.430536
 0.615000   15.553653   -39.472776
 0.620000   15.350866   -41.752944
 0.625000   15.136123   -44.310765
 0.630000   14.907758   -47.062271
 0.635000   14.665501   -49.801508
 0.640000   14.409743   -52.309453
 0.645000   14.142406   -54.626521
 0.650000   13.863478   -56.774423
 0.655000   13.574662   -58.835869
 0.660000   13.275120   -61.150838
 0.665000   12.963153   -63.802970
 0.670000   12.637090   -66.565241
 0.675000   12.297501   -69.568569
 0.680000   11.941404   -73.037271
 0.685000   11.567128   -76.373983
 0.690000   11.177664   -79.174623
 0.695000   10.775382   -81.825305
 0.700000   10.359411   -83.056979
 0.705000   9.944812   -83.038928
 0.710000   9.529022   -83.128345
 0.715000   9.113529   -82.823477
 0.720000   8.700787   -82.072781
 0.725000   8.292801   -81.106645
 0.730000   7.889721   -78.785005
 0.735000   7.504951   -75.616858
 0.740000   7.133552   -72.708523
 0.745000   6.777866   -69.445051
 0.750000   6.439102   -65.969518
 0.755000   6.118171   -61.618240
 0.760000   5.822919   -57.377883
 0.765000   5.544392   -53.925551
 0.770000   5.283664   -50.554749
 0.775000   5.038844   -47.500719
 0.780000   4.808657   -44.635999
 0.785000   4.592484   -41.570704
 0.790000   4.392950   -40.196506
 0.795000   4.190519   -40.614070
 0.800000   3.986809   -41.194179
 0.805000   3.778577   -42.387579
 0.810000   3.562933   -44.033088
 0.815000   3.338247   -45.694616
 0.820000   3.105987   -46.883049
 0.825000   2.869416   -47.596555
 0.830000   2.630021   -48.163693
 0.835000   2.387779   -48.730249
 0.840000   2.142719   -49.446184
 0.845000   1.893317   -50.853920
 0.850000   1.634180   -53.567528
 0.855000   1.357642   -57.654629
 0.860000   1.057633   -63.230188
 0.865000   0.725340   -70.794214
 0.870000   0.349691   -80.103355
 0.875000   -0.075693   -91.397060
 0.880000   -0.564279   -103.806857
 0.885000   -1.113762   -115.900852
 0.890000   -1.723288   -128.983489
 0.895000   -2.403597   -144.199760
 0.900000   -3.165286   -160.235090
 0.905000   -4.005948   -178.024795
 0.910000   -4.945533   -197.767429
 0.915000   -5.983622   -215.503873
 0.920000   -7.100572   -235.483741
 0.925000   -8.338459   -267.061006
 0.930000   -9.771182   -322.661594
 0.935000   -11.565075   -435.051206
 0.940000   -14.121694   -665.592240
 0.945000   -18.220998   -1119.138229
 0.950000   -25.313077   -2009.184258
 0.955000   -38.312840   -3671.819679
 0.960000   -62.031273   -6374.980190
 0.965000   -102.062642   -9346.736869
 0.970000   -155.498642   -9030.656627
 0.975000   -192.369209   -1992.608190
 0.980000   -175.424724   6917.399769
 0.985000   -123.195211   9902.974845
 0.990000   -76.394976   7713.277621
 0.995000   -46.062435   4861.103826
 1.000000   -27.783937   2450.295115
201 psinorm omepp() domepp/dpsiN
 0.000000   30.884159   -25.098496
 0.005000   30.738578   -33.134033
 0.010000   30.552819   -37.091639
 0.015000   30.367662   -36.971044
 0.020000   30.183108   -36.849916
 0.025000   29.999162   -36.728265
 0.030000   29.815826   -36.606100
 0.035000   29.633101   -36.483430
 0.040000   29.450992   -36.360265
 0.045000   29.269499   -36.236614
 0.050000   29.088625   -36.112486
 0.055000   28.908374   -35.987891
 0.060000   28.728746   -35.862838
 0.065000   28.549745   -35.737337
 0.070000   28.371373   -35.611396
 0.075000   28.193632   -35.485025
 0.080000   28.016523   -35.358233
 0.085000   27.840049   -35.231028
 0.090000   27.664213   -35.103422
 0.095000   27.489015   -34.975421
 0.100000   27.314458   -34.847036
 0.105000   27.140545   -34.718275
 0.110000   26.967276   -34.589148
 0.115000   26.794653   -34.459663
 0.120000   26.622679   -34.329830
 0.125000   26.451355   -34.199656
 0.130000   26.280682   -34.069152
 0.135000   26.110663   -33.938326
 0.140000   25.941299   -33.807186
 0.145000   25.772591   -33.675742
 0.150000   25.604542   -33.544003
 0.155000   25.437151   -33.411976
 0.160000   25.270422   -33.279670
 0.165000   25.104355   -33.147095
 0.170000   24.938951   -33.014259
 0.175000   24.774212   -32.881170
 0.180000   24.610139   -32.747836
 0.185000   24.446734   -32.614267
 0.190000   24.283997   -32.480471
 0.195000   24.121929   -32.346455
 0.200000   23.960532   -32.212229
 0.205000   23.799807   -32.077801
 0.210000   23.639754   -31.943179
 0.215000   23.480375   -31.808371
 0.220000   23.321670   -31.673385
 0.225000   23.163641   -31.538229
 0.230000   23.006288   -31.402913
 0.235000   22.849612   -31.267442
 0.240000   22.693614   -31.131827
 0.245000   22.538294   -30.996073
 0.250000   22.383653   -30.860191
 0.255000   22.229692   -30.724186
 0.260000   22.076411   -30.588068
 0.265000   21.923811   -30.451843
 0.270000   21.771893   -30.315520
 0.275000   21.620656   -30.179107
 0.280000   21.470102   -30.042610
 0.285000   21.320230   -29.906038
 0.290000   21.171041   -29.769398
 0.295000   21.022536   -29.632697
 0.300000   20.874714   -29.495943
 0.305000   20.727576   -29.359144
 0.310000   20.581123   -29.222306
 0.315000   20.435353   -29.085437
 0.320000   20.290268   -28.948544
 0.325000   20.145868   -28.811635
 0.330000   20.002152   -28.674717
 0.335000   19.859121   -28.537795
 0.340000   19.716774   -28.400879
 0.345000   19.575112   -28.263974
 0.350000   19.434134   -28.127088
 0.355000   19.293841   -27.990227
 0.360000   19.154232   -27.853399
 0.365000   19.015307   -27.716610
 0.370000   18.877066   -27.579866
 0.375000   18.739508   -27.443175
 0.380000   18.602634   -27.306544
 0.385000   18.466443   -27.169978
 0.390000   18.330934   -27.033484
 0.395000   18.196108   -26.897069
 0.400000   18.061964   -26.760739
 0.405000   17.928501   -26.624500
 0.410000   17.795719   -26.488359
 0.415000   17.663617   -26.352323
 0.420000   17.532196   -26.216396
 0.425000   17.401453   -26.080586
 0.430000   17.271390   -25.944899
 0.435000   17.142004   -25.809340
 0.440000   17.013296   -25.673916
 0.445000   16.885265   -25.538632
 0.450000   16.757910   -25.403494
 0.455000   16.631230   -25.268509
 0.460000   16.505225   -25.133682
 0.465000   16.379893   -24.999018
 0.470000   16.255235   -24.864524
 0.475000   16.131248   -24.730204
 0.480000   16.007933   -24.596065
 0.485000   15.885287   -24.462112
 0.490000   15.763312   -24.328351
 0.495000   15.642004   -24.194786
 0.500000   15.521364   -24.061424
 0.505000   15.401390   -23.928269
 0.510000   15.282081   -23.795326
 0.515000   15.163436   -23.662602
 0.520000   15.045455   -23.530100
 0.525000   14.928135   -23.397826
 0.530000   14.811477   -23.265786
 0.535000   14.695478   -23.133983
 0.540000   14.580137   -23.002423
 0.545000   14.465453   -22.871111
 0.550000   14.351426   -22.740052
 0.555000   14.238053   -22.609249
 0.560000   14.125333   -22.478709
 0.565000   14.013266   -22.348435
 0.570000   13.901849   -22.218432
 0.575000   13.791081   -22.088704
 0.580000   13.680962   -21.959257
 0.585000   13.571489   -21.830094
 0.590000   13.462661   -21.701220
 0.595000   13.354477   -21.572638
 0.600000   13.246935   -21.444355
 0.605000   13.140033   -21.316372
 0.610000   13.033771   -21.188695
 0.615000   12.928146   -21.061328
 0.620000   12.823158   -20.934275
 0.625000   12.718803   -20.807539
 0.630000   12.615082   -20.681125
 0.635000   12.511992   -20.555036
 0.640000   12.409532   -20.429277
 0.645000   12.307699   -20.303850
 0.650000   12.206493   -20.178760
 0.655000   12.105912   -20.054011
 0.660000   12.005953   -19.929605
 0.665000   11.906616   -19.805547
 0.670000   11.807898   -19.681840
 0.675000   11.709797   -19.558487
 0.680000   11.612313   -19.435492
 0.685000   11.515442   -19.312858
 0.690000   11.419184   -19.190588
 0.695000   11.323537   -19.068686
 0.700000   11.228497   -18.947155
 0.705000   11.134065   -18.825997
 0.710000   11.040237   -18.705217
 0.715000   10.947013   -18.584816
 0.720000   10.854389   -18.464798
 0.725000   10.762365   -18.345166
 0.730000   10.670938   -18.225923
 0.735000   10.580106   -18.107071
 0.740000   10.489867   -17.988614
 0.745000   10.400219   -17.870553
 0.750000   10.311161   -17.752892
 0.755000   10.222691   -17.635634
 0.760000   10.134805   -17.518781
 0.765000   10.047503   -17.402336
 0.770000   9.960782   -17.286303
 0.775000   9.874640   -17.170683
 0.780000   9.789075   -17.055482
 0.785000   9.704085   -16.940704
 0.790000   9.619668   -16.826355
 0.795000   9.535821   -16.712444
 0.800000   9.452543   -16.598983
 0.805000   9.369832   -16.485993
 0.810000   9.287683   -16.373503
 0.815000   9.206096   -16.261560
 0.820000   9.125068   -16.150240
 0.825000   9.044594   -16.039661
 0.830000   8.964671   -15.930010
 0.835000   8.885294   -15.821579
 0.840000   8.806455   -15.714823
 0.845000   8.728146   -15.610439
 0.850000   8.650351   -15.509480
 0.855000   8.573051   -15.413491
 0.860000   8.496216   -15.324681
 0.865000   8.419804   -15.246031
 0.870000   8.343756   -15.181246
 0.875000   8.267992   -15.134151
 0.880000   8.192414   -15.106813
 0.885000   8.116924   -15.094731
 0.890000   8.041467   -15.075774
 0.895000   7.966166   -14.986058
 0.900000   7.891606   -14.669185
 0.905000   7.819474   -13.771768
 0.910000   7.753889   -11.531556
 0.915000   7.704158   -6.351327
 0.920000   7.690375   5.054853
 0.925000   7.754707   29.372167
 0.930000   7.984097   80.117807
 0.935000   8.555885   184.524306
 0.940000   9.829340   397.172722
 0.945000   12.527612   825.780831
 0.950000   18.087148   1673.131741
 0.955000   29.258930   3269.088952
 0.960000   50.778038   5902.741325
 0.965000   88.286343   8827.780117
 0.970000   139.055839   8528.457326
 0.975000   173.570916   1637.592610
 0.980000   155.431765   -7006.444661
 0.985000   103.506470   -9675.583585
 0.990000   58.675929   -7177.724645
 0.995000   31.729223   -4108.232420
 1.000000   17.593605   -1546.014737
201 psinorm kpol(km/s/T) dkpol/dpsiN
 0.000000   0.006770   111.195056
 0.005000   0.463499   71.496202
 0.010000   0.721732   50.241777
 0.015000   0.965916   48.584830
 0.020000   1.207581   48.023770
 0.025000   1.446154   46.885135
 0.030000   1.676432   44.641339
 0.035000   1.892567   42.096372
 0.040000   2.097396   39.752572
 0.045000   2.290093   37.481186
 0.050000   2.472208   35.716962
 0.055000   2.647263   34.760618
 0.060000   2.819814   34.600998
 0.065000   2.993273   34.858238
 0.070000   3.168396   35.239771
 0.075000   3.345670   35.499012
 0.080000   3.523386   35.419369
 0.085000   3.699864   34.984733
 0.090000   3.873234   33.972131
 0.095000   4.039585   32.467974
 0.100000   4.197913   30.669671
 0.105000   4.346282   28.660852
 0.110000   4.484522   26.607205
 0.115000   4.612354   24.523373
 0.120000   4.729756   22.668089
 0.125000   4.839035   21.299079
 0.130000   4.942746   20.301298
 0.135000   5.042048   19.480093
 0.140000   5.137547   18.775077
 0.145000   5.229799   18.135648
 0.150000   5.318904   17.402779
 0.155000   5.403827   16.589791
 0.160000   5.484802   15.639659
 0.165000   5.560223   14.635100
 0.170000   5.631153   13.476119
 0.175000   5.694984   12.100356
 0.180000   5.752156   10.635178
 0.185000   5.801336   9.060553
 0.190000   5.842762   7.568662
 0.195000   5.877023   6.042060
 0.200000   5.903182   4.653872
 0.205000   5.923562   3.363279
 0.210000   5.936815   2.139271
 0.215000   5.944954   1.224776
 0.220000   5.949063   0.328261
 0.225000   5.948237   -0.472717
 0.230000   5.944336   -1.217064
 0.235000   5.936066   -2.104248
 0.240000   5.923293   -2.916312
 0.245000   5.906903   -3.818327
 0.250000   5.885110   -4.828267
 0.255000   5.858620   -5.776619
 0.260000   5.827344   -6.843047
 0.265000   5.790190   -7.904231
 0.270000   5.748302   -8.947214
 0.275000   5.700718   -10.168603
 0.280000   5.646616   -11.371155
 0.285000   5.587006   -12.650740
 0.290000   5.520108   -14.196913
 0.295000   5.445037   -15.748817
 0.300000   5.362620   -17.415032
 0.305000   5.270887   -19.294679
 0.310000   5.169673   -21.107448
 0.315000   5.059812   -22.970520
 0.320000   4.939968   -24.920749
 0.325000   4.810605   -26.628961
 0.330000   4.673678   -28.136529
 0.335000   4.529240   -29.496567
 0.340000   4.378713   -30.482486
 0.345000   4.224415   -31.210113
 0.350000   4.066612   -31.748483
 0.355000   3.906930   -32.077658
 0.360000   3.745835   -32.495668
 0.365000   3.581973   -33.104780
 0.370000   3.414787   -33.800643
 0.375000   3.243967   -34.701229
 0.380000   3.067775   -35.991348
 0.385000   2.884053   -37.480739
 0.390000   2.692968   -38.934852
 0.395000   2.494705   -40.378987
 0.400000   2.289178   -41.894823
 0.405000   2.075756   -43.772945
 0.410000   1.851448   -47.159457
 0.415000   1.604162   -52.394714
 0.420000   1.327501   -58.988445
 0.425000   1.014277   -66.968877
 0.430000   0.657812   -76.161526
 0.435000   0.252662   -86.471335
 0.440000   -0.206901   -97.981014
 0.445000   -0.727148   -108.851632
 0.450000   -1.295417   -117.726678
 0.455000   -1.904415   -124.804429
 0.460000   -2.543462   -129.443831
 0.465000   -3.198853   -130.991619
 0.470000   -3.853378   -128.462134
 0.475000   -4.483474   -122.099017
 0.480000   -5.074368   -113.126957
 0.485000   -5.614744   -102.376830
 0.490000   -6.098136   -90.568825
 0.495000   -6.520432   -77.799726
 0.500000   -6.876134   -65.205782
 0.505000   -7.172490   -54.899021
 0.510000   -7.425124   -47.099381
 0.515000   -7.643484   -41.272187
 0.520000   -7.837846   -37.554146
 0.525000   -8.019025   -35.780243
 0.530000   -8.195648   -35.514131
 0.535000   -8.374167   -36.148811
 0.540000   -8.557136   -37.143584
 0.545000   -8.745602   -38.199634
 0.550000   -8.939133   -39.105716
 0.555000   -9.136660   -40.026759
 0.560000   -9.339400   -40.329630
 0.565000   -9.539956   -39.359509
 0.570000   -9.732995   -37.467658
 0.575000   -9.914632   -34.775542
 0.580000   -10.080751   -31.298037
 0.585000   -10.227613   -27.143993
 0.590000   -10.352191   -22.698046
 0.595000   -10.454593   -18.244564
 0.600000   -10.534636   -13.954082
 0.605000   -10.594134   -10.137578
 0.610000   -10.636012   -6.896066
 0.615000   -10.663095   -4.151507
 0.620000   -10.677527   -1.952741
 0.625000   -10.682622   -0.376416
 0.630000   -10.681291   0.817380
 0.635000   -10.674448   1.821219
 0.640000   -10.663079   2.644894
 0.645000   -10.647999   3.323084
 0.650000   -10.629848   3.972866
 0.655000   -10.608271   4.630805
 0.660000   -10.583540   5.190493
 0.665000   -10.556366   5.675768
 0.670000   -10.526782   6.169947
 0.675000   -10.494666   6.743363
 0.680000   -10.459349   7.414594
 0.685000   -10.420520   8.269947
 0.690000   -10.376649   9.371344
 0.695000   -10.326807   10.607036
 0.700000   -10.270579   11.964319
 0.705000   -10.207164   13.355319
 0.710000   -10.137026   14.439293
 0.715000   -10.062771   14.954894
 0.720000   -9.987477   14.830717
 0.725000   -9.914464   13.994919
 0.730000   -9.847528   12.381918
 0.735000   -9.790645   9.989540
 0.740000   -9.747632   7.082698
 0.745000   -9.719818   4.014937
 0.750000   -9.707483   1.019349
 0.755000   -9.709624   -1.675163
 0.760000   -9.724235   -3.831509
 0.765000   -9.747939   -5.466600
 0.770000   -9.778901   -6.896097
 0.775000   -9.816900   -8.360252
 0.780000   -9.862503   -10.050304
 0.785000   -9.917403   -12.192765
 0.790000   -9.984431   -15.243764
 0.795000   -10.069841   -19.045599
 0.800000   -10.174887   -23.050417
 0.805000   -10.300345   -27.051546
 0.810000   -10.445402   -30.712423
 0.815000   -10.607469   -33.627321
 0.820000   -10.781675   -35.471612
 0.825000   -10.962185   -35.799414
 0.830000   -11.139670   -34.354118
 0.835000   -11.305727   -31.235606
 0.840000   -11.452026   -26.600258
 0.845000   -11.571729   -20.807443
 0.850000   -11.660100   -14.292726
 0.855000   -11.714656   -7.617272
 0.860000   -11.736273   -1.187699
 0.865000   -11.726533   4.849715
 0.870000   -11.687776   10.505484
 0.875000   -11.621478   15.898116
 0.880000   -11.528794   21.134091
 0.885000   -11.410138   26.169032
 0.890000   -11.267104   30.824307
 0.895000   -11.101895   34.936406
 0.900000   -10.917740   38.350669
 0.905000   -10.718388   41.051171
 0.910000   -10.507228   43.366840
 0.915000   -10.284719   45.702601
 0.920000   -10.050202   48.518433
 0.925000   -9.799535   52.265199
 0.930000   -9.527550   57.008174
 0.935000   -9.229453   63.355203
 0.940000   -8.893998   70.254396
 0.945000   -8.526909   73.689720
 0.950000   -8.157101   71.879410
 0.955000   -7.808115   67.606483
 0.960000   -7.481036   70.098238
 0.965000   -7.107133   92.012907
 0.970000   -6.560907   147.732893
 0.975000   -5.629804   247.235663
 0.980000   -4.088551   379.934736
 0.985000   -1.830457   513.076718
 0.990000   1.042217   601.170826
 0.995000   4.181252   602.845130
 1.000000   7.070668   552.921379
201 psinorm omghb() domghb/dpsiN
 0.000000   -0.000058   0.023504
 0.005000   -0.000052   -0.020945
 0.010000   -0.000268   -0.019692
 0.015000   -0.000249   0.014253
 0.020000   -0.000125   0.036017
 0.025000   0.000111   0.060941
 0.030000   0.000484   0.095421
 0.035000   0.001066   0.131515
 0.040000   0.001799   0.163561
 0.045000   0.002701   0.179083
 0.050000   0.003590   0.174413
 0.055000   0.004445   0.165578
 0.060000   0.005246   0.153092
 0.065000   0.005976   0.146165
 0.070000   0.006708   0.156796
 0.075000   0.007544   0.168464
 0.080000   0.008392   0.181831
 0.085000   0.009363   0.204484
 0.090000   0.010437   0.233780
 0.095000   0.011700   0.262971
 0.100000   0.013067   0.309899
 0.105000   0.014799   0.352793
 0.110000   0.016595   0.346110
 0.115000   0.018261   0.340007
 0.120000   0.019995   0.332384
 0.125000   0.021584   0.305000
 0.130000   0.023045   0.273054
 0.135000   0.024315   0.270546
 0.140000   0.025750   0.265878
 0.145000   0.026974   0.259633
 0.150000   0.028347   0.269306
 0.155000   0.029667   0.274960
 0.160000   0.031096   0.293435
 0.165000   0.032601   0.310952
 0.170000   0.034206   0.325534
 0.175000   0.035856   0.322481
 0.180000   0.037431   0.340530
 0.185000   0.039262   0.352325
 0.190000   0.040954   0.383072
 0.195000   0.043092   0.431631
 0.200000   0.045270   0.414440
 0.205000   0.047237   0.388705
 0.210000   0.049157   0.349945
 0.215000   0.050736   0.341449
 0.220000   0.052572   0.370840
 0.225000   0.054445   0.244845
 0.230000   0.055020   0.154987
 0.235000   0.055995   0.140316
 0.240000   0.056423   0.061191
 0.245000   0.056606   0.021304
 0.250000   0.056636   -0.045423
 0.255000   0.056152   -0.185592
 0.260000   0.054780   -0.221265
 0.265000   0.053940   -0.207362
 0.270000   0.052707   -0.225127
 0.275000   0.051688   -0.203170
 0.280000   0.050675   -0.263095
 0.285000   0.049057   -0.183421
 0.290000   0.048841   -0.046135
 0.295000   0.048596   0.001232
 0.300000   0.048853   0.126276
 0.305000   0.049859   0.249756
 0.310000   0.051351   0.326123
 0.315000   0.053120   0.475107
 0.320000   0.056102   0.497575
 0.325000   0.058096   0.382781
 0.330000   0.059930   0.348014
 0.335000   0.061576   0.271467
 0.340000   0.062644   0.319857
 0.345000   0.064774   0.184508
 0.350000   0.064489   -0.047852
 0.355000   0.064296   -0.049269
 0.360000   0.063997   -0.075636
 0.365000   0.063540   -0.113000
 0.370000   0.062867   -0.102430
 0.375000   0.062515   -0.313451
 0.380000   0.059732   -0.451239
 0.385000   0.058003   -0.299867
 0.390000   0.056734   -0.233840
 0.395000   0.055665   -0.189984
 0.400000   0.054834   -0.214234
 0.405000   0.053522   0.020786
 0.410000   0.055042   0.551923
 0.415000   0.059041   0.946974
 0.420000   0.064511   1.417000
 0.425000   0.073211   1.900832
 0.430000   0.083520   2.015240
 0.435000   0.093364   2.167690
 0.440000   0.105197   2.406304
 0.445000   0.117427   2.298011
 0.450000   0.128177   2.098160
 0.455000   0.138408   1.626090
 0.460000   0.144438   0.855738
 0.465000   0.146966   0.235992
 0.470000   0.146798   -0.403139
 0.475000   0.142934   -1.142110
 0.480000   0.135376   -1.993220
 0.485000   0.123002   -2.503927
 0.490000   0.110337   -2.556602
 0.495000   0.097436   -2.528587
 0.500000   0.085051   -2.305852
 0.505000   0.074378   -1.966361
 0.510000   0.065388   -1.605276
 0.515000   0.058325   -0.999765
 0.520000   0.055390   -0.396995
 0.525000   0.054355   -0.063243
 0.530000   0.054758   0.176334
 0.535000   0.056118   0.398632
 0.540000   0.058744   0.618148
 0.545000   0.062300   0.682907
 0.550000   0.065573   0.667654
 0.555000   0.068976   0.658133
 0.560000   0.072154   0.565719
 0.565000   0.074634   0.470573
 0.570000   0.076860   0.398262
 0.575000   0.078616   0.262097
 0.580000   0.079481   0.157444
 0.585000   0.080191   0.158575
 0.590000   0.081067   0.202860
 0.595000   0.082219   0.262951
 0.600000   0.083696   0.346104
 0.605000   0.085680   0.483104
 0.610000   0.088527   0.608549
 0.615000   0.091766   0.721765
 0.620000   0.095745   0.806344
 0.625000   0.099829   0.845447
 0.630000   0.104199   0.854642
 0.635000   0.108376   0.810816
 0.640000   0.112308   0.789545
 0.645000   0.116271   0.808094
 0.650000   0.120389   0.741643
 0.655000   0.123687   0.685168
 0.660000   0.127240   0.752290
 0.665000   0.131210   0.856518
 0.670000   0.135805   0.985146
 0.675000   0.141062   1.265289
 0.680000   0.148458   1.252899
 0.685000   0.153591   0.890708
 0.690000   0.157365   0.722712
 0.695000   0.160818   0.620789
 0.700000   0.163573   0.420684
 0.705000   0.165025   0.361156
 0.710000   0.167185   0.086828
 0.715000   0.165893   -0.360285
 0.720000   0.163582   -0.426522
 0.725000   0.161628   -0.473089
 0.730000   0.158851   -0.649755
 0.735000   0.155130   -0.837253
 0.740000   0.150479   -1.088247
 0.745000   0.144248   -1.211551
 0.750000   0.138363   -1.201507
 0.755000   0.132233   -1.210304
 0.760000   0.126260   -1.214295
 0.765000   0.120090   -1.311365
 0.770000   0.113146   -1.290388
 0.775000   0.107186   -0.934553
 0.780000   0.103801   -0.700175
 0.785000   0.100184   -0.574908
 0.790000   0.098052   -0.315408
 0.795000   0.097030   -0.092868
 0.800000   0.097123   0.320738
 0.805000   0.100237   0.748187
 0.810000   0.104605   0.664413
 0.815000   0.106882   0.407045
 0.820000   0.108675   0.316163
 0.825000   0.110043   0.253570
 0.830000   0.111211   0.182702
 0.835000   0.111870   0.217129
 0.840000   0.113382   0.414699
 0.845000   0.116017   0.706358
 0.850000   0.120446   1.140143
 0.855000   0.127419   1.704575
 0.860000   0.137492   2.569841
 0.865000   0.153117   3.110018
 0.870000   0.168592   3.412700
 0.875000   0.187244   4.012713
 0.880000   0.208719   4.487143
 0.885000   0.232116   4.772218
 0.890000   0.256441   5.848700
 0.895000   0.290603   5.767426
 0.900000   0.314115   5.204434
 0.905000   0.342647   5.660910
 0.910000   0.370725   5.303726
 0.915000   0.395684   4.405259
 0.920000   0.414777   5.395945
 0.925000   0.449644   2.911705
 0.930000   0.443894   0.177181
 0.935000   0.451415   2.838665
 0.940000   0.472281   6.698921
 0.945000   0.518405   13.255281
 0.950000   0.604834   26.396177
 0.955000   0.782366   29.566200
 0.960000   0.900496   19.710250
 0.965000   0.979469   3.485729
 0.970000   0.935353   -29.148592
 0.975000   0.687983   -72.249278
 0.980000   0.212860   -109.004306
 0.985000   -0.402060   -129.375876
 0.990000   -1.080899   -112.754219
 0.995000   -1.529602   -60.092193
 1.000000   -1.681821   -0.795114
201 psinorm nz1(10^20/m^3) dnz1/dpsiN
 0.000000   0.015214   0.000000
 0.005000   0.015214   -0.000024
 0.010000   0.015214   -0.000049
 0.015000   0.015213   -0.000075
 0.020000   0.015213   -0.000103
 0.025000   0.015212   -0.000132
 0.030000   0.015212   -0.000163
 0.035000   0.015211   -0.000195
 0.040000   0.015210   -0.000229
 0.045000   0.015208   -0.000265
 0.050000   0.015207   -0.000302
 0.055000   0.015205   -0.000342
 0.060000   0.015204   -0.000384
 0.065000   0.015202   -0.000428
 0.070000   0.015199   -0.000474
 0.075000   0.015197   -0.000523
 0.080000   0.015194   -0.000576
 0.085000   0.015191   -0.000631
 0.090000   0.015188   -0.000689
 0.095000   0.015184   -0.000751
 0.100000   0.015180   -0.000815
 0.105000   0.015176   -0.000883
 0.110000   0.015171   -0.000954
 0.115000   0.015166   -0.001027
 0.120000   0.015161   -0.001103
 0.125000   0.015155   -0.001180
 0.130000   0.015149   -0.001260
 0.135000   0.015143   -0.001341
 0.140000   0.015136   -0.001424
 0.145000   0.015129   -0.001508
 0.150000   0.015121   -0.001594
 0.155000   0.015113   -0.001680
 0.160000   0.015104   -0.001767
 0.165000   0.015095   -0.001853
 0.170000   0.015085   -0.001940
 0.175000   0.015076   -0.002027
 0.180000   0.015065   -0.002114
 0.185000   0.015054   -0.002199
 0.190000   0.015043   -0.002282
 0.195000   0.015032   -0.002363
 0.200000   0.015020   -0.002441
 0.205000   0.015007   -0.002518
 0.210000   0.014994   -0.002592
 0.215000   0.014981   -0.002665
 0.220000   0.014968   -0.002737
 0.225000   0.014954   -0.002810
 0.230000   0.014940   -0.002882
 0.235000   0.014925   -0.002951
 0.240000   0.014910   -0.003019
 0.245000   0.014895   -0.003083
 0.250000   0.014879   -0.003143
 0.255000   0.014863   -0.003199
 0.260000   0.014847   -0.003248
 0.265000   0.014831   -0.003287
 0.270000   0.014814   -0.003318
 0.275000   0.014798   -0.003339
 0.280000   0.014781   -0.003350
 0.285000   0.014764   -0.003350
 0.290000   0.014748   -0.003337
 0.295000   0.014731   -0.003312
 0.300000   0.014714   -0.003274
 0.305000   0.014698   -0.003226
 0.310000   0.014682   -0.003166
 0.315000   0.014667   -0.003094
 0.320000   0.014651   -0.003012
 0.325000   0.014636   -0.002925
 0.330000   0.014622   -0.002832
 0.335000   0.014608   -0.002733
 0.340000   0.014595   -0.002630
 0.345000   0.014582   -0.002523
 0.350000   0.014569   -0.002413
 0.355000   0.014558   -0.002296
 0.360000   0.014546   -0.002172
 0.365000   0.014536   -0.002041
 0.370000   0.014526   -0.001902
 0.375000   0.014517   -0.001755
 0.380000   0.014509   -0.001602
 0.385000   0.014501   -0.001442
 0.390000   0.014494   -0.001277
 0.395000   0.014488   -0.001109
 0.400000   0.014483   -0.000938
 0.405000   0.014479   -0.000766
 0.410000   0.014475   -0.000594
 0.415000   0.014473   -0.000424
 0.420000   0.014471   -0.000256
 0.425000   0.014470   -0.000092
 0.430000   0.014470   0.000068
 0.435000   0.014471   0.000222
 0.440000   0.014472   0.000369
 0.445000   0.014475   0.000510
 0.450000   0.014478   0.000645
 0.455000   0.014481   0.000773
 0.460000   0.014485   0.000894
 0.465000   0.014490   0.001008
 0.470000   0.014495   0.001114
 0.475000   0.014501   0.001210
 0.480000   0.014507   0.001295
 0.485000   0.014514   0.001369
 0.490000   0.014521   0.001429
 0.495000   0.014528   0.001476
 0.500000   0.014536   0.001509
 0.505000   0.014543   0.001525
 0.510000   0.014551   0.001525
 0.515000   0.014559   0.001508
 0.520000   0.014566   0.001474
 0.525000   0.014573   0.001422
 0.530000   0.014580   0.001352
 0.535000   0.014587   0.001264
 0.540000   0.014593   0.001159
 0.545000   0.014599   0.001035
 0.550000   0.014603   0.000892
 0.555000   0.014607   0.000731
 0.560000   0.014611   0.000550
 0.565000   0.014613   0.000349
 0.570000   0.014614   0.000129
 0.575000   0.014614   -0.000111
 0.580000   0.014613   -0.000371
 0.585000   0.014611   -0.000650
 0.590000   0.014607   -0.000949
 0.595000   0.014601   -0.001265
 0.600000   0.014594   -0.001597
 0.605000   0.014585   -0.001946
 0.610000   0.014575   -0.002309
 0.615000   0.014562   -0.002689
 0.620000   0.014548   -0.003088
 0.625000   0.014531   -0.003510
 0.630000   0.014513   -0.003955
 0.635000   0.014492   -0.004425
 0.640000   0.014468   -0.004919
 0.645000   0.014442   -0.005439
 0.650000   0.014414   -0.005989
 0.655000   0.014383   -0.006562
 0.660000   0.014348   -0.007146
 0.665000   0.014311   -0.007743
 0.670000   0.014271   -0.008359
 0.675000   0.014227   -0.009009
 0.680000   0.014181   -0.009739
 0.685000   0.014130   -0.010576
 0.690000   0.014075   -0.011496
 0.695000   0.014015   -0.012495
 0.700000   0.013950   -0.013568
 0.705000   0.013879   -0.014703
 0.710000   0.013803   -0.015919
 0.715000   0.013720   -0.017177
 0.720000   0.013631   -0.018390
 0.725000   0.013536   -0.019542
 0.730000   0.013436   -0.020619
 0.735000   0.013330   -0.021583
 0.740000   0.013220   -0.022402
 0.745000   0.013106   -0.023013
 0.750000   0.012990   -0.023377
 0.755000   0.012872   -0.023505
 0.760000   0.012755   -0.023407
 0.765000   0.012638   -0.023102
 0.770000   0.012524   -0.022592
 0.775000   0.012412   -0.021908
 0.780000   0.012305   -0.021163
 0.785000   0.012201   -0.020411
 0.790000   0.012101   -0.019645
 0.795000   0.012004   -0.018890
 0.800000   0.011912   -0.018161
 0.805000   0.011823   -0.017489
 0.810000   0.011737   -0.016904
 0.815000   0.011654   -0.016363
 0.820000   0.011573   -0.015806
 0.825000   0.011496   -0.015209
 0.830000   0.011421   -0.014563
 0.835000   0.011350   -0.013864
 0.840000   0.011282   -0.013141
 0.845000   0.011219   -0.012420
 0.850000   0.011158   -0.011702
 0.855000   0.011102   -0.010996
 0.860000   0.011048   -0.010311
 0.865000   0.010998   -0.009670
 0.870000   0.010952   -0.009114
 0.875000   0.010907   -0.008647
 0.880000   0.010865   -0.008245
 0.885000   0.010825   -0.007903
 0.890000   0.010786   -0.007618
 0.895000   0.010749   -0.007449
 0.900000   0.010712   -0.007376
 0.905000   0.010675   -0.007348
 0.910000   0.010638   -0.007415
 0.915000   0.010601   -0.007633
 0.920000   0.010562   -0.008095
 0.925000   0.010520   -0.009132
 0.930000   0.010470   -0.010971
 0.935000   0.010410   -0.013977
 0.940000   0.010331   -0.019178
 0.945000   0.010218   -0.028100
 0.950000   0.010050   -0.042826
 0.955000   0.009790   -0.066500
 0.960000   0.009385   -0.100008
 0.965000   0.008790   -0.140210
 0.970000   0.007983   -0.180685
 0.975000   0.006983   -0.211444
 0.980000   0.005868   -0.223045
 0.985000   0.004753   -0.212064
 0.990000   0.003748   -0.182272
 0.995000   0.002930   -0.143309
 1.000000   0.002314   -0.102899
201 psinorm vtor1(km/s) dvtor1/dpsiN
 0.000000   107.117070   531.886348
 0.005000   109.179544   293.103128
 0.010000   110.048102   152.648772
 0.015000   110.706032   119.901158
 0.020000   111.247113   100.424635
 0.025000   111.710278   87.223202
 0.030000   112.119345   77.264009
 0.035000   112.482918   68.247774
 0.040000   112.801823   60.039087
 0.045000   113.083309   52.808470
 0.050000   113.329908   45.886070
 0.055000   113.542170   39.076785
 0.060000   113.720676   32.641597
 0.065000   113.868586   26.614174
 0.070000   113.986817   20.840600
 0.075000   114.076992   15.357308
 0.080000   114.140390   10.111673
 0.085000   114.178109   5.015895
 0.090000   114.190549   -0.040699
 0.095000   114.177702   -5.024648
 0.100000   114.140303   -9.886199
 0.105000   114.078840   -14.787330
 0.110000   113.992430   -19.778894
 0.115000   113.881051   -24.751031
 0.120000   113.744919   -29.662227
 0.125000   113.584428   -34.618289
 0.130000   113.398736   -39.472437
 0.135000   113.189704   -44.076115
 0.140000   112.957975   -48.625627
 0.145000   112.703448   -53.149385
 0.150000   112.426481   -57.550261
 0.155000   112.127945   -61.837820
 0.160000   111.808103   -66.088607
 0.165000   111.467059   -70.277752
 0.170000   111.105326   -74.399200
 0.175000   110.723067   -78.459670
 0.180000   110.320729   -82.440037
 0.185000   109.898667   -86.318390
 0.190000   109.457545   -90.067592
 0.195000   108.997991   -93.652140
 0.200000   108.521024   -96.984322
 0.205000   108.028148   -99.984434
 0.210000   107.521179   -102.625358
 0.215000   107.001894   -104.922114
 0.220000   106.471958   -106.806374
 0.225000   105.933830   -108.195805
 0.230000   105.390000   -109.312129
 0.235000   104.840709   -110.267153
 0.240000   104.287329   -110.931278
 0.245000   103.731396   -111.278368
 0.250000   103.174545   -111.251361
 0.255000   102.618882   -110.655983
 0.260000   102.067985   -109.725838
 0.265000   101.521624   -108.715632
 0.270000   100.980829   -107.525246
 0.275000   100.446372   -106.200214
 0.280000   99.918827   -104.787868
 0.285000   99.398493   -103.289491
 0.290000   98.885932   -101.955285
 0.295000   98.378940   -100.905323
 0.300000   97.876878   -99.960804
 0.305000   97.379332   -99.075543
 0.310000   96.886123   -98.177476
 0.315000   96.397557   -97.196930
 0.320000   95.914154   -96.148137
 0.325000   95.436076   -95.033069
 0.330000   94.963823   -93.822819
 0.335000   94.497848   -92.530555
 0.340000   94.038518   -91.172045
 0.345000   93.586127   -89.760302
 0.350000   93.140914   -88.279020
 0.355000   92.703337   -86.715214
 0.360000   92.273762   -85.076315
 0.365000   91.852574   -83.360460
 0.370000   91.440158   -81.558128
 0.375000   91.036993   -79.651288
 0.380000   90.643645   -77.577451
 0.385000   90.261218   -75.315590
 0.390000   89.890489   -72.903260
 0.395000   89.532186   -70.352715
 0.400000   89.186962   -67.682150
 0.405000   88.855364   -64.882498
 0.410000   88.538137   -62.065737
 0.415000   88.234707   -59.484295
 0.420000   87.943294   -57.300006
 0.425000   87.661707   -55.557263
 0.430000   87.387721   -54.232981
 0.435000   87.119377   -53.414358
 0.440000   86.853578   -53.025022
 0.445000   86.589127   -52.653165
 0.450000   86.327046   -52.126669
 0.455000   86.067860   -51.455185
 0.460000   85.812494   -50.554927
 0.465000   85.562311   -49.479921
 0.470000   85.317695   -48.149641
 0.475000   85.080814   -46.228335
 0.480000   84.855412   -43.735479
 0.485000   84.643459   -40.884917
 0.490000   84.446562   -37.758272
 0.495000   84.265877   -34.465099
 0.500000   84.101911   -31.111097
 0.505000   83.954766   -27.846973
 0.510000   83.823442   -24.890308
 0.515000   83.705863   -22.396610
 0.520000   83.599476   -20.438605
 0.525000   83.501477   -19.049982
 0.530000   83.408976   -18.254679
 0.535000   83.318930   -18.096985
 0.540000   83.228006   -18.595050
 0.545000   83.132979   -19.746166
 0.550000   83.030544   -21.551297
 0.555000   82.917466   -23.994838
 0.560000   82.790596   -27.053775
 0.565000   82.646929   -30.742381
 0.570000   82.483172   -35.065910
 0.575000   82.296270   -39.997914
 0.580000   82.083193   -45.523735
 0.585000   81.841032   -51.631726
 0.590000   81.566876   -58.308936
 0.595000   81.257943   -65.445398
 0.600000   80.912422   -72.887934
 0.605000   80.529063   -80.520041
 0.610000   80.107221   -88.221550
 0.615000   79.646848   -95.881104
 0.620000   79.148410   -103.256490
 0.625000   78.614283   -110.333504
 0.630000   78.045075   -117.191278
 0.635000   77.442370   -123.699672
 0.640000   76.808079   -129.817522
 0.645000   76.144195   -135.530275
 0.650000   75.452776   -140.732724
 0.655000   74.736868   -145.784839
 0.660000   73.994927   -151.118194
 0.665000   73.225686   -156.726295
 0.670000   72.427664   -162.661432
 0.675000   71.599072   -168.953139
 0.680000   70.738133   -175.806365
 0.685000   69.841008   -182.677575
 0.690000   68.911357   -188.617177
 0.695000   67.954836   -193.492131
 0.700000   66.976436   -197.351789
 0.705000   65.981318   -200.182803
 0.710000   64.974608   -202.040779
 0.715000   63.960910   -202.760077
 0.720000   62.947007   -202.146809
 0.725000   61.939442   -200.285252
 0.730000   60.944155   -197.258922
 0.735000   59.966853   -193.134169
 0.740000   59.012813   -188.030922
 0.745000   58.086544   -182.373844
 0.750000   57.189075   -176.685937
 0.755000   56.319685   -171.135247
 0.760000   55.477722   -165.703186
 0.765000   54.662653   -160.345415
 0.770000   53.874268   -155.155208
 0.775000   53.111101   -149.971619
 0.780000   52.374552   -144.177342
 0.785000   51.669327   -137.766501
 0.790000   50.996887   -131.207603
 0.795000   50.357251   -124.812570
 0.800000   49.748761   -118.935470
 0.805000   49.167896   -113.940193
 0.810000   48.609359   -110.183757
 0.815000   48.066059   -107.999753
 0.820000   47.529362   -107.619525
 0.825000   46.989864   -109.164950
 0.830000   46.437712   -112.693028
 0.835000   45.862933   -118.107210
 0.840000   45.256640   -125.330401
 0.845000   44.609629   -134.517142
 0.850000   43.911469   -145.885789
 0.855000   43.150771   -159.628145
 0.860000   42.315187   -175.962500
 0.865000   41.391146   -195.520179
 0.870000   40.359985   -217.992481
 0.875000   39.211222   -242.684830
 0.880000   37.933137   -269.504768
 0.885000   36.516174   -297.905872
 0.890000   34.954078   -327.134204
 0.895000   33.244832   -357.486311
 0.900000   31.379215   -386.288507
 0.905000   29.381947   -410.435443
 0.910000   27.274861   -429.300165
 0.915000   25.088945   -441.054767
 0.920000   22.864313   -443.987321
 0.925000   20.649072   -437.138485
 0.930000   18.492928   -418.488229
 0.935000   16.464190   -387.992036
 0.940000   14.613008   -348.846782
 0.945000   12.975722   -304.112479
 0.950000   11.571883   -257.283442
 0.955000   10.402887   -211.466990
 0.960000   9.457213   -170.163187
 0.965000   8.701256   -136.172956
 0.970000   8.095484   -110.266723
 0.975000   7.598588   -92.487274
 0.980000   7.170611   -82.257746
 0.985000   6.776011   -78.224548
 0.990000   6.388365   -79.074671
 0.995000   5.985264   -83.649738
 1.000000   5.551868   -89.708747
201 psinorm vpol1(km/s) dvpol1/dpsiN
 0.000000   0.000049   4.107324
 0.005000   0.023037   5.087988
 0.010000   0.050929   6.052051
 0.015000   0.083558   6.953223
 0.020000   0.120461   7.736133
 0.025000   0.160919   8.352832
 0.030000   0.203989   8.744238
 0.035000   0.248361   8.963281
 0.040000   0.293622   9.100195
 0.045000   0.339363   9.182520
 0.050000   0.385447   9.268164
 0.055000   0.432045   9.418652
 0.060000   0.479634   9.679590
 0.065000   0.528841   10.011426
 0.070000   0.579748   10.341699
 0.075000   0.632258   10.641992
 0.080000   0.686168   10.885547
 0.085000   0.741113   11.034277
 0.090000   0.796511   11.044629
 0.095000   0.851560   10.926074
 0.100000   0.905771   10.715918
 0.105000   0.958719   10.429102
 0.110000   1.010063   10.089941
 0.115000   1.059618   9.718457
 0.120000   1.107247   9.371582
 0.125000   1.153334   9.109473
 0.130000   1.198342   8.916699
 0.135000   1.242501   8.762109
 0.140000   1.285963   8.625391
 0.145000   1.328755   8.485254
 0.150000   1.370815   8.323535
 0.155000   1.411990   8.126953
 0.160000   1.452085   7.892383
 0.165000   1.490914   7.617676
 0.170000   1.528262   7.296484
 0.175000   1.563879   6.911914
 0.180000   1.597381   6.473633
 0.185000   1.628615   6.014355
 0.190000   1.657524   5.544824
 0.195000   1.684063   5.072656
 0.200000   1.708251   4.609570
 0.205000   1.730159   4.162109
 0.210000   1.749872   3.756934
 0.215000   1.767729   3.402246
 0.220000   1.783895   3.072461
 0.225000   1.798453   2.754687
 0.230000   1.811441   2.437891
 0.235000   1.822832   2.111719
 0.240000   1.832559   1.767285
 0.245000   1.840505   1.402344
 0.250000   1.846582   1.018457
 0.255000   1.850689   0.618359
 0.260000   1.852766   0.205664
 0.265000   1.852746   -0.219727
 0.270000   1.850568   -0.660742
 0.275000   1.846139   -1.123535
 0.280000   1.839333   -1.615723
 0.285000   1.829981   -2.145020
 0.290000   1.817883   -2.720605
 0.295000   1.802775   -3.347949
 0.300000   1.784403   -4.018652
 0.305000   1.762589   -4.720508
 0.310000   1.737198   -5.450098
 0.315000   1.708088   -6.198535
 0.320000   1.675213   -6.944531
 0.325000   1.638643   -7.653418
 0.330000   1.598679   -8.293066
 0.335000   1.555712   -8.849512
 0.340000   1.510184   -9.316016
 0.345000   1.462552   -9.691699
 0.350000   1.413267   -9.966406
 0.355000   1.362888   -10.199609
 0.360000   1.311271   -10.462695
 0.365000   1.258261   -10.760840
 0.370000   1.203662   -11.112500
 0.375000   1.147136   -11.539844
 0.380000   1.088264   -12.083008
 0.385000   1.026306   -12.710938
 0.390000   0.961154   -13.334766
 0.395000   0.892958   -13.941699
 0.400000   0.821737   -14.578516
 0.405000   0.747173   -15.355859
 0.410000   0.668179   -16.673145
 0.415000   0.580441   -18.662109
 0.420000   0.481558   -21.163281
 0.425000   0.368809   -24.180078
 0.430000   0.239757   -27.650293
 0.435000   0.092306   -31.550781
 0.440000   -0.075751   -35.909961
 0.445000   -0.266794   -40.055469
 0.450000   -0.476306   -43.483594
 0.455000   -0.701630   -46.257227
 0.460000   -0.938878   -48.144336
 0.465000   -1.183073   -48.892676
 0.470000   -1.427805   -48.108789
 0.475000   -1.664161   -45.893848
 0.480000   -1.886743   -42.709766
 0.485000   -2.091259   -38.813574
 0.490000   -2.274879   -34.492676
 0.495000   -2.436186   -29.817383
 0.500000   -2.573053   -25.170508
 0.505000   -2.687891   -21.336719
 0.510000   -2.786420   -18.443359
 0.515000   -2.872324   -16.298145
 0.520000   -2.949401   -14.897559
 0.525000   -3.021300   -14.223926
 0.530000   -3.091641   -14.155273
 0.535000   -3.162853   -14.402930
 0.540000   -3.235670   -14.768359
 0.545000   -3.310536   -15.179883
 0.550000   -3.387469   -15.550391
 0.555000   -3.466040   -15.888672
 0.560000   -3.546355   -15.994141
 0.565000   -3.625981   -15.653223
 0.570000   -3.702888   -14.937598
 0.575000   -3.775357   -13.895508
 0.580000   -3.841843   -12.572754
 0.585000   -3.901085   -11.005957
 0.590000   -3.951902   -9.284375
 0.595000   -3.993929   -7.555811
 0.600000   -4.027460   -5.924316
 0.605000   -4.053172   -4.453662
 0.610000   -4.071997   -3.179980
 0.615000   -4.084972   -2.110889
 0.620000   -4.093106   -1.269043
 0.625000   -4.097662   -0.635156
 0.630000   -4.099458   -0.142920
 0.635000   -4.099091   0.247705
 0.640000   -4.096980   0.573926
 0.645000   -4.093352   0.866064
 0.650000   -4.088320   1.139160
 0.655000   -4.081960   1.394336
 0.660000   -4.074376   1.629248
 0.665000   -4.065668   1.844287
 0.670000   -4.055934   2.045654
 0.675000   -4.045211   2.269775
 0.680000   -4.033236   2.553271
 0.685000   -4.019679   2.907227
 0.690000   -4.004164   3.334863
 0.695000   -3.986330   3.822070
 0.700000   -3.965943   4.368213
 0.705000   -3.942648   4.920361
 0.710000   -3.916739   5.342627
 0.715000   -3.889222   5.557495
 0.720000   -3.861164   5.529614
 0.725000   -3.833926   5.214233
 0.730000   -3.809022   4.593823
 0.735000   -3.787987   3.686035
 0.740000   -3.772162   2.577686
 0.745000   -3.762210   1.391479
 0.750000   -3.758247   0.237488
 0.755000   -3.759836   -0.791138
 0.760000   -3.766158   -1.616931
 0.765000   -3.776005   -2.250757
 0.770000   -3.788666   -2.796191
 0.775000   -3.803967   -3.350128
 0.780000   -3.822167   -4.000842
 0.785000   -3.843975   -4.832294
 0.790000   -3.870490   -6.003296
 0.795000   -3.904008   -7.464453
 0.800000   -3.945135   -9.017596
 0.805000   -3.994184   -10.568274
 0.810000   -4.050817   -11.975342
 0.815000   -4.113938   -13.095691
 0.820000   -4.181774   -13.812689
 0.825000   -4.252064   -13.934863
 0.830000   -4.321123   -13.360278
 0.835000   -4.385667   -12.142798
 0.840000   -4.442551   -10.345288
 0.845000   -4.489120   -8.087695
 0.850000   -4.523428   -5.544580
 0.855000   -4.544566   -2.949756
 0.860000   -4.552925   -0.455469
 0.865000   -4.549121   1.901270
 0.870000   -4.533913   4.111182
 0.875000   -4.508009   6.204053
 0.880000   -4.471872   8.236475
 0.885000   -4.425644   10.204150
 0.890000   -4.369831   12.021826
 0.895000   -4.305426   13.614600
 0.900000   -4.233685   14.940820
 0.905000   -4.156018   15.998242
 0.910000   -4.073702   16.901270
 0.915000   -3.987005   17.803027
 0.920000   -3.895672   18.853613
 0.925000   -3.798469   20.235840
 0.930000   -3.693313   22.044922
 0.935000   -3.578020   24.508887
 0.940000   -3.448225   26.957129
 0.945000   -3.308448   28.000488
 0.950000   -3.168220   27.266113
 0.955000   -3.035787   25.662012
 0.960000   -2.911600   26.017285
 0.965000   -2.775614   33.986133
 0.970000   -2.571738   56.078809
 0.975000   -2.214826   95.755469
 0.980000   -1.614184   149.093164
 0.985000   -0.723895   202.704102
 0.990000   0.412857   238.299219
 0.995000   1.659098   239.650195
 1.000000   2.809359   220.454492
3 N Z A of ION SPECIES
 6.000000   6.000000   12.010700
 1.000000   1.000000   2.000000
 1.000000   1.000000   2.000000
