201 psinorm ne(10^20/m^3) dne/dpsiN
 0.000000   0.490354   -0.289437
 0.005000   0.488910   -0.288073
 0.010000   0.487474   -0.286713
 0.015000   0.486043   -0.285360
 0.020000   0.484620   -0.284014
 0.025000   0.483203   -0.282674
 0.030000   0.481793   -0.281342
 0.035000   0.480390   -0.280017
 0.040000   0.478993   -0.278698
 0.045000   0.477603   -0.277386
 0.050000   0.476219   -0.276081
 0.055000   0.474842   -0.274782
 0.060000   0.473471   -0.273490
 0.065000   0.472107   -0.272205
 0.070000   0.470749   -0.270926
 0.075000   0.469398   -0.269654
 0.080000   0.468053   -0.268388
 0.085000   0.466714   -0.267129
 0.090000   0.465381   -0.265876
 0.095000   0.464055   -0.264630
 0.100000   0.462735   -0.263390
 0.105000   0.461421   -0.262156
 0.110000   0.460114   -0.260928
 0.115000   0.458812   -0.259707
 0.120000   0.457517   -0.258492
 0.125000   0.456227   -0.257283
 0.130000   0.454944   -0.256080
 0.135000   0.453666   -0.254883
 0.140000   0.452395   -0.253692
 0.145000   0.451129   -0.252507
 0.150000   0.449870   -0.251328
 0.155000   0.448616   -0.250155
 0.160000   0.447368   -0.248988
 0.165000   0.446126   -0.247827
 0.170000   0.444890   -0.246672
 0.175000   0.443660   -0.245522
 0.180000   0.442435   -0.244378
 0.185000   0.441216   -0.243240
 0.190000   0.440002   -0.242108
 0.195000   0.438795   -0.240981
 0.200000   0.437593   -0.239860
 0.205000   0.436396   -0.238745
 0.210000   0.435205   -0.237635
 0.215000   0.434020   -0.236530
 0.220000   0.432840   -0.235431
 0.225000   0.431665   -0.234338
 0.230000   0.430496   -0.233250
 0.235000   0.429333   -0.232167
 0.240000   0.428175   -0.231090
 0.245000   0.427022   -0.230018
 0.250000   0.425875   -0.228951
 0.255000   0.424732   -0.227890
 0.260000   0.423596   -0.226834
 0.265000   0.422464   -0.225783
 0.270000   0.421338   -0.224737
 0.275000   0.420217   -0.223697
 0.280000   0.419101   -0.222661
 0.285000   0.417990   -0.221631
 0.290000   0.416885   -0.220605
 0.295000   0.415784   -0.219585
 0.300000   0.414689   -0.218570
 0.305000   0.413598   -0.217560
 0.310000   0.412513   -0.216554
 0.315000   0.411433   -0.215554
 0.320000   0.410358   -0.214558
 0.325000   0.409287   -0.213567
 0.330000   0.408222   -0.212582
 0.335000   0.407161   -0.211600
 0.340000   0.406106   -0.210624
 0.345000   0.405055   -0.209653
 0.350000   0.404009   -0.208686
 0.355000   0.402968   -0.207724
 0.360000   0.401932   -0.206766
 0.365000   0.400901   -0.205813
 0.370000   0.399874   -0.204865
 0.375000   0.398852   -0.203921
 0.380000   0.397835   -0.202982
 0.385000   0.396822   -0.202047
 0.390000   0.395814   -0.201117
 0.395000   0.394811   -0.200192
 0.400000   0.393812   -0.199271
 0.405000   0.392818   -0.198354
 0.410000   0.391829   -0.197441
 0.415000   0.390844   -0.196533
 0.420000   0.389864   -0.195630
 0.425000   0.388888   -0.194731
 0.430000   0.387916   -0.193836
 0.435000   0.386949   -0.192945
 0.440000   0.385987   -0.192058
 0.445000   0.385029   -0.191176
 0.450000   0.384075   -0.190298
 0.455000   0.383126   -0.189424
 0.460000   0.382181   -0.188554
 0.465000   0.381240   -0.187689
 0.470000   0.380304   -0.186827
 0.475000   0.379372   -0.185970
 0.480000   0.378444   -0.185116
 0.485000   0.377521   -0.184267
 0.490000   0.376602   -0.183422
 0.495000   0.375687   -0.182580
 0.500000   0.374776   -0.181743
 0.505000   0.373869   -0.180909
 0.510000   0.372967   -0.180080
 0.515000   0.372068   -0.179254
 0.520000   0.371174   -0.178432
 0.525000   0.370284   -0.177615
 0.530000   0.369398   -0.176800
 0.535000   0.368516   -0.175990
 0.540000   0.367638   -0.175184
 0.545000   0.366764   -0.174381
 0.550000   0.365894   -0.173582
 0.555000   0.365028   -0.172787
 0.560000   0.364166   -0.171995
 0.565000   0.363308   -0.171207
 0.570000   0.362454   -0.170423
 0.575000   0.361604   -0.169642
 0.580000   0.360758   -0.168865
 0.585000   0.359915   -0.168092
 0.590000   0.359077   -0.167322
 0.595000   0.358242   -0.166556
 0.600000   0.357411   -0.165793
 0.605000   0.356584   -0.165034
 0.610000   0.355761   -0.164278
 0.615000   0.354942   -0.163526
 0.620000   0.354126   -0.162777
 0.625000   0.353314   -0.162032
 0.630000   0.352505   -0.161290
 0.635000   0.351701   -0.160551
 0.640000   0.350900   -0.159816
 0.645000   0.350103   -0.159084
 0.650000   0.349309   -0.158355
 0.655000   0.348519   -0.157630
 0.660000   0.347733   -0.156908
 0.665000   0.346950   -0.156190
 0.670000   0.346171   -0.155474
 0.675000   0.345395   -0.154762
 0.680000   0.344623   -0.154053
 0.685000   0.343855   -0.153347
 0.690000   0.343090   -0.152645
 0.695000   0.342328   -0.151946
 0.700000   0.341570   -0.151249
 0.705000   0.340816   -0.150556
 0.710000   0.340065   -0.149866
 0.715000   0.339317   -0.149179
 0.720000   0.338573   -0.148496
 0.725000   0.337832   -0.147815
 0.730000   0.337095   -0.147137
 0.735000   0.336361   -0.146463
 0.740000   0.335630   -0.145791
 0.745000   0.334903   -0.145122
 0.750000   0.334179   -0.144456
 0.755000   0.333458   -0.143794
 0.760000   0.332741   -0.143134
 0.765000   0.332027   -0.142477
 0.770000   0.331316   -0.141823
 0.775000   0.330609   -0.141172
 0.780000   0.329905   -0.140524
 0.785000   0.329204   -0.139879
 0.790000   0.328506   -0.139236
 0.795000   0.327811   -0.138596
 0.800000   0.327120   -0.137959
 0.805000   0.326432   -0.137325
 0.810000   0.325747   -0.136694
 0.815000   0.325065   -0.136066
 0.820000   0.324386   -0.135440
 0.825000   0.323710   -0.134817
 0.830000   0.323038   -0.134196
 0.835000   0.322368   -0.133579
 0.840000   0.321702   -0.132964
 0.845000   0.321039   -0.132351
 0.850000   0.320378   -0.131742
 0.855000   0.319721   -0.131135
 0.860000   0.319067   -0.130530
 0.865000   0.318416   -0.129929
 0.870000   0.317768   -0.129329
 0.875000   0.317123   -0.128733
 0.880000   0.316481   -0.128139
 0.885000   0.315841   -0.127549
 0.890000   0.315205   -0.126965
 0.895000   0.314572   -0.126391
 0.900000   0.313941   -0.125841
 0.905000   0.313313   -0.125350
 0.910000   0.312688   -0.125008
 0.915000   0.312063   -0.125041
 0.920000   0.311437   -0.126010
 0.925000   0.310803   -0.129313
 0.930000   0.310144   -0.138381
 0.935000   0.309419   -0.161571
 0.940000   0.308528   -0.218957
 0.945000   0.307230   -0.357534
 0.950000   0.304953   -0.681468
 0.955000   0.300415   -1.394089
 0.960000   0.291012   -2.779634
 0.965000   0.272619   -4.889332
 0.970000   0.242119   -6.899968
 0.975000   0.203619   -7.376109
 0.980000   0.168358   -6.022499
 0.985000   0.143394   -4.069928
 0.990000   0.127658   -2.587060
 0.995000   0.117523   -1.735883
 1.000000   0.110300   -1.153632
201 psinorm te(KeV) dte/dpsiN
 0.000000   4.012152   -4.030264
 0.005000   3.992008   -4.027401
 0.010000   3.971878   -4.024457
 0.015000   3.951763   -4.021352
 0.020000   3.931664   -4.018088
 0.025000   3.911582   -4.014665
 0.030000   3.891518   -4.011085
 0.035000   3.871471   -4.007348
 0.040000   3.851444   -4.003456
 0.045000   3.831437   -3.999409
 0.050000   3.811450   -3.995209
 0.055000   3.791485   -3.990857
 0.060000   3.771541   -3.986354
 0.065000   3.751621   -3.981701
 0.070000   3.731724   -3.976898
 0.075000   3.711852   -3.971948
 0.080000   3.692005   -3.966851
 0.085000   3.672184   -3.961608
 0.090000   3.652389   -3.956221
 0.095000   3.632621   -3.950690
 0.100000   3.612882   -3.945017
 0.105000   3.593171   -3.939203
 0.110000   3.573490   -3.933250
 0.115000   3.553839   -3.927157
 0.120000   3.534218   -3.920926
 0.125000   3.514629   -3.914560
 0.130000   3.495073   -3.908057
 0.135000   3.475549   -3.901421
 0.140000   3.456058   -3.894652
 0.145000   3.436602   -3.887751
 0.150000   3.417181   -3.880719
 0.155000   3.397795   -3.873559
 0.160000   3.378445   -3.866270
 0.165000   3.359132   -3.858854
 0.170000   3.339857   -3.851312
 0.175000   3.320619   -3.843646
 0.180000   3.301420   -3.835856
 0.185000   3.282261   -3.827944
 0.190000   3.263141   -3.819912
 0.195000   3.244062   -3.811760
 0.200000   3.225023   -3.803489
 0.205000   3.206027   -3.795101
 0.210000   3.187072   -3.786598
 0.215000   3.168161   -3.777979
 0.220000   3.149293   -3.769248
 0.225000   3.130468   -3.760404
 0.230000   3.111689   -3.751449
 0.235000   3.092954   -3.742384
 0.240000   3.074265   -3.733211
 0.245000   3.055622   -3.723931
 0.250000   3.037025   -3.714545
 0.255000   3.018476   -3.705054
 0.260000   2.999975   -3.695460
 0.265000   2.981522   -3.685763
 0.270000   2.963117   -3.675966
 0.275000   2.944762   -3.666069
 0.280000   2.926456   -3.656074
 0.285000   2.908201   -3.645981
 0.290000   2.889997   -3.635793
 0.295000   2.871843   -3.625511
 0.300000   2.853742   -3.615134
 0.305000   2.835692   -3.604666
 0.310000   2.817695   -3.594108
 0.315000   2.799751   -3.583459
 0.320000   2.781860   -3.572723
 0.325000   2.764024   -3.561899
 0.330000   2.746241   -3.550990
 0.335000   2.728514   -3.539996
 0.340000   2.710841   -3.528919
 0.345000   2.693225   -3.517761
 0.350000   2.675664   -3.506521
 0.355000   2.658159   -3.495202
 0.360000   2.640712   -3.483805
 0.365000   2.623321   -3.472332
 0.370000   2.605988   -3.460782
 0.375000   2.588713   -3.449158
 0.380000   2.571497   -3.437461
 0.385000   2.554339   -3.425693
 0.390000   2.537240   -3.413853
 0.395000   2.520200   -3.401945
 0.400000   2.503220   -3.389968
 0.405000   2.486301   -3.377924
 0.410000   2.469441   -3.365815
 0.415000   2.452643   -3.353641
 0.420000   2.435905   -3.341404
 0.425000   2.419228   -3.329105
 0.430000   2.402614   -3.316746
 0.435000   2.386061   -3.304326
 0.440000   2.369570   -3.291849
 0.445000   2.353143   -3.279315
 0.450000   2.336777   -3.266725
 0.455000   2.320475   -3.254080
 0.460000   2.304237   -3.241382
 0.465000   2.288061   -3.228631
 0.470000   2.271950   -3.215830
 0.475000   2.255903   -3.202978
 0.480000   2.239920   -3.190078
 0.485000   2.224002   -3.177131
 0.490000   2.208149   -3.164138
 0.495000   2.192361   -3.151099
 0.500000   2.176638   -3.138016
 0.505000   2.160981   -3.124891
 0.510000   2.145389   -3.111724
 0.515000   2.129864   -3.098517
 0.520000   2.114404   -3.085271
 0.525000   2.099011   -3.071986
 0.530000   2.083684   -3.058664
 0.535000   2.068424   -3.045307
 0.540000   2.053231   -3.031915
 0.545000   2.038105   -3.018489
 0.550000   2.023046   -3.005031
 0.555000   2.008055   -2.991542
 0.560000   1.993131   -2.978023
 0.565000   1.978275   -2.964474
 0.570000   1.963486   -2.950897
 0.575000   1.948766   -2.937294
 0.580000   1.934113   -2.923665
 0.585000   1.919529   -2.910011
 0.590000   1.905013   -2.896333
 0.595000   1.890566   -2.882633
 0.600000   1.876187   -2.868911
 0.605000   1.861876   -2.855169
 0.610000   1.847635   -2.841408
 0.615000   1.833462   -2.827628
 0.620000   1.819359   -2.813831
 0.625000   1.805324   -2.800018
 0.630000   1.791359   -2.786189
 0.635000   1.777462   -2.772346
 0.640000   1.763635   -2.758490
 0.645000   1.749877   -2.744622
 0.650000   1.736189   -2.730743
 0.655000   1.722570   -2.716853
 0.660000   1.709020   -2.702955
 0.665000   1.695540   -2.689048
 0.670000   1.682130   -2.675133
 0.675000   1.668789   -2.661213
 0.680000   1.655518   -2.647287
 0.685000   1.642316   -2.633357
 0.690000   1.629184   -2.619423
 0.695000   1.616122   -2.605487
 0.700000   1.603129   -2.591549
 0.705000   1.590206   -2.577611
 0.710000   1.577353   -2.563673
 0.715000   1.564570   -2.549736
 0.720000   1.551856   -2.535801
 0.725000   1.539212   -2.521869
 0.730000   1.526637   -2.507941
 0.735000   1.514132   -2.494018
 0.740000   1.501697   -2.480101
 0.745000   1.489331   -2.466189
 0.750000   1.477035   -2.452286
 0.755000   1.464808   -2.438390
 0.760000   1.452651   -2.424503
 0.765000   1.440563   -2.410626
 0.770000   1.428545   -2.396760
 0.775000   1.416596   -2.382906
 0.780000   1.404716   -2.369063
 0.785000   1.392905   -2.355234
 0.790000   1.381164   -2.341418
 0.795000   1.369491   -2.327616
 0.800000   1.357887   -2.313830
 0.805000   1.346353   -2.300059
 0.810000   1.334887   -2.286304
 0.815000   1.323490   -2.272565
 0.820000   1.312161   -2.258842
 0.825000   1.300901   -2.245135
 0.830000   1.289710   -2.231443
 0.835000   1.278587   -2.217763
 0.840000   1.267532   -2.204093
 0.845000   1.256546   -2.190430
 0.850000   1.245628   -2.176766
 0.855000   1.234778   -2.163094
 0.860000   1.223997   -2.149406
 0.865000   1.213284   -2.135690
 0.870000   1.202640   -2.121942
 0.875000   1.192065   -2.108169
 0.880000   1.181558   -2.094410
 0.885000   1.171121   -2.080773
 0.890000   1.160751   -2.067513
 0.895000   1.150445   -2.055168
 0.900000   1.140199   -2.044828
 0.905000   1.129997   -2.038620
 0.910000   1.119813   -2.040589
 0.915000   1.109591   -2.058296
 0.920000   1.099230   -2.105643
 0.925000   1.088535   -2.207837
 0.930000   1.077151   -2.409883
 0.935000   1.064436   -2.790613
 0.940000   1.049245   -3.484252
 0.945000   1.029594   -4.708903
 0.950000   1.002156   -6.789922
 0.955000   0.961694   -10.133905
 0.960000   0.900817   -15.046901
 0.965000   0.811225   -21.256280
 0.970000   0.688254   -27.245296
 0.975000   0.538772   -30.283180
 0.980000   0.385423   -28.247812
 0.985000   0.256294   -21.934767
 0.990000   0.166075   -14.525966
 0.995000   0.111035   -8.646071
 1.000000   0.079614   -3.922076
201 psinorm ni(10^20/m^3) dni/dpsiN
 0.000000   0.287911   -0.403645
 0.005000   0.286102   -0.319882
 0.010000   0.284712   -0.246840
 0.015000   0.283634   -0.188615
 0.020000   0.282826   -0.139200
 0.025000   0.282242   -0.097100
 0.030000   0.281855   -0.061342
 0.035000   0.281628   -0.031474
 0.040000   0.281540   -0.005101
 0.045000   0.281577   0.017337
 0.050000   0.281714   0.035360
 0.055000   0.281931   0.050807
 0.060000   0.282222   0.063174
 0.065000   0.282563   0.072658
 0.070000   0.282948   0.080114
 0.075000   0.283364   0.085215
 0.080000   0.283800   0.088630
 0.085000   0.284250   0.090371
 0.090000   0.284704   0.090613
 0.095000   0.285156   0.089656
 0.100000   0.285601   0.087531
 0.105000   0.286031   0.084260
 0.110000   0.286443   0.080178
 0.115000   0.286833   0.075473
 0.120000   0.287198   0.070114
 0.125000   0.287534   0.064220
 0.130000   0.287840   0.057879
 0.135000   0.288113   0.051162
 0.140000   0.288352   0.044141
 0.145000   0.288555   0.036910
 0.150000   0.288721   0.029554
 0.155000   0.288850   0.022131
 0.160000   0.288942   0.014688
 0.165000   0.288997   0.007264
 0.170000   0.289015   -0.000099
 0.175000   0.288996   -0.007375
 0.180000   0.288941   -0.014560
 0.185000   0.288850   -0.021600
 0.190000   0.288725   -0.028419
 0.195000   0.288566   -0.035073
 0.200000   0.288374   -0.041964
 0.205000   0.288147   -0.048591
 0.210000   0.287888   -0.054558
 0.215000   0.287601   -0.060284
 0.220000   0.287286   -0.065747
 0.225000   0.286944   -0.070923
 0.230000   0.286576   -0.075833
 0.235000   0.286185   -0.080792
 0.240000   0.285768   -0.085902
 0.245000   0.285326   -0.090521
 0.250000   0.284863   -0.094563
 0.255000   0.284381   -0.098400
 0.260000   0.283879   -0.102048
 0.265000   0.283360   -0.105715
 0.270000   0.282822   -0.109524
 0.275000   0.282265   -0.112982
 0.280000   0.281692   -0.115960
 0.285000   0.281105   -0.118765
 0.290000   0.280505   -0.121446
 0.295000   0.279891   -0.124428
 0.300000   0.279260   -0.127239
 0.305000   0.278618   -0.129487
 0.310000   0.277965   -0.131638
 0.315000   0.277302   -0.133725
 0.320000   0.276628   -0.136011
 0.325000   0.275942   -0.138120
 0.330000   0.275247   -0.139790
 0.335000   0.274544   -0.141377
 0.340000   0.273833   -0.143003
 0.345000   0.273114   -0.144704
 0.350000   0.272386   -0.146210
 0.355000   0.271652   -0.147509
 0.360000   0.270911   -0.148781
 0.365000   0.270164   -0.150208
 0.370000   0.269409   -0.151607
 0.375000   0.268648   -0.152780
 0.380000   0.267881   -0.153898
 0.385000   0.267109   -0.155043
 0.390000   0.266331   -0.156192
 0.395000   0.265547   -0.157171
 0.400000   0.264759   -0.157991
 0.405000   0.263967   -0.158740
 0.410000   0.263172   -0.159477
 0.415000   0.262372   -0.160058
 0.420000   0.261571   -0.160407
 0.425000   0.260768   -0.160635
 0.430000   0.259965   -0.160846
 0.435000   0.259160   -0.160932
 0.440000   0.258355   -0.160794
 0.445000   0.257552   -0.160569
 0.450000   0.256750   -0.160344
 0.455000   0.255948   -0.160077
 0.460000   0.255149   -0.159654
 0.465000   0.254352   -0.159113
 0.470000   0.253558   -0.158541
 0.475000   0.252767   -0.157916
 0.480000   0.251979   -0.157103
 0.485000   0.251196   -0.156083
 0.490000   0.250418   -0.154914
 0.495000   0.249646   -0.153627
 0.500000   0.248882   -0.152129
 0.505000   0.248125   -0.150377
 0.510000   0.247378   -0.148446
 0.515000   0.246641   -0.146412
 0.520000   0.245914   -0.144210
 0.525000   0.245199   -0.141780
 0.530000   0.244496   -0.139205
 0.535000   0.243806   -0.136544
 0.540000   0.243130   -0.133775
 0.545000   0.242469   -0.130838
 0.550000   0.241822   -0.127764
 0.555000   0.241191   -0.124592
 0.560000   0.240576   -0.121331
 0.565000   0.239978   -0.117923
 0.570000   0.239397   -0.114354
 0.575000   0.238834   -0.110661
 0.580000   0.238290   -0.106885
 0.585000   0.237765   -0.103001
 0.590000   0.237260   -0.098988
 0.595000   0.236775   -0.094906
 0.600000   0.236311   -0.090782
 0.605000   0.235868   -0.086629
 0.610000   0.235445   -0.082423
 0.615000   0.235043   -0.078163
 0.620000   0.234663   -0.073831
 0.625000   0.234305   -0.069405
 0.630000   0.233969   -0.064876
 0.635000   0.233656   -0.060242
 0.640000   0.233367   -0.055519
 0.645000   0.233101   -0.050720
 0.650000   0.232860   -0.045808
 0.655000   0.232643   -0.040847
 0.660000   0.232451   -0.035951
 0.665000   0.232284   -0.031093
 0.670000   0.232140   -0.026174
 0.675000   0.232022   -0.020985
 0.680000   0.231930   -0.014957
 0.685000   0.231872   -0.007837
 0.690000   0.231852   0.000041
 0.695000   0.231873   0.008530
 0.700000   0.231937   0.017559
 0.705000   0.232048   0.026917
 0.710000   0.232207   0.036708
 0.715000   0.232415   0.046328
 0.720000   0.232670   0.054754
 0.725000   0.232963   0.061926
 0.730000   0.233289   0.067836
 0.735000   0.233641   0.072236
 0.740000   0.234011   0.074909
 0.745000   0.234390   0.075473
 0.750000   0.234766   0.073807
 0.755000   0.235128   0.070207
 0.760000   0.235468   0.064885
 0.765000   0.235777   0.058052
 0.770000   0.236049   0.049764
 0.775000   0.236275   0.040380
 0.780000   0.236453   0.031019
 0.785000   0.236585   0.022190
 0.790000   0.236674   0.013797
 0.795000   0.236723   0.006005
 0.800000   0.236734   -0.001128
 0.805000   0.236712   -0.007435
 0.810000   0.236660   -0.012745
 0.815000   0.236584   -0.017421
 0.820000   0.236486   -0.021919
 0.825000   0.236365   -0.026395
 0.830000   0.236222   -0.030915
 0.835000   0.236056   -0.035421
 0.840000   0.235868   -0.039761
 0.845000   0.235658   -0.043877
 0.850000   0.235429   -0.047785
 0.855000   0.235181   -0.051476
 0.860000   0.234914   -0.054941
 0.865000   0.234631   -0.058159
 0.870000   0.234333   -0.061069
 0.875000   0.234020   -0.063598
 0.880000   0.233697   -0.065723
 0.885000   0.233363   -0.067401
 0.890000   0.233023   -0.068558
 0.895000   0.232678   -0.068861
 0.900000   0.232334   -0.068170
 0.905000   0.231996   -0.066288
 0.910000   0.231671   -0.062345
 0.915000   0.231372   -0.054987
 0.920000   0.231121   -0.042097
 0.925000   0.230952   -0.019360
 0.930000   0.230928   0.016200
 0.935000   0.231114   0.064260
 0.940000   0.231570   0.116131
 0.945000   0.232275   0.134597
 0.950000   0.232916   0.018459
 0.955000   0.232459   -0.438498
 0.960000   0.228531   -1.558315
 0.965000   0.216876   -3.456044
 0.970000   0.193971   -5.358629
 0.975000   0.163290   -5.858192
 0.980000   0.135389   -4.647786
 0.985000   0.116812   -2.911807
 0.990000   0.106271   -1.665576
 0.995000   0.100156   -1.028617
 1.000000   0.095985   -0.640058
201 psinorm ti(KeV) dti/dpsiN
 0.000000   5.617651   0.003481
 0.005000   5.616837   -0.328960
 0.010000   5.614361   -0.666426
 0.015000   5.610173   -1.013475
 0.020000   5.604227   -1.369074
 0.025000   5.596482   -1.732005
 0.030000   5.586907   -2.100900
 0.035000   5.575473   -2.474301
 0.040000   5.562163   -2.850218
 0.045000   5.546971   -3.227278
 0.050000   5.529891   -3.604495
 0.055000   5.510926   -3.980251
 0.060000   5.490088   -4.352951
 0.065000   5.467397   -4.720765
 0.070000   5.442881   -5.080025
 0.075000   5.416596   -5.429090
 0.080000   5.388590   -5.768523
 0.085000   5.358911   -6.097197
 0.090000   5.327618   -6.414194
 0.095000   5.294769   -6.719058
 0.100000   5.260427   -7.010172
 0.105000   5.224667   -7.288488
 0.110000   5.187542   -7.556161
 0.115000   5.149106   -7.812676
 0.120000   5.109415   -8.058415
 0.125000   5.068522   -8.294965
 0.130000   5.026466   -8.525217
 0.135000   4.983269   -8.750234
 0.140000   4.938963   -8.966104
 0.145000   4.893608   -9.169615
 0.150000   4.847267   -9.360088
 0.155000   4.800008   -9.536651
 0.160000   4.751901   -9.698973
 0.165000   4.703018   -9.845199
 0.170000   4.653449   -9.972387
 0.175000   4.603294   -10.079907
 0.180000   4.552650   -10.167857
 0.185000   4.501615   -10.235779
 0.190000   4.450292   -10.282559
 0.195000   4.398790   -10.306883
 0.200000   4.347223   -10.311894
 0.205000   4.295671   -10.301775
 0.210000   4.244205   -10.278612
 0.215000   4.192885   -10.245065
 0.220000   4.141755   -10.203331
 0.225000   4.090851   -10.156300
 0.230000   4.040192   -10.105337
 0.235000   3.989798   -10.049551
 0.240000   3.939696   -9.988710
 0.245000   3.889911   -9.922823
 0.250000   3.840468   -9.852297
 0.255000   3.791388   -9.778569
 0.260000   3.742682   -9.694859
 0.265000   3.694439   -9.596464
 0.270000   3.646718   -9.486233
 0.275000   3.599577   -9.363881
 0.280000   3.553079   -9.229372
 0.285000   3.507283   -9.082965
 0.290000   3.462249   -8.922528
 0.295000   3.418058   -8.747828
 0.300000   3.374771   -8.560500
 0.305000   3.332453   -8.359920
 0.310000   3.291172   -8.146075
 0.315000   3.250992   -7.917042
 0.320000   3.212001   -7.683695
 0.325000   3.174155   -7.456583
 0.330000   3.137435   -7.233700
 0.335000   3.101818   -7.015867
 0.340000   3.067277   -6.803836
 0.345000   3.033780   -6.598457
 0.350000   3.001292   -6.401547
 0.355000   2.969765   -6.212880
 0.360000   2.939163   -6.030716
 0.365000   2.909457   -5.854661
 0.370000   2.880617   -5.684315
 0.375000   2.852614   -5.521685
 0.380000   2.825400   -5.363104
 0.385000   2.798983   -5.201217
 0.390000   2.773388   -5.034580
 0.395000   2.748637   -4.863180
 0.400000   2.724756   -4.687408
 0.405000   2.701763   -4.506225
 0.410000   2.679694   -4.321273
 0.415000   2.658551   -4.139292
 0.420000   2.638301   -3.964397
 0.425000   2.618907   -3.797698
 0.430000   2.600324   -3.640131
 0.435000   2.582505   -3.490565
 0.440000   2.565418   -3.349633
 0.445000   2.549009   -3.219995
 0.450000   2.533218   -3.101138
 0.455000   2.517998   -2.991981
 0.460000   2.503298   -2.892556
 0.465000   2.489072   -2.802695
 0.470000   2.475271   -2.723025
 0.475000   2.461842   -2.653976
 0.480000   2.448732   -2.594612
 0.485000   2.435896   -2.544021
 0.490000   2.423292   -2.501316
 0.495000   2.410883   -2.465124
 0.500000   2.398640   -2.432668
 0.505000   2.386556   -2.402153
 0.510000   2.374619   -2.374597
 0.515000   2.362810   -2.350930
 0.520000   2.351109   -2.331193
 0.525000   2.339498   -2.314982
 0.530000   2.327960   -2.301388
 0.535000   2.316484   -2.291329
 0.540000   2.305046   -2.285473
 0.545000   2.293629   -2.282949
 0.550000   2.282217   -2.283588
 0.555000   2.270793   -2.287037
 0.560000   2.259346   -2.292452
 0.565000   2.247869   -2.301225
 0.570000   2.236334   -2.314126
 0.575000   2.224728   -2.329905
 0.580000   2.213035   -2.348458
 0.585000   2.201243   -2.369663
 0.590000   2.189339   -2.393421
 0.595000   2.177309   -2.419533
 0.600000   2.165143   -2.447234
 0.605000   2.152837   -2.475772
 0.610000   2.140385   -2.504829
 0.615000   2.127788   -2.534096
 0.620000   2.115045   -2.563885
 0.625000   2.102149   -2.593396
 0.630000   2.089111   -2.621542
 0.635000   2.075934   -2.648341
 0.640000   2.062627   -2.673439
 0.645000   2.049200   -2.696471
 0.650000   2.035662   -2.718079
 0.655000   2.022019   -2.738812
 0.660000   2.008274   -2.759129
 0.665000   1.994428   -2.779822
 0.670000   1.980476   -2.800777
 0.675000   1.966420   -2.821513
 0.680000   1.952261   -2.843343
 0.685000   1.937986   -2.862689
 0.690000   1.923634   -2.873948
 0.695000   1.909247   -2.877147
 0.700000   1.894863   -2.872606
 0.705000   1.880521   -2.860280
 0.710000   1.866260   -2.840379
 0.715000   1.852117   -2.812516
 0.720000   1.838135   -2.777028
 0.725000   1.824347   -2.735190
 0.730000   1.810783   -2.687704
 0.735000   1.797470   -2.635220
 0.740000   1.784431   -2.577347
 0.745000   1.771696   -2.514945
 0.750000   1.759281   -2.451917
 0.755000   1.747177   -2.390972
 0.760000   1.735371   -2.333391
 0.765000   1.723843   -2.280610
 0.770000   1.712565   -2.233660
 0.775000   1.701506   -2.192522
 0.780000   1.690640   -2.154769
 0.785000   1.679959   -2.118671
 0.790000   1.669453   -2.084505
 0.795000   1.659114   -2.052476
 0.800000   1.648929   -2.023227
 0.805000   1.638881   -1.997397
 0.810000   1.628955   -1.974689
 0.815000   1.619135   -1.956360
 0.820000   1.609391   -1.944733
 0.825000   1.599687   -1.940896
 0.830000   1.589982   -1.946039
 0.835000   1.580227   -1.961115
 0.840000   1.570371   -1.982386
 0.845000   1.560403   -2.008229
 0.850000   1.550289   -2.041975
 0.855000   1.539983   -2.085884
 0.860000   1.529430   -2.143209
 0.865000   1.518551   -2.220368
 0.870000   1.507226   -2.317433
 0.875000   1.495377   -2.433996
 0.880000   1.482886   -2.575380
 0.885000   1.469623   -2.744599
 0.890000   1.455440   -2.945493
 0.895000   1.440168   -3.200709
 0.900000   1.423433   -3.514537
 0.905000   1.405023   -3.883455
 0.910000   1.384599   -4.324731
 0.915000   1.361775   -4.848134
 0.920000   1.336117   -5.463949
 0.925000   1.307136   -6.227649
 0.930000   1.273841   -7.105839
 0.935000   1.236078   -8.031506
 0.940000   1.193526   -9.008749
 0.945000   1.145990   -10.001720
 0.950000   1.093508   -10.957243
 0.955000   1.036418   -11.850491
 0.960000   0.975004   -12.566906
 0.965000   0.910749   -12.998745
 0.970000   0.845016   -13.154892
 0.975000   0.779200   -13.028777
 0.980000   0.714728   -12.624350
 0.985000   0.652956   -11.972803
 0.990000   0.595000   -11.101576
 0.995000   0.541940   -10.062275
 1.000000   0.494378   -8.962870
201 psinorm nb(10^20/m^3) dnb/dpsiN
 0.000000   0.097472   0.114203
 0.005000   0.097837   0.031973
 0.010000   0.097792   -0.039540
 0.015000   0.097442   -0.096239
 0.020000   0.096829   -0.144132
 0.025000   0.096001   -0.184712
 0.030000   0.094982   -0.218955
 0.035000   0.093811   -0.247309
 0.040000   0.092509   -0.272170
 0.045000   0.091089   -0.293098
 0.050000   0.089578   -0.309613
 0.055000   0.087993   -0.323552
 0.060000   0.086342   -0.334412
 0.065000   0.084649   -0.342390
 0.070000   0.082919   -0.348341
 0.075000   0.081166   -0.351937
 0.080000   0.079399   -0.353849
 0.085000   0.077627   -0.354088
 0.090000   0.075858   -0.352830
 0.095000   0.074099   -0.350377
 0.100000   0.072355   -0.346759
 0.105000   0.070631   -0.341999
 0.110000   0.068935   -0.336432
 0.115000   0.067267   -0.330247
 0.120000   0.065632   -0.323413
 0.125000   0.064033   -0.316054
 0.130000   0.062472   -0.308255
 0.135000   0.060950   -0.300090
 0.140000   0.059471   -0.291631
 0.145000   0.058034   -0.282973
 0.150000   0.056641   -0.274205
 0.155000   0.055292   -0.265384
 0.160000   0.053987   -0.256561
 0.165000   0.052726   -0.247777
 0.170000   0.051509   -0.239073
 0.175000   0.050336   -0.230477
 0.180000   0.049205   -0.221995
 0.185000   0.048116   -0.213682
 0.190000   0.047068   -0.205618
 0.195000   0.046059   -0.197748
 0.200000   0.045090   -0.189671
 0.205000   0.044163   -0.181889
 0.210000   0.043271   -0.174800
 0.215000   0.042415   -0.167986
 0.220000   0.041591   -0.161468
 0.225000   0.040800   -0.155268
 0.230000   0.040039   -0.149363
 0.235000   0.039306   -0.143439
 0.240000   0.038604   -0.137399
 0.245000   0.037932   -0.131886
 0.250000   0.037286   -0.126989
 0.255000   0.036663   -0.122338
 0.260000   0.036062   -0.117925
 0.265000   0.035483   -0.113548
 0.270000   0.034927   -0.109083
 0.275000   0.034392   -0.105027
 0.280000   0.033876   -0.101509
 0.285000   0.033377   -0.098224
 0.290000   0.032894   -0.095122
 0.295000   0.032426   -0.091779
 0.300000   0.031976   -0.088660
 0.305000   0.031540   -0.086152
 0.310000   0.031115   -0.083786
 0.315000   0.030702   -0.081522
 0.320000   0.030300   -0.079089
 0.325000   0.029911   -0.076858
 0.330000   0.029531   -0.075087
 0.335000   0.029160   -0.073420
 0.340000   0.028797   -0.071734
 0.345000   0.028443   -0.069998
 0.350000   0.028097   -0.068493
 0.355000   0.027758   -0.067234
 0.360000   0.027425   -0.066043
 0.365000   0.027097   -0.064736
 0.370000   0.026777   -0.063496
 0.375000   0.026462   -0.062517
 0.380000   0.026152   -0.061612
 0.385000   0.025846   -0.060672
 0.390000   0.025545   -0.059713
 0.395000   0.025249   -0.058896
 0.400000   0.024956   -0.058193
 0.405000   0.024667   -0.057497
 0.410000   0.024381   -0.056724
 0.415000   0.024100   -0.056012
 0.420000   0.023821   -0.055432
 0.425000   0.023546   -0.054865
 0.430000   0.023273   -0.054205
 0.435000   0.023004   -0.053551
 0.440000   0.022737   -0.053019
 0.445000   0.022473   -0.052509
 0.450000   0.022212   -0.051933
 0.455000   0.021954   -0.051330
 0.460000   0.021699   -0.050813
 0.465000   0.021446   -0.050349
 0.470000   0.021195   -0.049853
 0.475000   0.020947   -0.049321
 0.480000   0.020702   -0.048852
 0.485000   0.020459   -0.048447
 0.490000   0.020218   -0.048034
 0.495000   0.019978   -0.047573
 0.500000   0.019742   -0.047150
 0.505000   0.019507   -0.046802
 0.510000   0.019274   -0.046462
 0.515000   0.019042   -0.046062
 0.520000   0.018813   -0.045673
 0.525000   0.018586   -0.045364
 0.530000   0.018360   -0.045063
 0.535000   0.018135   -0.044725
 0.540000   0.017912   -0.044379
 0.545000   0.017691   -0.044087
 0.550000   0.017471   -0.043821
 0.555000   0.017253   -0.043544
 0.560000   0.017036   -0.043245
 0.565000   0.016821   -0.042978
 0.570000   0.016606   -0.042752
 0.575000   0.016393   -0.042534
 0.580000   0.016181   -0.042288
 0.585000   0.015970   -0.042055
 0.590000   0.015760   -0.041873
 0.595000   0.015551   -0.041703
 0.600000   0.015343   -0.041534
 0.605000   0.015136   -0.041367
 0.610000   0.014930   -0.041230
 0.615000   0.014724   -0.041123
 0.620000   0.014518   -0.041027
 0.625000   0.014313   -0.040937
 0.630000   0.014109   -0.040863
 0.635000   0.013905   -0.040817
 0.640000   0.013701   -0.040786
 0.645000   0.013497   -0.040766
 0.650000   0.013293   -0.040761
 0.655000   0.013089   -0.040773
 0.660000   0.012885   -0.040796
 0.665000   0.012681   -0.040829
 0.670000   0.012477   -0.040869
 0.675000   0.012273   -0.040930
 0.680000   0.012068   -0.041007
 0.685000   0.011863   -0.041086
 0.690000   0.011657   -0.041169
 0.695000   0.011451   -0.041257
 0.700000   0.011244   -0.041364
 0.705000   0.011037   -0.041482
 0.710000   0.010830   -0.041592
 0.715000   0.010621   -0.041702
 0.720000   0.010413   -0.041813
 0.725000   0.010203   -0.041928
 0.730000   0.009993   -0.042051
 0.735000   0.009783   -0.042167
 0.740000   0.009572   -0.042265
 0.745000   0.009360   -0.042358
 0.750000   0.009148   -0.042444
 0.755000   0.008936   -0.042521
 0.760000   0.008723   -0.042589
 0.765000   0.008510   -0.042631
 0.770000   0.008297   -0.042649
 0.775000   0.008083   -0.042657
 0.780000   0.007870   -0.042652
 0.785000   0.007657   -0.042630
 0.790000   0.007444   -0.042586
 0.795000   0.007231   -0.042519
 0.800000   0.007019   -0.042432
 0.805000   0.006807   -0.042327
 0.810000   0.006595   -0.042209
 0.815000   0.006385   -0.042076
 0.820000   0.006174   -0.041926
 0.825000   0.005965   -0.041754
 0.830000   0.005757   -0.041547
 0.835000   0.005550   -0.041315
 0.840000   0.005344   -0.041068
 0.845000   0.005139   -0.040791
 0.850000   0.004936   -0.040483
 0.855000   0.004734   -0.040142
 0.860000   0.004534   -0.039764
 0.865000   0.004337   -0.039348
 0.870000   0.004141   -0.038901
 0.875000   0.003948   -0.038427
 0.880000   0.003757   -0.037909
 0.885000   0.003569   -0.037368
 0.890000   0.003383   -0.036822
 0.895000   0.003200   -0.036252
 0.900000   0.003021   -0.035658
 0.905000   0.002844   -0.035045
 0.910000   0.002670   -0.034419
 0.915000   0.002500   -0.033837
 0.920000   0.002332   -0.033410
 0.925000   0.002165   -0.033234
 0.930000   0.001999   -0.033349
 0.935000   0.001832   -0.033766
 0.940000   0.001662   -0.034469
 0.945000   0.001487   -0.035383
 0.950000   0.001308   -0.036258
 0.955000   0.001125   -0.036417
 0.960000   0.000944   -0.035062
 0.965000   0.000774   -0.032047
 0.970000   0.000623   -0.027844
 0.975000   0.000496   -0.022976
 0.980000   0.000393   -0.018154
 0.985000   0.000314   -0.014850
 0.990000   0.000245   -0.013343
 0.995000   0.000181   -0.012954
 1.000000   0.000115   -0.013130
201 psinorm pb(KPa) dpb/dpsiN
 0.000000   39.655572   29.326447
 0.005000   39.728819   -0.027518
 0.010000   39.655297   -27.187675
 0.015000   39.456943   -50.590953
 0.020000   39.149387   -70.203700
 0.025000   38.754906   -86.404329
 0.030000   38.285344   -99.751696
 0.035000   37.757389   -110.612518
 0.040000   37.179219   -120.089459
 0.045000   36.556494   -127.939049
 0.050000   35.899828   -133.954960
 0.055000   35.216944   -138.901246
 0.060000   34.510816   -142.639958
 0.065000   33.790545   -145.217685
 0.070000   33.058639   -147.002767
 0.075000   32.320517   -147.953988
 0.080000   31.579099   -148.244946
 0.085000   30.838068   -147.807767
 0.090000   30.101021   -146.790123
 0.095000   29.370166   -145.331686
 0.100000   28.647705   -143.436168
 0.105000   27.935805   -141.135113
 0.110000   27.236353   -138.546973
 0.115000   26.550335   -135.720874
 0.120000   25.879145   -132.656301
 0.125000   25.223772   -129.408793
 0.130000   24.585057   -126.012320
 0.135000   23.963649   -122.492798
 0.140000   23.360129   -118.858619
 0.145000   22.775063   -115.162990
 0.150000   22.208499   -111.471664
 0.155000   21.660346   -107.793337
 0.160000   21.130566   -104.131452
 0.165000   20.619031   -100.502356
 0.170000   20.125542   -96.921796
 0.175000   19.649814   -93.392754
 0.180000   19.191614   -89.909771
 0.185000   18.750716   -86.501093
 0.190000   18.326603   -83.216162
 0.195000   17.918554   -80.030511
 0.200000   17.526298   -76.776015
 0.205000   17.150794   -73.646302
 0.210000   16.789835   -70.795740
 0.215000   16.442837   -68.061306
 0.220000   16.109222   -65.458715
 0.225000   15.788250   -63.004748
 0.230000   15.479175   -60.678980
 0.235000   15.181460   -58.333061
 0.240000   14.895844   -55.932277
 0.245000   14.622137   -53.740191
 0.250000   14.358442   -51.787455
 0.255000   14.104262   -49.932700
 0.260000   13.859115   -48.172686
 0.265000   13.622536   -46.431791
 0.270000   13.394797   -44.662850
 0.275000   13.175907   -43.036892
 0.280000   12.964428   -41.610991
 0.285000   12.759797   -40.290710
 0.290000   12.561521   -39.048449
 0.295000   12.369313   -37.717182
 0.300000   12.184350   -36.471516
 0.305000   12.004597   -35.457520
 0.310000   11.829774   -34.498541
 0.315000   11.659612   -33.580230
 0.320000   11.493972   -32.600839
 0.325000   11.333604   -31.700543
 0.330000   11.176967   -30.977219
 0.335000   11.023831   -30.296062
 0.340000   10.874006   -29.606759
 0.345000   10.727764   -28.898179
 0.350000   10.585024   -28.277423
 0.355000   10.444990   -27.750091
 0.360000   10.307523   -27.249395
 0.365000   10.172496   -26.708252
 0.370000   10.040441   -26.193422
 0.375000   9.910561   -25.777229
 0.380000   9.782669   -25.389190
 0.385000   9.656670   -24.990225
 0.390000   9.532766   -24.582805
 0.395000   9.410842   -24.227752
 0.400000   9.290489   -23.919892
 0.405000   9.171643   -23.616254
 0.410000   9.054326   -23.287233
 0.415000   8.938770   -22.980733
 0.420000   8.824519   -22.721905
 0.425000   8.711551   -22.466999
 0.430000   8.599849   -22.178231
 0.435000   8.489769   -21.891489
 0.440000   8.380934   -21.648602
 0.445000   8.273283   -21.413887
 0.450000   8.166795   -21.156459
 0.455000   8.061718   -20.889958
 0.460000   7.957896   -20.656453
 0.465000   7.855154   -20.443407
 0.470000   7.753461   -20.220819
 0.475000   7.652946   -19.988312
 0.480000   7.553578   -19.780376
 0.485000   7.455142   -19.597029
 0.490000   7.357608   -19.413157
 0.495000   7.261010   -19.217074
 0.500000   7.165437   -19.036509
 0.505000   7.070645   -18.882202
 0.510000   6.976615   -18.731458
 0.515000   6.883331   -18.563892
 0.520000   6.790976   -18.399517
 0.525000   6.699335   -18.260267
 0.530000   6.608374   -18.126754
 0.535000   6.518068   -17.983063
 0.540000   6.428543   -17.834688
 0.545000   6.339721   -17.701595
 0.550000   6.251527   -17.577202
 0.555000   6.163949   -17.449699
 0.560000   6.077030   -17.315324
 0.565000   5.990796   -17.189576
 0.570000   5.905134   -17.076596
 0.575000   5.820030   -16.966993
 0.580000   5.735464   -16.849010
 0.585000   5.651540   -16.731547
 0.590000   5.568149   -16.628192
 0.595000   5.485258   -16.531037
 0.600000   5.402839   -16.437504
 0.605000   5.320883   -16.344649
 0.610000   5.239392   -16.257593
 0.615000   5.158307   -16.178463
 0.620000   5.077608   -16.103411
 0.625000   4.997273   -16.031633
 0.630000   4.917291   -15.965386
 0.635000   4.837619   -15.906544
 0.640000   4.758226   -15.852434
 0.645000   4.679095   -15.801410
 0.650000   4.600212   -15.755969
 0.655000   4.521535   -15.715118
 0.660000   4.443060   -15.676003
 0.665000   4.364775   -15.639207
 0.670000   4.286668   -15.603820
 0.675000   4.208737   -15.574231
 0.680000   4.130926   -15.549556
 0.685000   4.053241   -15.524778
 0.690000   3.975678   -15.500463
 0.695000   3.898236   -15.476480
 0.700000   3.820914   -15.458411
 0.705000   3.743652   -15.443485
 0.710000   3.666479   -15.425656
 0.715000   3.589396   -15.407637
 0.720000   3.512402   -15.389569
 0.725000   3.435500   -15.372106
 0.730000   3.358681   -15.357264
 0.735000   3.281927   -15.339479
 0.740000   3.205286   -15.316295
 0.745000   3.128764   -15.291326
 0.750000   3.052373   -15.263487
 0.755000   2.976130   -15.232524
 0.760000   2.900048   -15.197350
 0.765000   2.824156   -15.151339
 0.770000   2.748535   -15.096508
 0.775000   2.673191   -15.039646
 0.780000   2.598138   -14.979240
 0.785000   2.523399   -14.913512
 0.790000   2.449003   -14.839807
 0.795000   2.375001   -14.758686
 0.800000   2.301416   -14.672024
 0.805000   2.228280   -14.579735
 0.810000   2.155619   -14.482345
 0.815000   2.083457   -14.379382
 0.820000   2.011825   -14.269811
 0.825000   1.940759   -14.152400
 0.830000   1.870301   -14.021040
 0.835000   1.800548   -13.881093
 0.840000   1.731490   -13.737289
 0.845000   1.663175   -13.583758
 0.850000   1.595652   -13.420118
 0.855000   1.528974   -13.245607
 0.860000   1.463196   -13.059623
 0.865000   1.398378   -12.861129
 0.870000   1.334585   -12.651255
 0.875000   1.271865   -12.431225
 0.880000   1.210273   -12.193135
 0.885000   1.149934   -11.947361
 0.890000   1.090799   -11.702755
 0.895000   1.032907   -11.450578
 0.900000   0.976293   -11.192286
 0.905000   0.920984   -10.930271
 0.910000   0.866991   -10.667375
 0.915000   0.814310   -10.417414
 0.920000   0.762817   -10.208562
 0.925000   0.712224   -10.067428
 0.930000   0.662142   -10.011036
 0.935000   0.612114   -10.054215
 0.940000   0.561600   -10.209425
 0.945000   0.510020   -10.475435
 0.950000   0.456846   -10.805552
 0.955000   0.401964   -11.026702
 0.960000   0.346579   -10.901984
 0.965000   0.292944   -10.364718
 0.970000   0.242932   -9.593831
 0.975000   0.197006   -8.805800
 0.980000   0.154874   -8.030405
 0.985000   0.116702   -7.172415
 0.990000   0.083149   -5.997393
 0.995000   0.056728   -4.757333
 1.000000   0.035576   -3.703462
201 psinorm ptot(KPa) dptot/dpsiN
 0.000000   98.664390   -57.261941
 0.005000   98.320270   -80.386269
 0.010000   97.860527   -102.298873
 0.015000   97.297281   -121.824286
 0.020000   96.642284   -138.389771
 0.025000   95.913383   -152.238871
 0.030000   95.119896   -163.839888
 0.035000   94.274984   -173.514994
 0.040000   93.384746   -182.145033
 0.045000   92.453534   -189.520540
 0.050000   91.489540   -195.473341
 0.055000   90.498800   -200.596256
 0.060000   89.483578   -204.787171
 0.065000   88.450929   -208.065203
 0.070000   87.402926   -210.703535
 0.075000   86.343893   -212.679595
 0.080000   85.276130   -214.108604
 0.085000   84.202807   -214.913417
 0.090000   83.126996   -215.219325
 0.095000   82.050614   -215.134930
 0.100000   80.975646   -214.650525
 0.105000   79.904109   -213.797249
 0.110000   78.837674   -212.672878
 0.115000   77.777380   -211.305833
 0.120000   76.724616   -209.697611
 0.125000   75.680404   -207.899190
 0.130000   74.645624   -205.949546
 0.135000   73.620909   -203.872029
 0.140000   72.606903   -201.648337
 0.145000   71.604425   -199.306822
 0.150000   70.613835   -196.901816
 0.155000   69.635407   -194.432206
 0.160000   68.669513   -191.895235
 0.165000   67.716455   -189.294506
 0.170000   66.776568   -186.627624
 0.175000   65.850178   -183.892404
 0.180000   64.937644   -181.083417
 0.185000   64.039344   -178.222877
 0.190000   63.155415   -175.349716
 0.195000   62.285847   -172.437687
 0.200000   61.431038   -169.362490
 0.205000   60.592222   -166.303902
 0.210000   59.767999   -163.400263
 0.215000   58.958220   -160.532181
 0.220000   58.162678   -157.725750
 0.225000   57.380962   -155.011449
 0.230000   56.612563   -152.378017
 0.235000   55.857182   -149.693801
 0.240000   55.115625   -146.929636
 0.245000   54.387886   -144.309231
 0.250000   53.672533   -141.861501
 0.255000   52.969271   -139.476701
 0.260000   52.277766   -137.120706
 0.265000   51.598063   -134.708398
 0.270000   50.930682   -132.214247
 0.275000   50.275921   -129.779893
 0.280000   49.632883   -127.456441
 0.285000   49.001357   -125.170010
 0.290000   48.381183   -122.886730
 0.295000   47.772489   -120.462535
 0.300000   47.176557   -118.054990
 0.305000   46.591939   -115.787207
 0.310000   46.018685   -113.509367
 0.315000   45.456846   -111.200831
 0.320000   44.906677   -108.825518
 0.325000   44.368591   -106.554320
 0.330000   43.841134   -104.462754
 0.335000   43.323963   -102.438558
 0.340000   42.816748   -100.441047
 0.345000   42.319553   -98.464536
 0.350000   41.832103   -96.611250
 0.355000   41.353440   -94.885282
 0.360000   40.883250   -93.220391
 0.365000   40.421236   -91.555965
 0.370000   39.967690   -89.948188
 0.375000   39.521754   -88.469311
 0.380000   39.082997   -87.040191
 0.385000   38.651352   -85.592096
 0.390000   38.227076   -84.120102
 0.395000   37.810151   -82.677825
 0.400000   37.400298   -81.262903
 0.405000   36.997522   -79.832206
 0.410000   36.601976   -78.366550
 0.415000   36.213857   -76.938257
 0.420000   35.832593   -75.587648
 0.425000   35.457980   -74.280644
 0.430000   35.089787   -72.987639
 0.435000   34.728104   -71.734706
 0.440000   34.372440   -70.561964
 0.445000   34.022484   -69.450565
 0.450000   33.677934   -68.370398
 0.455000   33.338780   -67.328140
 0.460000   33.004653   -66.360982
 0.465000   32.675170   -65.456766
 0.470000   32.350085   -64.591219
 0.475000   32.029258   -63.764607
 0.480000   31.712439   -63.001873
 0.485000   31.399240   -62.298078
 0.490000   31.089458   -61.626372
 0.495000   30.782976   -60.970114
 0.500000   30.479757   -60.341434
 0.505000   30.179561   -59.741786
 0.510000   29.882339   -59.155593
 0.515000   29.588006   -58.569182
 0.520000   29.296648   -58.000168
 0.525000   29.008004   -57.466362
 0.530000   28.721984   -56.947541
 0.535000   28.438528   -56.433674
 0.540000   28.157647   -55.932128
 0.545000   27.879207   -55.456860
 0.550000   27.603079   -55.001688
 0.555000   27.329190   -54.554687
 0.560000   27.057532   -54.108892
 0.565000   26.788101   -53.683466
 0.570000   26.520697   -53.285203
 0.575000   26.255249   -52.900839
 0.580000   25.991689   -52.519623
 0.585000   25.730053   -52.148953
 0.590000   25.470199   -51.801207
 0.595000   25.212041   -51.469615
 0.600000   24.955503   -51.149423
 0.605000   24.700547   -50.834944
 0.610000   24.447154   -50.529281
 0.615000   24.195254   -50.233284
 0.620000   23.944821   -49.944109
 0.625000   23.695813   -49.657189
 0.630000   23.448249   -49.370252
 0.635000   23.202110   -49.085263
 0.640000   22.957396   -48.798789
 0.645000   22.714122   -48.508272
 0.650000   22.472313   -48.217850
 0.655000   22.231944   -47.930641
 0.660000   21.993007   -47.648772
 0.665000   21.755456   -47.375268
 0.670000   21.519254   -47.106180
 0.675000   21.284394   -46.838583
 0.680000   21.050869   -46.562282
 0.685000   20.818772   -46.252218
 0.690000   20.588346   -45.896099
 0.695000   20.359811   -45.498325
 0.700000   20.133363   -45.067934
 0.705000   19.909131   -44.607742
 0.710000   19.687286   -44.110281
 0.715000   19.468029   -43.591679
 0.720000   19.251369   -43.078201
 0.725000   19.037247   -42.576027
 0.730000   18.825609   -42.088955
 0.735000   18.616357   -41.618948
 0.740000   18.409419   -41.165946
 0.745000   18.204697   -40.744615
 0.750000   18.001973   -40.370855
 0.755000   17.800989   -40.046904
 0.760000   17.601504   -39.770809
 0.765000   17.403281   -39.535982
 0.770000   17.206144   -39.346538
 0.775000   17.009815   -39.200377
 0.780000   16.814140   -39.060601
 0.785000   16.619209   -38.907236
 0.790000   16.425068   -38.741330
 0.795000   16.231796   -38.560988
 0.800000   16.039458   -38.369771
 0.805000   15.848098   -38.166949
 0.810000   15.657789   -37.948617
 0.815000   15.468612   -37.727660
 0.820000   15.280512   -37.522492
 0.825000   15.093387   -37.339586
 0.830000   14.907116   -37.178976
 0.835000   14.721598   -37.048413
 0.840000   14.536632   -36.934308
 0.845000   14.352255   -36.823097
 0.850000   14.168401   -36.727960
 0.855000   13.984975   -36.656823
 0.860000   13.801833   -36.621676
 0.865000   13.618758   -36.646221
 0.870000   13.435371   -36.730304
 0.875000   13.251455   -36.871713
 0.880000   13.066654   -37.083106
 0.885000   12.880624   -37.385990
 0.890000   12.692794   -37.803732
 0.895000   12.502587   -38.412799
 0.900000   12.308666   -39.234052
 0.905000   12.110246   -40.263295
 0.910000   11.906033   -41.577283
 0.915000   11.694473   -43.247050
 0.920000   11.473562   -45.387584
 0.925000   11.240598   -48.329446
 0.930000   10.990268   -52.218074
 0.935000   10.718417   -57.391933
 0.940000   10.416348   -65.079645
 0.945000   10.067620   -77.587612
 0.950000   9.640472   -99.184752
 0.955000   9.075773   -136.364260
 0.960000   8.276830   -194.123585
 0.965000   7.134537   -263.070178
 0.970000   5.646128   -305.845636
 0.975000   4.076081   -283.908215
 0.980000   2.807046   -210.273051
 0.985000   1.973350   -133.755400
 0.990000   1.469492   -81.303856
 0.995000   1.160312   -51.420122
 1.000000   0.955291   -30.588293
201 psinorm omeg(kRad/s) domeg/dpsiN
 0.000000   63.488414   0.023176
 0.005000   63.488122   -0.139635
 0.010000   63.487017   -0.341986
 0.015000   63.484703   -0.633104
 0.020000   63.480686   -1.030162
 0.025000   63.474401   -1.546434
 0.030000   63.465222   -2.190586
 0.035000   63.452495   -2.964757
 0.040000   63.435574   -3.854449
 0.045000   63.413951   -4.842216
 0.050000   63.387152   -5.912719
 0.055000   63.354823   -7.040540
 0.060000   63.316747   -8.197438
 0.065000   63.272849   -9.353998
 0.070000   63.223207   -10.443646
 0.075000   63.168413   -11.465086
 0.080000   63.108556   -12.464765
 0.085000   63.043765   -13.436745
 0.090000   62.974188   -14.387193
 0.095000   62.899893   -15.332438
 0.100000   62.820864   -16.262159
 0.105000   62.737271   -17.191642
 0.110000   62.648948   -18.142185
 0.115000   62.555850   -19.095019
 0.120000   62.457997   -20.053252
 0.125000   62.355317   -21.040365
 0.130000   62.247594   -22.088865
 0.135000   62.134428   -23.229863
 0.140000   62.015295   -24.452647
 0.145000   61.889902   -25.731252
 0.150000   61.757983   -27.064420
 0.155000   61.619258   -28.455264
 0.160000   61.473430   -29.916749
 0.165000   61.320090   -31.443156
 0.170000   61.158998   -32.993017
 0.175000   60.990160   -34.546755
 0.180000   60.813531   -36.103545
 0.185000   60.629125   -37.651659
 0.190000   60.437014   -39.178621
 0.195000   60.237338   -40.659050
 0.200000   60.030424   -42.064937
 0.205000   59.816689   -43.374560
 0.210000   59.596678   -44.561425
 0.215000   59.371075   -45.599843
 0.220000   59.140680   -46.447367
 0.225000   58.906601   -47.038361
 0.230000   58.670296   -47.446481
 0.235000   58.432136   -47.739146
 0.240000   58.192905   -47.882538
 0.245000   57.953311   -47.892454
 0.250000   57.713980   -47.765140
 0.255000   57.475660   -47.438778
 0.260000   57.239592   -47.044295
 0.265000   57.005217   -46.679917
 0.270000   56.772793   -46.278167
 0.275000   56.542435   -45.869635
 0.280000   56.314097   -45.481341
 0.285000   56.087622   -45.120834
 0.290000   55.862889   -44.913309
 0.295000   55.638488   -44.911121
 0.300000   55.413777   -45.023902
 0.305000   55.188249   -45.217608
 0.310000   54.961601   -45.445792
 0.315000   54.733792   -45.675428
 0.320000   54.504847   -45.878177
 0.325000   54.275010   -46.043645
 0.330000   54.044411   -46.182126
 0.335000   53.813188   -46.291697
 0.340000   53.581494   -46.370203
 0.345000   53.349486   -46.418247
 0.350000   53.117311   -46.427016
 0.355000   52.885216   -46.391261
 0.360000   52.653398   -46.316719
 0.365000   52.422049   -46.203891
 0.370000   52.191360   -46.052985
 0.375000   51.961519   -45.857327
 0.380000   51.732786   -45.617627
 0.385000   51.505343   -45.341107
 0.390000   51.279375   -45.025792
 0.395000   51.055085   -44.671036
 0.400000   50.832665   -44.279533
 0.405000   50.612290   -43.843060
 0.410000   50.394234   -43.426749
 0.415000   50.178022   -43.188960
 0.420000   49.962345   -43.252272
 0.425000   49.745500   -43.675291
 0.430000   49.525592   -44.477600
 0.435000   49.300724   -45.787022
 0.440000   49.067722   -47.582353
 0.445000   48.824900   -49.541237
 0.450000   48.572309   -51.551068
 0.455000   48.309389   -53.639995
 0.460000   48.035909   -55.741306
 0.465000   47.751976   -57.922679
 0.470000   47.456682   -60.093704
 0.475000   47.151039   -61.851552
 0.480000   46.838167   -63.131404
 0.485000   46.519725   -64.061932
 0.490000   46.197548   -64.613127
 0.495000   45.873594   -64.779651
 0.500000   45.549751   -64.504448
 0.505000   45.228549   -63.792572
 0.510000   44.911825   -62.827570
 0.515000   44.600274   -61.749297
 0.520000   44.294332   -60.601692
 0.525000   43.994257   -59.399469
 0.530000   43.700338   -58.125139
 0.535000   43.413005   -56.864102
 0.540000   43.131697   -55.691553
 0.545000   42.856090   -54.593753
 0.550000   42.585759   -53.590485
 0.555000   42.320185   -52.689012
 0.560000   42.058869   -51.868759
 0.565000   41.801497   -51.229424
 0.570000   41.546575   -50.831528
 0.575000   41.293182   -50.622935
 0.580000   41.040345   -50.613945
 0.585000   40.787043   -50.813571
 0.590000   40.532210   -51.219704
 0.595000   40.274846   -51.768597
 0.600000   40.014524   -52.363765
 0.605000   39.751208   -52.955577
 0.610000   39.484968   -53.526012
 0.615000   39.215948   -54.063420
 0.620000   38.944334   -54.479236
 0.625000   38.671156   -54.825081
 0.630000   38.396083   -55.192574
 0.635000   38.119230   -55.535594
 0.640000   37.840727   -55.855685
 0.645000   37.560673   -56.161354
 0.650000   37.279113   -56.405333
 0.655000   36.996620   -56.737006
 0.660000   36.711743   -57.326273
 0.665000   36.423357   -58.141806
 0.670000   36.130325   -59.195746
 0.675000   35.831399   -60.503983
 0.680000   35.525286   -62.128232
 0.685000   35.210117   -63.911136
 0.690000   34.886174   -65.549426
 0.695000   34.554623   -66.955038
 0.700000   34.216624   -68.127463
 0.705000   33.873348   -69.081882
 0.710000   33.525805   -69.866660
 0.715000   33.174682   -70.541513
 0.720000   32.820390   -71.133090
 0.725000   32.463351   -71.637375
 0.730000   32.104016   -72.049258
 0.735000   31.742858   -72.364908
 0.740000   31.380367   -72.588229
 0.745000   31.016976   -72.732175
 0.750000   30.653045   -72.857471
 0.755000   30.288401   -73.102393
 0.760000   29.922021   -73.602576
 0.765000   29.552375   -74.431979
 0.770000   29.177702   -75.725766
 0.775000   28.795118   -77.446448
 0.780000   28.403237   -79.078818
 0.785000   28.004330   -80.362057
 0.790000   27.599617   -81.369885
 0.795000   27.190631   -82.050217
 0.800000   26.779114   -82.440256
 0.805000   26.366228   -82.543259
 0.810000   25.953682   -82.174677
 0.815000   25.544481   -81.459390
 0.820000   25.139088   -80.723083
 0.825000   24.737251   -80.096521
 0.830000   24.338123   -79.718338
 0.835000   23.940067   -79.704614
 0.840000   23.541077   -79.924902
 0.845000   23.140818   -80.411850
 0.850000   22.736958   -81.470712
 0.855000   22.326111   -83.321201
 0.860000   21.903746   -86.233566
 0.865000   21.463775   -90.671533
 0.870000   20.997031   -96.728882
 0.875000   20.496487   -104.385623
 0.880000   19.953174   -113.887531
 0.885000   19.357611   -125.296866
 0.890000   18.700206   -138.581998
 0.895000   17.971791   -154.099106
 0.900000   17.159215   -170.959134
 0.905000   16.262200   -188.050397
 0.910000   15.278711   -205.142877
 0.915000   14.210771   -221.338622
 0.920000   13.065325   -235.592825
 0.925000   11.854843   -247.080736
 0.930000   10.594517   -253.955362
 0.935000   9.315289   -254.494984
 0.940000   8.049567   -248.318040
 0.945000   6.832109   -235.271153
 0.950000   5.696856   -215.876135
 0.955000   4.673348   -190.831699
 0.960000   3.788539   -162.163757
 0.965000   3.051710   -132.544037
 0.970000   2.463098   -103.622932
 0.975000   2.015481   -76.789619
 0.980000   1.695202   -53.101175
 0.985000   1.484469   -33.083995
 0.990000   1.364362   -17.097539
 0.995000   1.313493   -5.067609
 1.000000   1.313686   5.144702
201 psinorm omegp(kRad/s) domegp/dpsiN
 0.000000   0.030946   130.150047
 0.005000   0.554694   79.349162
 0.010000   0.824437   50.988487
 0.015000   1.064578   46.886308
 0.020000   1.293300   44.753790
 0.025000   1.512116   42.424519
 0.030000   1.717545   39.391804
 0.035000   1.906034   36.244572
 0.040000   2.079991   33.234802
 0.045000   2.238382   30.216544
 0.050000   2.382157   27.522515
 0.055000   2.513608   25.388433
 0.060000   2.636041   23.744896
 0.065000   2.751057   22.480625
 0.070000   2.860847   21.586814
 0.075000   2.966925   20.856590
 0.080000   3.069413   20.130902
 0.085000   3.168234   19.506972
 0.090000   3.264483   18.945752
 0.095000   3.357691   18.369926
 0.100000   3.448182   17.857366
 0.105000   3.536265   17.501574
 0.110000   3.623198   17.433137
 0.115000   3.710596   17.750921
 0.120000   3.800707   18.551687
 0.125000   3.896113   19.603751
 0.130000   3.996745   20.735449
 0.135000   4.103468   21.900070
 0.140000   4.215745   23.009129
 0.145000   4.333559   24.059121
 0.150000   4.456336   24.691733
 0.155000   4.580476   24.686006
 0.160000   4.703197   24.088632
 0.165000   4.821363   23.029215
 0.170000   4.933489   21.451470
 0.175000   5.035877   19.367760
 0.180000   5.127166   16.906541
 0.185000   5.204943   14.233773
 0.190000   5.269504   11.593363
 0.195000   5.320876   8.942555
 0.200000   5.358930   6.541290
 0.205000   5.386289   4.311496
 0.210000   5.402045   2.414502
 0.215000   5.410434   1.058765
 0.220000   5.412632   -0.197594
 0.225000   5.408458   -1.259560
 0.230000   5.400037   -2.315741
 0.235000   5.385301   -3.599158
 0.240000   5.364045   -4.911649
 0.245000   5.336184   -6.387243
 0.250000   5.300173   -7.929289
 0.255000   5.256891   -9.447737
 0.260000   5.205695   -11.066913
 0.265000   5.146222   -12.528536
 0.270000   5.080410   -13.889313
 0.275000   5.007329   -15.319887
 0.280000   4.927211   -16.617126
 0.285000   4.841158   -17.962654
 0.290000   4.747584   -19.496049
 0.295000   4.646197   -21.090671
 0.300000   4.536678   -22.889182
 0.305000   4.417306   -24.927194
 0.310000   4.287406   -27.074645
 0.315000   4.146559   -29.449691
 0.320000   3.992909   -32.081327
 0.325000   3.825746   -34.707390
 0.330000   3.645835   -37.178543
 0.335000   3.453960   -39.366783
 0.340000   3.252167   -41.104259
 0.345000   3.042918   -42.380731
 0.350000   2.828360   -42.978215
 0.355000   2.613136   -42.958023
 0.360000   2.398780   -42.801172
 0.365000   2.185124   -42.654976
 0.370000   1.972230   -42.534755
 0.375000   1.759776   -42.612193
 0.380000   1.546108   -43.106968
 0.385000   1.328707   -44.164605
 0.390000   1.104462   -45.738502
 0.395000   0.871322   -47.578717
 0.400000   0.628675   -49.456973
 0.405000   0.376752   -51.196728
 0.410000   0.116707   -52.839810
 0.415000   -0.151646   -54.776876
 0.420000   -0.431061   -57.522486
 0.425000   -0.726871   -61.364283
 0.430000   -1.044704   -66.324080
 0.435000   -1.390112   -72.477396
 0.440000   -1.769478   -80.117320
 0.445000   -2.191285   -87.988441
 0.450000   -2.649363   -95.018412
 0.455000   -3.141469   -101.271543
 0.460000   -3.662078   -106.230273
 0.465000   -4.203772   -109.598881
 0.470000   -4.758067   -110.623535
 0.475000   -5.310007   -108.482776
 0.480000   -5.842895   -103.431789
 0.485000   -6.344325   -96.134158
 0.490000   -6.804236   -87.000165
 0.495000   -7.214327   -76.160435
 0.500000   -7.565840   -64.498499
 0.505000   -7.859312   -53.688810
 0.510000   -8.102729   -44.289586
 0.515000   -8.302208   -36.278713
 0.520000   -8.465516   -29.803058
 0.525000   -8.600238   -24.761977
 0.530000   -8.713135   -21.395371
 0.535000   -8.814192   -19.514275
 0.540000   -8.908278   -18.130347
 0.545000   -8.995495   -16.789128
 0.550000   -9.076170   -15.527986
 0.555000   -9.150775   -14.304691
 0.560000   -9.219216   -12.976406
 0.565000   -9.280539   -11.529649
 0.570000   -9.334513   -10.122825
 0.575000   -9.381767   -8.664486
 0.580000   -9.421158   -7.083451
 0.585000   -9.452602   -5.534784
 0.590000   -9.476506   -4.028158
 0.595000   -9.492884   -2.498493
 0.600000   -9.501491   -0.976373
 0.605000   -9.502647   0.391096
 0.610000   -9.497580   1.686874
 0.615000   -9.485779   2.984625
 0.620000   -9.467733   4.151304
 0.625000   -9.444265   5.189979
 0.630000   -9.415834   6.190885
 0.635000   -9.382357   7.171635
 0.640000   -9.344117   8.032199
 0.645000   -9.302035   8.840069
 0.650000   -9.255716   9.666135
 0.655000   -9.205373   10.434404
 0.660000   -9.151372   11.113191
 0.665000   -9.094241   11.761393
 0.670000   -9.033759   12.419283
 0.675000   -8.970049   13.073708
 0.680000   -8.903021   13.826275
 0.685000   -8.831786   14.747442
 0.690000   -8.755547   15.827474
 0.695000   -8.673511   16.999594
 0.700000   -8.585551   18.331769
 0.705000   -8.490193   19.807692
 0.710000   -8.387474   21.149137
 0.715000   -8.278702   22.242689
 0.720000   -8.165047   23.093050
 0.725000   -8.047771   23.630077
 0.730000   -7.928747   23.737851
 0.735000   -7.810393   23.339073
 0.740000   -7.695356   22.477465
 0.745000   -7.585618   21.261754
 0.750000   -7.482738   19.749703
 0.755000   -7.388121   18.050293
 0.760000   -7.302235   16.209707
 0.765000   -7.226024   14.380919
 0.770000   -7.158426   12.773583
 0.775000   -7.098288   11.421468
 0.780000   -7.044211   10.323491
 0.785000   -6.995053   9.406086
 0.790000   -6.950151   8.629572
 0.795000   -6.908758   7.780586
 0.800000   -6.872345   6.584321
 0.805000   -6.842915   4.918263
 0.810000   -6.823162   2.730523
 0.815000   -6.815609   -0.013184
 0.820000   -6.823294   -3.487444
 0.825000   -6.850484   -7.782795
 0.830000   -6.901122   -12.791567
 0.835000   -6.978399   -18.383891
 0.840000   -7.084961   -24.364354
 0.845000   -7.222043   -30.414417
 0.850000   -7.389105   -36.000911
 0.855000   -7.582052   -40.462109
 0.860000   -7.793726   -43.559745
 0.865000   -8.017650   -45.326878
 0.870000   -8.246995   -45.774382
 0.875000   -8.475393   -45.039967
 0.880000   -8.697395   -43.353027
 0.885000   -8.908924   -40.728598
 0.890000   -9.104680   -37.042107
 0.895000   -9.279345   -32.244829
 0.900000   -9.427129   -26.254541
 0.905000   -9.541890   -18.726542
 0.910000   -9.614394   -9.098717
 0.915000   -9.632877   3.109222
 0.920000   -9.583302   18.260622
 0.925000   -9.450271   36.694871
 0.930000   -9.216353   58.418750
 0.935000   -8.866084   84.473185
 0.940000   -8.371621   114.145618
 0.945000   -7.724627   140.472850
 0.950000   -6.966893   154.172069
 0.955000   -6.182907   144.868886
 0.960000   -5.518204   98.811894
 0.965000   -5.194788   9.491468
 0.970000   -5.423289   -100.367895
 0.975000   -6.198467   -164.159774
 0.980000   -7.064887   -85.869222
 0.985000   -7.057159   197.490298
 0.990000   -5.089984   627.280797
 0.995000   -0.784351   989.370579
 1.000000   4.803722   1245.858463
201 psinorm omgvb(kRad/s) domgvb/dpsiN
 0.000000   63.519359   130.173223
 0.005000   64.042816   79.209527
 0.010000   64.311454   50.646501
 0.015000   64.549281   46.253204
 0.020000   64.773987   43.723628
 0.025000   64.986517   40.878084
 0.030000   65.182767   37.201219
 0.035000   65.358530   33.279815
 0.040000   65.515565   29.380353
 0.045000   65.652333   25.374328
 0.050000   65.769309   21.609796
 0.055000   65.868431   18.347893
 0.060000   65.952788   15.547458
 0.065000   66.023906   13.126627
 0.070000   66.084054   11.143168
 0.075000   66.135337   9.391505
 0.080000   66.177969   7.666138
 0.085000   66.211999   6.070227
 0.090000   66.238671   4.558559
 0.095000   66.257584   3.037488
 0.100000   66.269046   1.595207
 0.105000   66.273536   0.309932
 0.110000   66.272145   -0.709048
 0.115000   66.266446   -1.344097
 0.120000   66.258705   -1.501564
 0.125000   66.251430   -1.436615
 0.130000   66.244338   -1.353417
 0.135000   66.237896   -1.329793
 0.140000   66.231040   -1.443518
 0.145000   66.223461   -1.672131
 0.150000   66.214319   -2.372687
 0.155000   66.199734   -3.769258
 0.160000   66.176627   -5.828117
 0.165000   66.141453   -8.413941
 0.170000   66.092487   -11.541547
 0.175000   66.026037   -15.178995
 0.180000   65.940697   -19.197005
 0.185000   65.834067   -23.417886
 0.190000   65.706518   -27.585258
 0.195000   65.558215   -31.716495
 0.200000   65.389353   -35.523647
 0.205000   65.202978   -39.063063
 0.210000   64.998723   -42.146923
 0.215000   64.781509   -44.541078
 0.220000   64.553312   -46.644961
 0.225000   64.315059   -48.297920
 0.230000   64.070333   -49.762222
 0.235000   63.817437   -51.338304
 0.240000   63.556950   -52.794187
 0.245000   63.289495   -54.279697
 0.250000   63.014153   -55.694428
 0.255000   62.732551   -56.886515
 0.260000   62.445288   -58.111207
 0.265000   62.151439   -59.208453
 0.270000   61.853203   -60.167480
 0.275000   61.549764   -61.189522
 0.280000   61.241308   -62.098467
 0.285000   60.928779   -63.083488
 0.290000   60.610473   -64.409359
 0.295000   60.284686   -66.001792
 0.300000   59.950455   -67.913084
 0.305000   59.605555   -70.144801
 0.310000   59.249007   -72.520437
 0.315000   58.880351   -75.125119
 0.320000   58.497756   -77.959504
 0.325000   58.100756   -80.751035
 0.330000   57.690246   -83.360669
 0.335000   57.267149   -85.658480
 0.340000   56.833661   -87.474462
 0.345000   56.392404   -88.798978
 0.350000   55.945671   -89.405231
 0.355000   55.498352   -89.349284
 0.360000   55.052178   -89.117891
 0.365000   54.607173   -88.858867
 0.370000   54.163589   -88.587740
 0.375000   53.721296   -88.469520
 0.380000   53.278894   -88.724595
 0.385000   52.834050   -89.505712
 0.390000   52.383837   -90.764294
 0.395000   51.926407   -92.249752
 0.400000   51.461340   -93.736507
 0.405000   50.989042   -95.039788
 0.410000   50.510942   -96.266559
 0.415000   50.026376   -97.965837
 0.420000   49.531283   -100.774758
 0.425000   49.018629   -105.039574
 0.430000   48.480888   -110.801680
 0.435000   47.910612   -118.264418
 0.440000   47.298243   -127.699673
 0.445000   46.633615   -137.529678
 0.450000   45.922947   -146.569480
 0.455000   45.167920   -154.911538
 0.460000   44.373831   -161.971579
 0.465000   43.548204   -167.521560
 0.470000   42.698616   -170.717240
 0.475000   41.841032   -170.334328
 0.480000   40.995272   -166.563193
 0.485000   40.175400   -160.196091
 0.490000   39.393311   -151.613292
 0.495000   38.659267   -140.940086
 0.500000   37.983911   -129.002947
 0.505000   37.369238   -117.481382
 0.510000   36.809097   -107.117155
 0.515000   36.298066   -98.028010
 0.520000   35.828817   -90.404751
 0.525000   35.394019   -84.161446
 0.530000   34.987202   -79.520509
 0.535000   34.598814   -76.378377
 0.540000   34.223418   -73.821900
 0.545000   33.860595   -71.382881
 0.550000   33.509590   -69.118471
 0.555000   33.169410   -66.993703
 0.560000   32.839653   -64.845165
 0.565000   32.520958   -62.759072
 0.570000   32.212062   -60.954352
 0.575000   31.911415   -59.287421
 0.580000   31.619188   -57.697396
 0.585000   31.334441   -56.348355
 0.590000   31.055704   -55.247862
 0.595000   30.781962   -54.267091
 0.600000   30.513033   -53.340138
 0.605000   30.248561   -52.564481
 0.610000   29.987388   -51.839138
 0.615000   29.730169   -51.078795
 0.620000   29.476600   -50.327931
 0.625000   29.226890   -49.635102
 0.630000   28.980249   -49.001689
 0.635000   28.736873   -48.363959
 0.640000   28.496610   -47.823486
 0.645000   28.258638   -47.321285
 0.650000   28.023397   -46.739198
 0.655000   27.791246   -46.302601
 0.660000   27.560371   -46.213081
 0.665000   27.329116   -46.380413
 0.670000   27.096567   -46.776463
 0.675000   26.861351   -47.430275
 0.680000   26.622264   -48.301956
 0.685000   26.378331   -49.163694
 0.690000   26.130627   -49.721952
 0.695000   25.881112   -49.955444
 0.700000   25.631073   -49.795693
 0.705000   25.383155   -49.274189
 0.710000   25.138331   -48.717523
 0.715000   24.895980   -48.298825
 0.720000   24.655343   -48.040040
 0.725000   24.415579   -48.007298
 0.730000   24.175270   -48.311407
 0.735000   23.932465   -49.025835
 0.740000   23.685011   -50.110765
 0.745000   23.431358   -51.470421
 0.750000   23.170307   -53.107767
 0.755000   22.900280   -55.052100
 0.760000   22.619786   -57.392869
 0.765000   22.326351   -60.051060
 0.770000   22.019275   -62.952183
 0.775000   21.696829   -66.024980
 0.780000   21.359026   -68.755327
 0.785000   21.009276   -70.955972
 0.790000   20.649466   -72.740313
 0.795000   20.281873   -74.269631
 0.800000   19.906770   -75.855935
 0.805000   19.523314   -77.624996
 0.810000   19.130520   -79.444154
 0.815000   18.728872   -81.472574
 0.820000   18.315794   -84.210528
 0.825000   17.886767   -87.879316
 0.830000   17.437001   -92.509905
 0.835000   16.961668   -98.088505
 0.840000   16.456116   -104.289256
 0.845000   15.918775   -110.826267
 0.850000   15.347853   -117.471623
 0.855000   14.744059   -123.783309
 0.860000   14.110020   -129.793312
 0.865000   13.446126   -135.998411
 0.870000   12.750036   -142.503264
 0.875000   12.021093   -149.425590
 0.880000   11.255780   -157.240558
 0.885000   10.448688   -166.025464
 0.890000   9.595525   -175.624104
 0.895000   8.692447   -186.343934
 0.900000   7.732086   -197.213675
 0.905000   6.720310   -206.776938
 0.910000   5.664317   -214.241594
 0.915000   4.577894   -218.229399
 0.920000   3.482023   -217.332203
 0.925000   2.404572   -210.385865
 0.930000   1.378164   -195.536612
 0.935000   0.449206   -170.021800
 0.940000   -0.322054   -134.172423
 0.945000   -0.892518   -94.798303
 0.950000   -1.270037   -61.704066
 0.955000   -1.509559   -45.962812
 0.960000   -1.729665   -63.351863
 0.965000   -2.143078   -123.052568
 0.970000   -2.960191   -203.990828
 0.975000   -4.182986   -240.949394
 0.980000   -5.369685   -138.970397
 0.985000   -5.572690   164.406303
 0.990000   -3.725622   610.183258
 0.995000   0.529143   984.302971
 1.000000   6.117408   1251.003166
201 psinorm omgpp(kRad/s) domgpp/dpsiN
 0.000000   -0.047294   -23.600533
 0.005000   -0.191860   -34.226145
 0.010000   -0.389555   -40.096323
 0.015000   -0.592824   -41.155997
 0.020000   -0.801115   -42.081389
 0.025000   -1.013638   -42.841534
 0.030000   -1.229531   -43.449694
 0.035000   -1.448135   -43.899527
 0.040000   -1.668526   -44.169297
 0.045000   -1.889828   -44.266803
 0.050000   -2.111194   -44.167324
 0.055000   -2.331501   -43.858903
 0.060000   -2.549783   -43.424446
 0.065000   -2.765745   -42.778983
 0.070000   -2.977573   -41.846528
 0.075000   -3.184210   -40.725486
 0.080000   -3.384828   -39.415118
 0.085000   -3.578362   -37.907708
 0.090000   -3.763905   -36.606809
 0.095000   -3.944430   -35.402867
 0.100000   -4.117933   -33.984244
 0.105000   -4.284272   -32.548331
 0.110000   -4.443417   -31.096392
 0.115000   -4.595236   -29.673388
 0.120000   -4.740150   -28.667315
 0.125000   -4.881909   -27.943347
 0.130000   -5.019584   -27.087340
 0.135000   -5.152783   -26.105850
 0.140000   -5.280642   -24.908338
 0.145000   -5.401866   -23.643828
 0.150000   -5.517081   -22.009412
 0.155000   -5.621960   -20.067983
 0.160000   -5.717761   -18.182709
 0.165000   -5.803787   -16.158224
 0.170000   -5.879343   -13.997666
 0.175000   -5.943764   -11.625041
 0.180000   -5.995593   -9.098494
 0.185000   -6.034749   -6.614999
 0.190000   -6.061743   -4.187692
 0.195000   -6.076626   -1.812432
 0.200000   -6.079868   0.426929
 0.205000   -6.072356   2.561589
 0.210000   -6.054252   3.960716
 0.215000   -6.032749   4.753175
 0.220000   -6.006720   5.644123
 0.225000   -5.976308   6.471207
 0.230000   -5.942008   7.206652
 0.235000   -5.904242   7.594358
 0.240000   -5.866064   7.971689
 0.245000   -5.824525   8.797556
 0.250000   -5.778089   9.797197
 0.255000   -5.726553   10.905912
 0.260000   -5.669030   12.182773
 0.265000   -5.604725   13.367641
 0.270000   -5.535353   14.856772
 0.275000   -5.456157   16.800714
 0.280000   -5.367346   18.556038
 0.285000   -5.270597   20.120969
 0.290000   -5.166136   21.634952
 0.295000   -5.054247   23.200685
 0.300000   -4.934129   25.079892
 0.305000   -4.803448   26.933221
 0.310000   -4.664797   28.245934
 0.315000   -4.520989   28.975600
 0.320000   -4.375041   29.137248
 0.325000   -4.229617   28.980164
 0.330000   -4.085240   28.482595
 0.335000   -3.944791   27.525218
 0.340000   -3.809987   26.596205
 0.345000   -3.678829   25.862049
 0.350000   -3.551367   25.125653
 0.355000   -3.427572   24.339261
 0.360000   -3.307974   23.415044
 0.365000   -3.193422   22.701308
 0.370000   -3.080961   22.233408
 0.375000   -2.971088   21.800643
 0.380000   -2.862955   21.565732
 0.385000   -2.755430   21.574446
 0.390000   -2.647210   22.005272
 0.395000   -2.535378   22.700577
 0.400000   -2.420205   23.075129
 0.405000   -2.304626   23.012729
 0.410000   -2.190077   22.644669
 0.415000   -2.078180   21.972646
 0.420000   -1.970351   21.152562
 0.425000   -1.866654   19.706351
 0.430000   -1.773287   17.989767
 0.435000   -1.686756   16.641892
 0.440000   -1.606868   15.329103
 0.445000   -1.533465   14.039280
 0.450000   -1.466476   12.884662
 0.455000   -1.404619   11.521363
 0.460000   -1.351262   10.022495
 0.465000   -1.304394   8.722041
 0.470000   -1.264042   7.409940
 0.475000   -1.230294   6.073558
 0.480000   -1.203306   4.607409
 0.485000   -1.184220   3.160882
 0.490000   -1.171697   2.008509
 0.495000   -1.164135   1.099688
 0.500000   -1.160700   0.307269
 0.505000   -1.161062   -0.448677
 0.510000   -1.165187   -1.174967
 0.515000   -1.172812   -1.927240
 0.520000   -1.184459   -2.718931
 0.525000   -1.200001   -3.466416
 0.530000   -1.219124   -4.159902
 0.535000   -1.241600   -4.809830
 0.540000   -1.267222   -5.307740
 0.545000   -1.294678   -5.838346
 0.550000   -1.325605   -6.519193
 0.555000   -1.359870   -7.136468
 0.560000   -1.396970   -7.696922
 0.565000   -1.436839   -8.248545
 0.570000   -1.479455   -8.752346
 0.575000   -1.524362   -9.307568
 0.580000   -1.572531   -9.913131
 0.585000   -1.623494   -10.392083
 0.590000   -1.676452   -10.744267
 0.595000   -1.730936   -10.999694
 0.600000   -1.786449   -11.167115
 0.605000   -1.842608   -11.274381
 0.610000   -1.899193   -11.341219
 0.615000   -1.956020   -11.396801
 0.620000   -2.013161   -11.456341
 0.625000   -2.070583   -11.501960
 0.630000   -2.128180   -11.590230
 0.635000   -2.186485   -11.704873
 0.640000   -2.245229   -11.584024
 0.645000   -2.302326   -11.329327
 0.650000   -2.358522   -11.162708
 0.655000   -2.413953   -11.020960
 0.660000   -2.468732   -11.004588
 0.665000   -2.523999   -11.338653
 0.670000   -2.582118   -11.810743
 0.675000   -2.642106   -12.627500
 0.680000   -2.708394   -13.924291
 0.685000   -2.781349   -15.204327
 0.690000   -2.860437   -16.561205
 0.695000   -2.946961   -18.527137
 0.700000   -3.045708   -18.479878
 0.705000   -3.131760   -16.779085
 0.710000   -3.213499   -15.629069
 0.715000   -3.288050   -13.891500
 0.720000   -3.352414   -11.638030
 0.725000   -3.404431   -9.176481
 0.730000   -3.444179   -5.040819
 0.735000   -3.454839   -0.029740
 0.740000   -3.444476   4.264099
 0.745000   -3.412198   8.647248
 0.750000   -3.358004   12.929319
 0.755000   -3.282905   17.993708
 0.760000   -3.178067   21.739280
 0.765000   -3.065512   23.453230
 0.770000   -2.943534   24.953291
 0.775000   -2.815979   25.690668
 0.780000   -2.686628   25.696534
 0.785000   -2.559014   25.733498
 0.790000   -2.429293   24.149843
 0.795000   -2.317515   21.255243
 0.800000   -2.216740   19.112506
 0.805000   -2.126390   17.053424
 0.810000   -2.046206   15.111467
 0.815000   -1.975276   13.336455
 0.820000   -1.912841   12.063808
 0.825000   -1.854638   11.222350
 0.830000   -1.800618   10.275805
 0.835000   -1.751879   9.162117
 0.840000   -1.708997   7.940863
 0.845000   -1.672471   6.488558
 0.850000   -1.644111   4.823504
 0.855000   -1.624236   2.911594
 0.860000   -1.614995   0.598081
 0.865000   -1.618255   -2.073261
 0.870000   -1.635728   -5.107754
 0.875000   -1.669332   -9.193242
 0.880000   -1.727660   -13.987597
 0.885000   -1.809208   -18.390119
 0.890000   -1.911561   -23.541000
 0.895000   -2.044618   -30.443499
 0.900000   -2.215996   -39.087214
 0.905000   -2.435491   -51.830595
 0.910000   -2.734302   -69.446374
 0.915000   -3.129954   -88.878991
 0.920000   -3.623092   -113.941091
 0.925000   -4.269365   -149.741132
 0.930000   -5.120504   -197.235194
 0.935000   -6.241717   -264.530301
 0.940000   -7.765807   -354.364878
 0.945000   -9.785366   -439.823660
 0.950000   -12.164043   -512.638692
 0.955000   -14.911753   -568.948449
 0.960000   -17.853528   -576.800416
 0.965000   -20.679757   -517.645654
 0.970000   -23.029984   -375.207903
 0.975000   -24.431836   -133.539174
 0.980000   -24.365376   136.999899
 0.985000   -23.061837   353.214862
 0.990000   -20.833227   492.189570
 0.995000   -18.139941   539.408032
 1.000000   -15.439147   540.909693
201 psinorm omgeb(kRad/s) domgeb/dpsiN
 0.000000   63.472065   106.572690
 0.005000   63.850956   44.983382
 0.010000   63.921899   10.550177
 0.015000   63.956457   5.097207
 0.020000   63.972871   1.642238
 0.025000   63.972880   -1.963450
 0.030000   63.953237   -6.248476
 0.035000   63.910395   -10.619713
 0.040000   63.847040   -14.788944
 0.045000   63.762506   -18.892475
 0.050000   63.658115   -22.557528
 0.055000   63.536930   -25.511011
 0.060000   63.403005   -27.876988
 0.065000   63.258160   -29.652356
 0.070000   63.106481   -30.703360
 0.075000   62.951127   -31.333981
 0.080000   62.793141   -31.748980
 0.085000   62.633637   -31.837481
 0.090000   62.474767   -32.048250
 0.095000   62.313154   -32.365379
 0.100000   62.151113   -32.389037
 0.105000   61.989264   -32.238398
 0.110000   61.828729   -31.805440
 0.115000   61.671210   -31.017485
 0.120000   61.518554   -30.168879
 0.125000   61.369521   -29.379962
 0.130000   61.224754   -28.440757
 0.135000   61.085113   -27.435643
 0.140000   60.950398   -26.351856
 0.145000   60.821595   -25.315959
 0.150000   60.697238   -24.382100
 0.155000   60.577774   -23.837242
 0.160000   60.458866   -24.010826
 0.165000   60.337666   -24.572165
 0.170000   60.213144   -25.539213
 0.175000   60.082273   -26.804036
 0.180000   59.945104   -28.295499
 0.185000   59.799318   -30.032885
 0.190000   59.644775   -31.772950
 0.195000   59.481589   -33.528927
 0.200000   59.309486   -35.096718
 0.205000   59.130622   -36.501475
 0.210000   58.944471   -38.186207
 0.215000   58.748760   -39.787903
 0.220000   58.546592   -41.000838
 0.225000   58.338751   -41.826713
 0.230000   58.128325   -42.555569
 0.235000   57.913196   -43.743946
 0.240000   57.690886   -44.822498
 0.245000   57.464971   -45.482141
 0.250000   57.236064   -45.897231
 0.255000   57.005998   -45.980603
 0.260000   56.776258   -45.928434
 0.265000   56.546714   -45.840812
 0.270000   56.317850   -45.310708
 0.275000   56.093607   -44.388808
 0.280000   55.873962   -43.542429
 0.285000   55.658183   -42.962518
 0.290000   55.444337   -42.774407
 0.295000   55.230439   -42.801107
 0.300000   55.016326   -42.833192
 0.305000   54.802107   -43.211580
 0.310000   54.584210   -44.274503
 0.315000   54.359362   -46.149518
 0.320000   54.122715   -48.822256
 0.325000   53.871139   -51.770871
 0.330000   53.605006   -54.878074
 0.335000   53.322358   -58.133262
 0.340000   53.023673   -60.878256
 0.345000   52.713576   -62.936929
 0.350000   52.394304   -64.279579
 0.355000   52.070780   -65.010023
 0.360000   51.744204   -65.702847
 0.365000   51.413751   -66.157559
 0.370000   51.082628   -66.354332
 0.375000   50.750208   -66.668876
 0.380000   50.415939   -67.158863
 0.385000   50.078620   -67.931266
 0.390000   49.736627   -68.759023
 0.395000   49.391029   -69.549175
 0.400000   49.041135   -70.661378
 0.405000   48.684416   -72.027059
 0.410000   48.320864   -73.621890
 0.415000   47.948197   -75.993191
 0.420000   47.560933   -79.622196
 0.425000   47.151975   -85.333223
 0.430000   46.707600   -92.811913
 0.435000   46.223856   -101.622526
 0.440000   45.691375   -112.370570
 0.445000   45.100150   -123.490398
 0.450000   44.456471   -133.684818
 0.455000   43.763302   -143.390175
 0.460000   43.022569   -151.949083
 0.465000   42.243811   -158.799519
 0.470000   41.434574   -163.307299
 0.475000   40.610738   -164.260770
 0.480000   39.791966   -161.955784
 0.485000   38.991180   -157.035209
 0.490000   38.221614   -149.604784
 0.495000   37.495132   -139.840397
 0.500000   36.823210   -128.695678
 0.505000   36.208175   -117.930059
 0.510000   35.643910   -108.292122
 0.515000   35.125254   -99.955250
 0.520000   34.644357   -93.123682
 0.525000   34.194017   -87.627862
 0.530000   33.768079   -83.680412
 0.535000   33.357213   -81.188207
 0.540000   32.956197   -79.129640
 0.545000   32.565917   -77.221228
 0.550000   32.183984   -75.637664
 0.555000   31.809540   -74.130172
 0.560000   31.442683   -72.542088
 0.565000   31.084119   -71.007617
 0.570000   30.732606   -69.706698
 0.575000   30.387052   -68.594989
 0.580000   30.046656   -67.610527
 0.585000   29.710947   -66.740438
 0.590000   29.379252   -65.992129
 0.595000   29.051026   -65.266785
 0.600000   28.726584   -64.507253
 0.605000   28.405953   -63.838862
 0.610000   28.088196   -63.180357
 0.615000   27.774150   -62.475596
 0.620000   27.463440   -61.784273
 0.625000   27.156307   -61.137062
 0.630000   26.852069   -60.591919
 0.635000   26.550388   -60.068832
 0.640000   26.251381   -59.407510
 0.645000   25.956313   -58.650612
 0.650000   25.664875   -57.901907
 0.655000   25.377294   -57.323561
 0.660000   25.091639   -57.217669
 0.665000   24.805117   -57.719066
 0.670000   24.514448   -58.587206
 0.675000   24.219245   -60.057775
 0.680000   23.913871   -62.226248
 0.685000   23.596982   -64.368021
 0.690000   23.270190   -66.283157
 0.695000   22.934151   -68.482581
 0.700000   22.585365   -68.275572
 0.705000   22.251395   -66.053274
 0.710000   21.924832   -64.346592
 0.715000   21.607929   -62.190324
 0.720000   21.302929   -59.678069
 0.725000   21.011148   -57.183779
 0.730000   20.731091   -53.352226
 0.735000   20.477626   -49.055575
 0.740000   20.240535   -45.846666
 0.745000   20.019160   -42.823173
 0.750000   19.812303   -40.178448
 0.755000   19.617375   -37.058392
 0.760000   19.441719   -35.653588
 0.765000   19.260839   -36.597830
 0.770000   19.075741   -37.998892
 0.775000   18.880850   -40.334312
 0.780000   18.672398   -43.058792
 0.785000   18.450262   -45.222473
 0.790000   18.220173   -48.590470
 0.795000   17.964358   -53.014388
 0.800000   17.690029   -56.743428
 0.805000   17.396923   -60.571572
 0.810000   17.084314   -64.332687
 0.815000   16.753596   -68.136119
 0.820000   16.402952   -72.146719
 0.825000   16.032129   -76.656967
 0.830000   15.636383   -82.234100
 0.835000   15.209788   -88.926388
 0.840000   14.747119   -96.348393
 0.845000   14.246304   -104.337709
 0.850000   13.703742   -112.648119
 0.855000   13.119823   -120.871715
 0.860000   12.495025   -129.195230
 0.865000   11.827871   -138.071672
 0.870000   11.114308   -147.611018
 0.875000   10.351761   -158.618832
 0.880000   9.528120   -171.228155
 0.885000   8.639479   -184.415583
 0.890000   7.683964   -199.165104
 0.895000   6.647828   -216.787433
 0.900000   5.516089   -236.300889
 0.905000   4.284819   -258.607533
 0.910000   2.930014   -283.687968
 0.915000   1.447940   -307.108391
 0.920000   -0.141070   -331.273294
 0.925000   -1.864793   -360.126997
 0.930000   -3.742340   -392.771806
 0.935000   -5.792511   -434.552100
 0.940000   -8.087861   -488.537300
 0.945000   -10.677884   -534.621964
 0.950000   -13.434080   -574.342758
 0.955000   -16.421312   -614.911261
 0.960000   -19.583193   -640.152279
 0.965000   -22.822835   -640.698222
 0.970000   -25.990175   -579.198731
 0.975000   -28.614822   -374.488568
 0.980000   -29.735061   -1.970498
 0.985000   -28.634527   517.621165
 0.990000   -24.558849   1102.372827
 0.995000   -17.610799   1523.711003
 1.000000   -9.321739   1791.912858
201 psinorm er(kV/m) der/dpsiN
 0.000000   0.812507   1175.829310
 0.005000   5.520098   707.207435
 0.010000   7.884581   419.889218
 0.015000   9.718991   336.449183
 0.020000   11.249073   288.595358
 0.025000   12.604944   258.090811
 0.030000   13.829981   234.387555
 0.035000   14.948820   215.199194
 0.040000   15.981973   198.921412
 0.045000   16.938034   185.726684
 0.050000   17.839240   175.335165
 0.055000   18.691386   164.293135
 0.060000   19.482171   153.112064
 0.065000   20.222506   145.989311
 0.070000   20.942064   140.451931
 0.075000   21.627025   131.518115
 0.080000   22.257245   126.467156
 0.085000   22.891697   122.399694
 0.090000   23.481242   114.652598
 0.095000   24.038223   112.338039
 0.100000   24.604623   105.826709
 0.105000   25.096490   102.647181
 0.110000   25.631094   99.354500
 0.115000   26.090035   95.665103
 0.120000   26.587745   92.661215
 0.125000   27.016647   89.759767
 0.130000   27.485343   86.715299
 0.135000   27.883800   84.768898
 0.140000   28.333032   81.602340
 0.145000   28.699824   80.154342
 0.150000   29.134576   77.434183
 0.155000   29.474165   74.521136
 0.160000   29.879787   74.378373
 0.165000   30.217949   69.249428
 0.170000   30.572281   69.408604
 0.175000   30.912035   63.598646
 0.180000   31.208268   63.548656
 0.185000   31.547522   57.707639
 0.190000   31.785344   54.576360
 0.195000   32.093285   55.534273
 0.200000   32.340687   48.569906
 0.205000   32.578984   49.965019
 0.210000   32.840337   43.275665
 0.215000   33.011741   40.669633
 0.220000   33.247033   42.337196
 0.225000   33.435113   35.501108
 0.230000   33.602044   36.921870
 0.235000   33.804332   32.288511
 0.240000   33.924929   28.450190
 0.245000   34.088834   32.003617
 0.250000   34.244966   25.053109
 0.255000   34.339365   24.197307
 0.260000   34.486939   26.352229
 0.265000   34.602887   20.504351
 0.270000   34.691982   21.757349
 0.275000   34.820461   21.630545
 0.280000   34.908288   17.788511
 0.285000   34.998346   20.380072
 0.290000   35.112088   17.784343
 0.295000   35.176189   14.538106
 0.300000   35.257469   17.467626
 0.305000   35.350865   13.438794
 0.310000   35.391857   10.209140
 0.315000   35.452957   12.057748
 0.320000   35.512435   6.297408
 0.325000   35.515931   2.135554
 0.330000   35.533790   2.810241
 0.335000   35.544033   -3.008024
 0.340000   35.503710   -6.995813
 0.345000   35.474075   -6.235159
 0.350000   35.441359   -10.052902
 0.355000   35.373546   -12.753563
 0.360000   35.313823   -11.759219
 0.365000   35.255954   -14.018242
 0.370000   35.173641   -16.471795
 0.375000   35.091236   -15.934782
 0.380000   35.014293   -17.180068
 0.385000   34.919435   -20.177193
 0.390000   34.812521   -20.722278
 0.395000   34.712212   -21.305492
 0.400000   34.599466   -24.539945
 0.405000   34.466813   -26.032188
 0.410000   34.339144   -26.612196
 0.415000   34.200691   -30.650175
 0.420000   34.032642   -34.221376
 0.425000   33.858477   -37.612063
 0.430000   33.656522   -44.850523
 0.435000   33.409972   -52.576949
 0.440000   33.130752   -60.192106
 0.445000   32.808051   -69.286411
 0.450000   32.437888   -78.413722
 0.455000   32.023914   -86.117392
 0.460000   31.576714   -92.764536
 0.465000   31.096268   -99.575754
 0.470000   30.580957   -103.932968
 0.475000   30.056939   -104.756834
 0.480000   29.533388   -104.560635
 0.485000   29.011332   -102.142938
 0.490000   28.511959   -96.827759
 0.495000   28.043055   -90.292202
 0.500000   27.609037   -83.268913
 0.505000   27.210366   -75.742697
 0.510000   26.851610   -68.527581
 0.515000   26.525090   -63.479779
 0.520000   26.216812   -59.012305
 0.525000   25.934967   -54.649000
 0.530000   25.670322   -52.360979
 0.535000   25.411357   -51.369228
 0.540000   25.156630   -49.953373
 0.545000   24.911823   -48.512753
 0.550000   24.671502   -48.348387
 0.555000   24.428339   -47.649156
 0.560000   24.195011   -46.114641
 0.565000   23.967193   -45.612130
 0.570000   23.738889   -45.374407
 0.575000   23.513449   -44.485383
 0.580000   23.294036   -43.675016
 0.585000   23.076699   -44.028200
 0.590000   22.853754   -43.795113
 0.595000   22.638748   -42.771658
 0.600000   22.426037   -42.796477
 0.605000   22.210783   -43.028488
 0.610000   21.995752   -42.408781
 0.615000   21.786695   -41.607790
 0.620000   21.579674   -42.180598
 0.625000   21.364889   -42.016966
 0.630000   21.159505   -40.927829
 0.635000   20.955611   -41.004896
 0.640000   20.749456   -41.319080
 0.645000   20.542420   -40.640971
 0.650000   20.343046   -39.618282
 0.655000   20.146237   -40.101779
 0.660000   19.942028   -40.471234
 0.665000   19.741525   -40.296367
 0.670000   19.539064   -41.093778
 0.675000   19.330587   -43.279802
 0.680000   19.106266   -45.069771
 0.685000   18.879889   -46.117663
 0.690000   18.645090   -48.356955
 0.695000   18.396320   -50.831185
 0.700000   18.136778   -50.286523
 0.705000   17.893455   -48.115229
 0.710000   17.655626   -47.930659
 0.715000   17.414148   -46.518974
 0.720000   17.190436   -43.607878
 0.725000   16.978069   -41.846595
 0.730000   16.771970   -39.799197
 0.735000   16.580077   -36.213115
 0.740000   16.409839   -32.818674
 0.745000   16.251891   -31.080004
 0.750000   16.099039   -29.570232
 0.755000   15.956188   -26.545506
 0.760000   15.833584   -24.998510
 0.765000   15.706203   -26.715685
 0.770000   15.566427   -28.125550
 0.775000   15.424948   -29.313208
 0.780000   15.273295   -31.619955
 0.785000   15.108748   -34.213237
 0.790000   14.931162   -37.006946
 0.795000   14.738679   -40.075647
 0.800000   14.530406   -43.524891
 0.805000   14.303430   -47.215959
 0.810000   14.058246   -50.206233
 0.815000   13.801367   -53.082355
 0.820000   13.527423   -56.899380
 0.825000   13.232374   -60.992571
 0.830000   12.917497   -65.408512
 0.835000   12.578288   -70.899754
 0.840000   12.208499   -77.658468
 0.845000   11.801704   -84.542502
 0.850000   11.363074   -91.196269
 0.855000   10.889741   -98.207757
 0.860000   10.380997   -105.724863
 0.865000   9.832492   -113.305506
 0.870000   9.247942   -121.082460
 0.875000   8.621668   -130.593083
 0.880000   7.942011   -141.658401
 0.885000   7.205084   -152.797733
 0.890000   6.414034   -165.044784
 0.895000   5.554636   -180.262959
 0.900000   4.611404   -197.117449
 0.905000   3.583461   -215.819138
 0.910000   2.453213   -236.803651
 0.915000   1.215425   -257.129077
 0.920000   -0.118078   -277.818758
 0.925000   -1.562763   -301.783070
 0.930000   -3.135909   -329.196464
 0.935000   -4.854727   -365.507673
 0.940000   -6.790985   -411.193218
 0.945000   -8.966659   -448.801896
 0.950000   -11.279004   -484.288252
 0.955000   -13.809542   -541.856948
 0.960000   -16.697574   -567.707575
 0.965000   -19.486618   -552.822042
 0.970000   -22.225794   -517.535369
 0.975000   -24.661971   -391.637610
 0.980000   -26.142170   -53.788381
 0.985000   -25.199855   449.334645
 0.990000   -21.648824   965.674213
 0.995000   -15.543113   1342.130418
 1.000000   -8.227520   1584.106873
201 psinorm ommvb() dommvb/dpsiN
 0.000000   4.438006   14334.318886
 0.005000   70.286376   12005.029104
 0.010000   124.488297   10524.297887
 0.015000   175.529355   9482.992814
 0.020000   219.318225   8184.765295
 0.025000   257.377007   6957.139523
 0.030000   288.889620   5876.636554
 0.035000   316.143373   5267.239870
 0.040000   341.562019   4815.945245
 0.045000   364.302825   4182.040782
 0.050000   383.382427   3686.829123
 0.055000   401.171117   3303.144202
 0.060000   416.413869   2894.598765
 0.065000   430.117104   2526.528700
 0.070000   441.679156   2254.512428
 0.075000   452.662229   2020.415797
 0.080000   461.883314   1690.751554
 0.085000   469.569744   1410.449751
 0.090000   475.987811   1154.072457
 0.095000   481.110469   941.955630
 0.100000   485.407367   782.937631
 0.105000   488.939845   615.375795
 0.110000   491.561125   413.172518
 0.115000   493.071570   212.436162
 0.120000   493.685487   37.511076
 0.125000   493.446681   -169.628725
 0.130000   491.989200   -318.946462
 0.135000   490.257216   -416.964594
 0.140000   487.819554   -564.323346
 0.145000   484.613983   -668.869092
 0.150000   481.130863   -748.425679
 0.155000   477.129726   -845.724593
 0.160000   472.673617   -939.861683
 0.165000   467.731109   -1101.383131
 0.170000   461.659786   -1186.439611
 0.175000   455.866713   -1209.945840
 0.180000   449.560327   -1287.495667
 0.185000   442.991757   -1311.120094
 0.190000   436.449126   -1316.585221
 0.195000   429.825904   -1335.970858
 0.200000   423.089418   -1358.392860
 0.205000   416.241976   -1373.786135
 0.210000   409.351556   -1378.329166
 0.215000   402.458684   -1469.847880
 0.220000   394.653078   -1555.770851
 0.225000   386.900976   -1402.210106
 0.230000   380.630976   -1276.148249
 0.235000   374.139493   -1299.838524
 0.240000   367.632591   -1289.227474
 0.245000   361.247218   -1261.281894
 0.250000   355.019772   -1416.360468
 0.255000   347.083614   -1426.578452
 0.260000   340.753988   -1185.393624
 0.265000   335.229677   -1087.549891
 0.270000   329.878489   -1063.996701
 0.275000   324.589710   -1100.761476
 0.280000   318.870874   -1238.392705
 0.285000   312.205783   -1101.297806
 0.290000   307.857896   -851.413890
 0.295000   303.691644   -818.008528
 0.300000   299.677811   -787.948865
 0.305000   295.812156   -940.498559
 0.310000   290.272825   -875.468501
 0.315000   287.057471   -626.491817
 0.320000   284.007907   -595.271793
 0.325000   281.104753   -599.395913
 0.330000   278.013948   -674.822594
 0.335000   274.356527   -588.374058
 0.340000   272.130207   -433.642088
 0.345000   270.020106   -409.891821
 0.350000   268.031289   -467.422649
 0.355000   265.345880   -475.338225
 0.360000   263.277907   -348.797558
 0.365000   261.857904   -274.376649
 0.370000   260.534140   -273.562676
 0.375000   259.122277   -335.347115
 0.380000   257.180669   -280.436782
 0.385000   256.317909   -166.394306
 0.390000   255.516726   -153.696505
 0.395000   254.780944   -209.635105
 0.400000   253.420375   -198.031834
 0.405000   252.800626   -102.748759
 0.410000   252.392887   -78.338061
 0.415000   252.017245   -114.601494
 0.420000   251.246873   -147.516133
 0.425000   250.542084   -103.479068
 0.430000   250.212082   -69.663118
 0.435000   249.845453   -101.278376
 0.440000   249.199298   -162.793213
 0.445000   248.217521   -143.297664
 0.450000   247.766321   -95.723269
 0.455000   247.260288   -112.230908
 0.460000   246.644012   -179.653699
 0.465000   245.463751   -163.560094
 0.470000   245.008411   -89.072012
 0.475000   244.573031   -83.015331
 0.480000   244.178258   -123.853921
 0.485000   243.334492   -110.100390
 0.490000   243.077254   -32.728997
 0.495000   243.007202   -4.096492
 0.500000   243.036289   -13.166191
 0.505000   242.875540   -6.967393
 0.510000   242.966615   46.584516
 0.515000   243.341385   80.256183
 0.520000   243.769177   73.466183
 0.525000   244.076047   66.218738
 0.530000   244.431365   101.340148
 0.535000   245.089448   133.311802
 0.540000   245.764483   135.953544
 0.545000   246.448984   109.357907
 0.550000   246.858062   125.807697
 0.555000   247.707061   173.736104
 0.560000   248.595423   181.903450
 0.565000   249.526095   169.979488
 0.570000   250.295218   176.666302
 0.575000   251.292758   214.589043
 0.580000   252.441108   232.898965
 0.585000   253.621748   234.325135
 0.590000   254.784359   232.272464
 0.595000   255.944473   270.049816
 0.600000   257.484858   314.200981
 0.605000   259.086482   326.592738
 0.610000   260.750785   333.264564
 0.615000   262.419128   354.536129
 0.620000   264.296146   395.095971
 0.625000   266.370088   426.712229
 0.630000   268.563269   450.684612
 0.635000   270.876934   479.416683
 0.640000   273.357435   513.322185
 0.645000   276.010156   546.363755
 0.650000   278.821073   576.975112
 0.655000   281.779907   605.863182
 0.660000   284.879705   646.393183
 0.665000   288.243839   678.752736
 0.670000   291.667232   701.775149
 0.675000   295.261590   737.829206
 0.680000   299.045524   777.664802
 0.685000   303.038238   829.658572
 0.690000   307.342110   864.003798
 0.695000   311.678276   889.105139
 0.700000   316.233161   935.109618
 0.705000   321.029372   981.997566
 0.710000   326.053137   1042.307176
 0.715000   331.452444   1101.991174
 0.720000   337.073049   1141.261699
 0.725000   342.865061   1186.198465
 0.730000   348.935033   1243.580466
 0.735000   355.300866   1300.658263
 0.740000   361.941616   1371.863257
 0.745000   369.019498   1430.878047
 0.750000   376.250396   1472.766025
 0.755000   383.747159   1529.677170
 0.760000   391.547168   1581.789260
 0.765000   399.565051   1619.166890
 0.770000   407.738837   1673.826495
 0.775000   416.303316   1745.142121
 0.780000   425.190258   1810.153338
 0.785000   434.404849   1880.680229
 0.790000   443.997060   1956.641568
 0.795000   453.971265   2033.730262
 0.800000   464.334363   2110.758956
 0.805000   475.078855   2178.385412
 0.810000   486.118217   2258.824488
 0.815000   497.667100   2370.882680
 0.820000   509.827044   2487.626610
 0.825000   522.543366   2601.274801
 0.830000   535.839792   2717.377019
 0.835000   549.717136   2834.358901
 0.840000   564.183381   2953.330575
 0.845000   579.250442   3067.276720
 0.850000   594.856148   3114.527817
 0.855000   610.395720   3242.967112
 0.860000   627.285819   3438.235506
 0.865000   644.778075   3579.462004
 0.870000   663.080439   3759.141678
 0.875000   682.369492   3964.932600
 0.880000   702.729765   4188.139867
 0.885000   724.250890   4438.210432
 0.890000   747.111870   4722.104089
 0.895000   771.471931   5045.822402
 0.900000   797.570094   5437.426722
 0.905000   825.846198   5921.281906
 0.910000   856.782913   6558.756665
 0.915000   891.433765   7720.048804
 0.920000   933.983401   9821.405812
 0.925000   989.647823   12979.390175
 0.930000   1063.777303   17424.254824
 0.935000   1163.890371   23784.203070
 0.940000   1301.619333   32773.270718
 0.945000   1491.623079   45116.964153
 0.950000   1752.788975   59777.722050
 0.955000   2089.400299   70681.971917
 0.960000   2459.608694   75058.003918
 0.965000   2839.980338   80133.271002
 0.970000   3260.941404   94869.601286
 0.975000   3788.676351   111451.481120
 0.980000   4375.456215   111612.657211
 0.985000   4904.802923   92476.026092
 0.990000   5300.216476   42304.349109
 0.995000   5327.846414   233757.408390
 1.000000   7637.790560   690220.249889
201 psinorm ommpp() dommpp/dpsiN
 0.000000   59.034060   -14227.746196
 0.005000   -6.435420   -11960.045722
 0.010000   -60.566397   -10513.747709
 0.015000   -111.572897   -9477.895607
 0.020000   -155.345354   -8183.123057
 0.025000   -193.404128   -6959.102972
 0.030000   -224.936383   -5882.885030
 0.035000   -252.232978   -5277.859582
 0.040000   -277.714979   -4830.734189
 0.045000   -300.540320   -4200.933257
 0.050000   -319.724312   -3709.386651
 0.055000   -337.634186   -3328.655212
 0.060000   -353.010864   -2922.475754
 0.065000   -366.858944   -2556.181056
 0.070000   -378.572674   -2285.215788
 0.075000   -389.711102   -2051.749778
 0.080000   -399.090172   -1722.500534
 0.085000   -406.936107   -1442.287231
 0.090000   -413.513044   -1186.120707
 0.095000   -418.797314   -974.321009
 0.100000   -423.256255   -815.326668
 0.105000   -426.950581   -647.614193
 0.110000   -429.732396   -444.977958
 0.115000   -431.400361   -243.453647
 0.120000   -432.166933   -67.679956
 0.125000   -432.077160   140.248763
 0.130000   -430.764445   290.505705
 0.135000   -429.172103   389.528951
 0.140000   -426.869156   537.971490
 0.145000   -423.792388   643.553133
 0.150000   -420.433624   724.043579
 0.155000   -416.551952   821.887352
 0.160000   -412.214751   915.850856
 0.165000   -407.393444   1076.810966
 0.170000   -401.446641   1160.900398
 0.175000   -395.784440   1183.141804
 0.180000   -389.615223   1259.200168
 0.185000   -383.192438   1281.087209
 0.190000   -376.804351   1284.812271
 0.195000   -370.344315   1302.441931
 0.200000   -363.779932   1323.296141
 0.205000   -357.111354   1337.284660
 0.210000   -350.407085   1340.142959
 0.215000   -343.709924   1430.059978
 0.220000   -336.106485   1514.770014
 0.225000   -328.562224   1360.383393
 0.230000   -322.502652   1233.592680
 0.235000   -316.226297   1256.094578
 0.240000   -309.941706   1244.404976
 0.245000   -303.782248   1215.799753
 0.250000   -297.783708   1370.463237
 0.255000   -290.077615   1380.597850
 0.260000   -283.977730   1139.465189
 0.265000   -278.682963   1041.709079
 0.270000   -273.560639   1018.685993
 0.275000   -268.496103   1056.372667
 0.280000   -262.996912   1194.850276
 0.285000   -256.547601   1058.335288
 0.290000   -252.413559   808.639484
 0.295000   -248.461206   775.207421
 0.300000   -244.661485   745.115673
 0.305000   -241.010049   897.286979
 0.310000   -235.688615   831.193999
 0.315000   -232.698109   580.342299
 0.320000   -229.885192   546.449537
 0.325000   -227.233614   547.625042
 0.330000   -224.408942   619.944521
 0.335000   -221.034169   530.240796
 0.340000   -219.106534   372.763832
 0.345000   -217.306530   346.954891
 0.350000   -215.636985   403.143070
 0.355000   -213.275100   410.328202
 0.360000   -211.533703   283.094711
 0.365000   -210.444152   208.219090
 0.370000   -209.451512   207.208345
 0.375000   -208.372069   268.678239
 0.380000   -206.764730   213.277919
 0.385000   -206.239290   98.463040
 0.390000   -205.780099   84.937482
 0.395000   -205.389915   140.085930
 0.400000   -204.379240   127.370456
 0.405000   -204.116210   30.721700
 0.410000   -204.072023   4.716171
 0.415000   -204.069049   38.608303
 0.420000   -203.685940   67.893937
 0.425000   -203.390109   18.145845
 0.430000   -203.504482   -23.148795
 0.435000   -203.621597   -0.344150
 0.440000   -203.507923   50.422644
 0.445000   -203.117371   19.807266
 0.450000   -203.309850   -37.961549
 0.455000   -203.496986   -31.159267
 0.460000   -203.621443   27.704615
 0.465000   -203.219940   4.760575
 0.470000   -203.573837   -74.235288
 0.475000   -203.962293   -81.245438
 0.480000   -204.386292   -38.101862
 0.485000   -204.343312   -46.934819
 0.490000   -204.855640   -116.875787
 0.495000   -205.512070   -135.743906
 0.500000   -206.213079   -115.529487
 0.505000   -206.667364   -110.962665
 0.510000   -207.322706   -154.876639
 0.515000   -208.216131   -180.211433
 0.520000   -209.124820   -166.589865
 0.525000   -209.882029   -153.846599
 0.530000   -210.663286   -185.020559
 0.535000   -211.732235   -214.500009
 0.540000   -212.808286   -215.083184
 0.545000   -213.883067   -186.579135
 0.550000   -214.674077   -201.445361
 0.555000   -215.897521   -247.866276
 0.560000   -217.152740   -254.445538
 0.565000   -218.441976   -240.987105
 0.570000   -219.562611   -246.373000
 0.575000   -220.905706   -283.184033
 0.580000   -222.394452   -300.509492
 0.585000   -223.910801   -301.065574
 0.590000   -225.405107   -298.264593
 0.595000   -226.893447   -335.316601
 0.600000   -228.758273   -378.708234
 0.605000   -230.680529   -390.431600
 0.610000   -232.662589   -396.444921
 0.615000   -234.644978   -417.011725
 0.620000   -236.832707   -456.880244
 0.625000   -239.213781   -487.849291
 0.630000   -241.711199   -511.276531
 0.635000   -244.326546   -539.485516
 0.640000   -247.106055   -572.729695
 0.645000   -250.053843   -605.014367
 0.650000   -253.156198   -634.877019
 0.655000   -256.402613   -663.186744
 0.660000   -259.788066   -703.610853
 0.665000   -263.438722   -736.471802
 0.670000   -267.152784   -760.362355
 0.675000   -271.042345   -797.886981
 0.680000   -275.131654   -839.891050
 0.685000   -279.441256   -894.026593
 0.690000   -284.071919   -930.286955
 0.695000   -288.744125   -957.587721
 0.700000   -293.647797   -1003.385190
 0.705000   -298.777977   -1048.050840
 0.710000   -304.128305   -1106.653768
 0.715000   -309.844515   -1164.181498
 0.720000   -315.770120   -1200.939769
 0.725000   -321.853913   -1243.382244
 0.730000   -328.203942   -1296.932692
 0.735000   -334.823239   -1349.713838
 0.740000   -341.701081   -1417.709922
 0.745000   -349.000339   -1473.701220
 0.750000   -356.438093   -1512.944473
 0.755000   -364.129783   -1566.735562
 0.760000   -372.105449   -1617.442848
 0.765000   -380.304212   -1655.764721
 0.770000   -388.663096   -1711.825388
 0.775000   -397.422466   -1785.476433
 0.780000   -406.517860   -1853.212131
 0.785000   -415.954587   -1925.902702
 0.790000   -425.776887   -2005.232039
 0.795000   -436.006907   -2086.744650
 0.800000   -446.644334   -2167.502384
 0.805000   -457.681931   -2238.956984
 0.810000   -469.033904   -2323.157175
 0.815000   -480.913503   -2439.018799
 0.820000   -493.424092   -2559.773329
 0.825000   -506.511236   -2677.931768
 0.830000   -520.203409   -2799.611119
 0.835000   -534.507348   -2923.285289
 0.840000   -549.436262   -3049.678968
 0.845000   -565.004137   -3171.614429
 0.850000   -581.152406   -3227.175936
 0.855000   -597.275897   -3363.838827
 0.860000   -614.790795   -3567.430736
 0.865000   -632.950204   -3717.533676
 0.870000   -651.966131   -3906.752696
 0.875000   -672.017731   -4123.551432
 0.880000   -693.201646   -4359.368022
 0.885000   -715.611411   -4622.626015
 0.890000   -739.427906   -4921.269193
 0.895000   -764.824103   -5262.609836
 0.900000   -792.054004   -5673.727612
 0.905000   -821.561379   -6179.889440
 0.910000   -853.852899   -6842.444633
 0.915000   -889.985826   -8027.157195
 0.920000   -934.124471   -10152.679106
 0.925000   -991.512617   -13339.517172
 0.930000   -1067.519642   -17817.026630
 0.935000   -1169.682883   -24218.755170
 0.940000   -1309.707194   -33261.808019
 0.945000   -1502.300963   -45651.586117
 0.950000   -1766.223055   -60352.064807
 0.955000   -2105.821611   -71296.883179
 0.960000   -2479.191887   -75698.156197
 0.965000   -2862.803173   -80773.969224
 0.970000   -3286.931579   -95448.800016
 0.975000   -3817.291173   -111825.969688
 0.980000   -4405.191276   -111614.627709
 0.985000   -4933.437450   -91958.404927
 0.990000   -5324.775325   -41201.976282
 0.995000   -5345.457213   -232233.697387
 1.000000   -7647.112299   -688428.337030
201 psinorm omevb() domevb/dpsiN
 0.000000   41.588442   115.882917
 0.005000   42.020026   56.750578
 0.010000   42.155948   23.583271
 0.015000   42.255858   18.204638
 0.020000   42.337994   14.823022
 0.025000   42.404089   11.289700
 0.030000   42.450891   7.076052
 0.035000   42.474849   2.775204
 0.040000   42.478643   -1.324630
 0.045000   42.461603   -5.359754
 0.050000   42.425046   -8.957395
 0.055000   42.372029   -11.844458
 0.060000   42.306601   -14.145011
 0.065000   42.230579   -15.855949
 0.070000   42.148042   -16.843520
 0.075000   42.062144   -17.411704
 0.080000   41.973925   -17.765264
 0.085000   41.884491   -17.793323
 0.090000   41.795991   -17.944648
 0.095000   41.705044   -18.203330
 0.100000   41.613958   -18.169539
 0.105000   41.523349   -17.962450
 0.110000   41.434333   -17.474038
 0.115000   41.348609   -16.631628
 0.120000   41.268017   -15.729563
 0.125000   41.191313   -14.888182
 0.130000   41.119135   -13.897511
 0.135000   41.052338   -12.841926
 0.140000   40.990716   -11.708663
 0.145000   40.935251   -10.624283
 0.150000   40.884473   -9.642934
 0.155000   40.838822   -9.051578
 0.160000   40.793958   -9.179655
 0.165000   40.747025   -9.696476
 0.170000   40.696993   -10.619994
 0.175000   40.640825   -11.842274
 0.180000   40.578570   -13.292179
 0.185000   40.507904   -14.988991
 0.190000   40.428680   -16.689463
 0.195000   40.341009   -18.406829
 0.200000   40.244612   -19.936986
 0.205000   40.141639   -21.305085
 0.210000   40.031561   -22.954134
 0.215000   39.912098   -24.521119
 0.220000   39.786350   -25.700313
 0.225000   39.655095   -26.493415
 0.230000   39.521416   -27.190463
 0.235000   39.383190   -28.347995
 0.240000   39.237936   -29.396662
 0.245000   39.089223   -30.027378
 0.250000   38.937662   -30.414496
 0.255000   38.785079   -30.470848
 0.260000   38.632953   -30.392609
 0.265000   38.481152   -30.279863
 0.270000   38.330155   -29.725578
 0.275000   38.183897   -28.780438
 0.280000   38.042350   -27.911755
 0.285000   37.904779   -27.310475
 0.290000   37.769246   -27.101924
 0.295000   37.633760   -27.109112
 0.300000   37.498155   -27.122608
 0.305000   37.362534   -27.483328
 0.310000   37.223321   -28.529498
 0.315000   37.077239   -30.388674
 0.320000   36.919435   -33.046481
 0.325000   36.746774   -35.981071
 0.330000   36.559624   -39.075149
 0.335000   36.356023   -42.318110
 0.340000   36.136443   -45.051770
 0.345000   35.905505   -47.099998
 0.350000   35.665443   -48.433087
 0.355000   35.421174   -49.154851
 0.360000   35.173894   -49.839873
 0.365000   34.922775   -50.287653
 0.370000   34.671018   -50.478362
 0.375000   34.417992   -50.787705
 0.380000   34.163141   -51.273350
 0.385000   33.905258   -52.042264
 0.390000   33.642718   -52.867382
 0.395000   33.376584   -53.655739
 0.400000   33.106161   -54.766987
 0.405000   32.828914   -56.132548
 0.410000   32.544835   -57.728089
 0.415000   32.251634   -60.100925
 0.420000   31.943826   -63.732285
 0.425000   31.614311   -69.446482
 0.430000   31.249361   -76.929152
 0.435000   30.845019   -85.744550
 0.440000   30.391916   -96.498178
 0.445000   29.880037   -107.624384
 0.450000   29.315672   -117.825972
 0.455000   28.701778   -127.539281
 0.460000   28.040279   -136.106919
 0.465000   27.340708   -142.966858
 0.470000   26.610610   -147.484909
 0.475000   25.865859   -148.449411
 0.480000   25.126116   -146.156214
 0.485000   24.404297   -141.248179
 0.490000   23.713634   -133.831038
 0.495000   23.065987   -124.080677
 0.500000   22.472828   -112.950715
 0.505000   21.936480   -102.200583
 0.510000   21.450822   -92.578855
 0.515000   21.010691   -84.258908
 0.520000   20.608233   -77.444976
 0.525000   20.236241   -71.967497
 0.530000   19.888558   -68.039086
 0.535000   19.555851   -65.566615
 0.540000   19.232892   -63.528467
 0.545000   18.920566   -61.641156
 0.550000   18.616480   -60.079368
 0.555000   18.319772   -58.594321
 0.560000   18.030537   -57.029344
 0.565000   17.749479   -55.518638
 0.570000   17.475350   -54.242134
 0.575000   17.207057   -53.155485
 0.580000   16.943796   -52.196721
 0.585000   16.685090   -51.352963
 0.590000   16.430266   -50.631609
 0.595000   16.178774   -49.933841
 0.600000   15.930928   -49.202498
 0.605000   15.686749   -48.562904
 0.610000   15.445299   -47.933796
 0.615000   15.207411   -47.259026
 0.620000   14.972708   -46.598284
 0.625000   14.741428   -45.982235
 0.630000   14.512886   -45.468830
 0.635000   14.286740   -44.978050
 0.640000   14.063105   -44.349598
 0.645000   13.843244   -43.626126
 0.650000   13.626844   -42.911397
 0.655000   13.414130   -42.367571
 0.660000   13.203168   -42.296737
 0.665000   12.991163   -42.833722
 0.670000   12.774831   -43.737974
 0.675000   12.553783   -45.245174
 0.680000   12.322380   -47.450789
 0.685000   12.079275   -49.630209
 0.690000   11.826077   -51.583491
 0.695000   11.563440   -53.821554
 0.700000   11.287862   -53.653668
 0.705000   11.026903   -51.470974
 0.710000   10.773152   -49.804368
 0.715000   10.528860   -47.688643
 0.720000   10.296266   -45.217390
 0.725000   10.076686   -42.764555
 0.730000   9.868620   -38.974905
 0.735000   9.686937   -34.720596
 0.740000   9.521414   -31.554463
 0.745000   9.371392   -28.574173
 0.750000   9.235672   -25.973071
 0.755000   9.111662   -22.897050
 0.760000   9.006702   -21.536685
 0.765000   8.896295   -22.525762
 0.770000   8.781444   -23.972044
 0.775000   8.656574   -26.353057
 0.780000   8.517914   -29.123490
 0.785000   8.365339   -31.333462
 0.790000   8.204579   -34.748065
 0.795000   8.017859   -39.218865
 0.800000   7.812391   -42.995014
 0.805000   7.587909   -46.870418
 0.810000   7.343686   -50.678839
 0.815000   7.081120   -54.529468
 0.820000   6.798392   -58.586935
 0.825000   6.495251   -63.143399
 0.830000   6.166958   -68.765652
 0.835000   5.807594   -75.501345
 0.840000   5.411944   -82.964213
 0.845000   4.977952   -90.990798
 0.850000   4.502036   -99.333645
 0.855000   3.984616   -107.583620
 0.860000   3.426200   -115.926746
 0.865000   2.825348   -124.817019
 0.870000   2.178030   -134.369579
 0.875000   1.481652   -145.404330
 0.880000   0.723987   -158.087611
 0.885000   -0.099224   -171.467053
 0.890000   -0.990684   -186.670959
 0.895000   -1.965933   -205.294391
 0.900000   -3.043628   -226.904857
 0.905000   -4.234982   -253.451615
 0.910000   -5.578144   -286.896877
 0.915000   -7.103951   -326.542828
 0.920000   -8.843572   -381.831814
 0.925000   -10.922269   -469.975470
 0.930000   -13.543327   -615.085840
 0.935000   -17.073127   -869.412439
 0.940000   -22.237451   -1322.326681
 0.945000   -30.296394   -2104.127500
 0.950000   -43.278726   -3441.849128
 0.955000   -64.714885   -5537.511752
 0.960000   -98.653844   -8040.428787
 0.965000   -145.119173   -9120.030678
 0.970000   -189.854151   -5896.411950
 0.975000   -204.083293   1374.247678
 0.980000   -176.111674   7565.095170
 0.985000   -128.432341   9156.985261
 0.990000   -84.541821   7679.113933
 0.995000   -51.641202   5591.460484
 1.000000   -28.627216   3614.133545
201 psinorm omepp() domepp/dpsiN
 0.000000   21.883623   -9.310228
 0.005000   21.830930   -11.767196
 0.010000   21.765952   -13.033094
 0.015000   21.700599   -13.107431
 0.020000   21.634877   -13.180784
 0.025000   21.568791   -13.253150
 0.030000   21.502346   -13.324528
 0.035000   21.435546   -13.394916
 0.040000   21.368397   -13.464314
 0.045000   21.300903   -13.532720
 0.050000   21.233069   -13.600134
 0.055000   21.164901   -13.666553
 0.060000   21.096404   -13.731978
 0.065000   21.027582   -13.796407
 0.070000   20.958440   -13.859840
 0.075000   20.888983   -13.922277
 0.080000   20.819217   -13.983716
 0.085000   20.749146   -14.044158
 0.090000   20.678775   -14.103603
 0.095000   20.608110   -14.162049
 0.100000   20.537155   -14.219498
 0.105000   20.465915   -14.275949
 0.110000   20.394395   -14.331402
 0.115000   20.322601   -14.385858
 0.120000   20.250537   -14.439317
 0.125000   20.178208   -14.491779
 0.130000   20.105619   -14.543246
 0.135000   20.032775   -14.593717
 0.140000   19.959682   -14.643193
 0.145000   19.886343   -14.691676
 0.150000   19.812765   -14.739166
 0.155000   19.738952   -14.785664
 0.160000   19.664908   -14.831171
 0.165000   19.590640   -14.875689
 0.170000   19.516152   -14.919219
 0.175000   19.441448   -14.961762
 0.180000   19.366534   -15.003320
 0.185000   19.291415   -15.043894
 0.190000   19.216095   -15.083486
 0.195000   19.140580   -15.122099
 0.200000   19.064874   -15.159733
 0.205000   18.988983   -15.196390
 0.210000   18.912910   -15.232073
 0.215000   18.836662   -15.266784
 0.220000   18.760242   -15.300525
 0.225000   18.683657   -15.333298
 0.230000   18.606909   -15.365106
 0.235000   18.530005   -15.395951
 0.240000   18.452950   -15.425836
 0.245000   18.375747   -15.454763
 0.250000   18.298402   -15.482735
 0.255000   18.220920   -15.509755
 0.260000   18.143305   -15.535825
 0.265000   18.065562   -15.560949
 0.270000   17.987695   -15.585130
 0.275000   17.909710   -15.608371
 0.280000   17.831611   -15.630674
 0.285000   17.753403   -15.652044
 0.290000   17.675091   -15.672483
 0.295000   17.596679   -15.691995
 0.300000   17.518171   -15.710584
 0.305000   17.439573   -15.728252
 0.310000   17.360889   -15.745005
 0.315000   17.282123   -15.760844
 0.320000   17.203280   -15.775775
 0.325000   17.124365   -15.789800
 0.330000   17.045382   -15.802925
 0.335000   16.966336   -15.815152
 0.340000   16.887231   -15.826486
 0.345000   16.808071   -15.836931
 0.350000   16.728861   -15.846492
 0.355000   16.649606   -15.855171
 0.360000   16.570310   -15.862975
 0.365000   16.490976   -15.869906
 0.370000   16.411610   -15.875970
 0.375000   16.332217   -15.881171
 0.380000   16.252799   -15.885513
 0.385000   16.173361   -15.889002
 0.390000   16.093909   -15.891641
 0.395000   16.014445   -15.893436
 0.400000   15.934974   -15.894391
 0.405000   15.855501   -15.894511
 0.410000   15.776029   -15.893801
 0.415000   15.696563   -15.892266
 0.420000   15.617107   -15.889911
 0.425000   15.537664   -15.886741
 0.430000   15.458239   -15.882761
 0.435000   15.378836   -15.877976
 0.440000   15.299459   -15.872392
 0.445000   15.220112   -15.866013
 0.450000   15.140799   -15.858846
 0.455000   15.061524   -15.850894
 0.460000   14.982290   -15.842164
 0.465000   14.903102   -15.832661
 0.470000   14.823964   -15.822391
 0.475000   14.744878   -15.811359
 0.480000   14.665850   -15.799570
 0.485000   14.586883   -15.787030
 0.490000   14.507980   -15.773745
 0.495000   14.429145   -15.759721
 0.500000   14.350383   -15.744963
 0.505000   14.271696   -15.729476
 0.510000   14.193088   -15.713267
 0.515000   14.114563   -15.696342
 0.520000   14.036124   -15.678706
 0.525000   13.957776   -15.660365
 0.530000   13.879521   -15.641325
 0.535000   13.801363   -15.621592
 0.540000   13.723305   -15.601173
 0.545000   13.645351   -15.580072
 0.550000   13.567504   -15.558296
 0.555000   13.489768   -15.535851
 0.560000   13.412146   -15.512743
 0.565000   13.334641   -15.488979
 0.570000   13.257256   -15.464564
 0.575000   13.179995   -15.439504
 0.580000   13.102861   -15.413806
 0.585000   13.025857   -15.387476
 0.590000   12.948986   -15.360520
 0.595000   12.872252   -15.332944
 0.600000   12.795657   -15.304755
 0.605000   12.719204   -15.275958
 0.610000   12.642897   -15.246561
 0.615000   12.566739   -15.216569
 0.620000   12.490731   -15.185989
 0.625000   12.414879   -15.154827
 0.630000   12.339183   -15.123089
 0.635000   12.263648   -15.090782
 0.640000   12.188275   -15.057912
 0.645000   12.113069   -15.024486
 0.650000   12.038030   -14.990510
 0.655000   11.963164   -14.955990
 0.660000   11.888471   -14.920933
 0.665000   11.813954   -14.885344
 0.670000   11.739617   -14.849232
 0.675000   11.665462   -14.812601
 0.680000   11.591491   -14.775459
 0.685000   11.517707   -14.737812
 0.690000   11.444113   -14.699666
 0.695000   11.370711   -14.661028
 0.700000   11.297503   -14.621904
 0.705000   11.224492   -14.582300
 0.710000   11.151680   -14.542224
 0.715000   11.079069   -14.501682
 0.720000   11.006663   -14.460679
 0.725000   10.934463   -14.419224
 0.730000   10.862471   -14.377321
 0.735000   10.790689   -14.334978
 0.740000   10.719121   -14.292202
 0.745000   10.647767   -14.248999
 0.750000   10.576631   -14.205377
 0.755000   10.505714   -14.161342
 0.760000   10.435017   -14.116903
 0.765000   10.364545   -14.072069
 0.770000   10.294297   -14.026849
 0.775000   10.224276   -13.981255
 0.780000   10.154484   -13.935303
 0.785000   10.084923   -13.889011
 0.790000   10.015594   -13.842405
 0.795000   9.946499   -13.795523
 0.800000   9.877639   -13.748415
 0.805000   9.809015   -13.701154
 0.810000   9.740627   -13.653848
 0.815000   9.672476   -13.606651
 0.820000   9.604561   -13.559784
 0.825000   9.536878   -13.513568
 0.830000   9.469425   -13.468448
 0.835000   9.402194   -13.425043
 0.840000   9.335175   -13.384180
 0.845000   9.268352   -13.346911
 0.850000   9.201706   -13.314473
 0.855000   9.135207   -13.288095
 0.860000   9.068825   -13.268485
 0.865000   9.002523   -13.254654
 0.870000   8.936278   -13.241439
 0.875000   8.870108   -13.214502
 0.880000   8.804133   -13.140544
 0.885000   8.738703   -12.948530
 0.890000   8.674648   -12.494145
 0.895000   8.613761   -11.493042
 0.900000   8.559717   -9.396032
 0.905000   8.519801   -5.155918
 0.910000   8.508158   3.208909
 0.915000   8.551890   19.434437
 0.920000   8.702503   50.558520
 0.925000   9.057475   109.848474
 0.930000   9.800987   222.314034
 0.935000   11.280616   434.860339
 0.940000   14.149591   833.789380
 0.945000   19.618509   1569.505536
 0.950000   29.844646   2867.506370
 0.955000   48.293573   4922.600491
 0.960000   79.070651   7400.276508
 0.965000   122.296338   8479.332456
 0.970000   163.863976   5317.213220
 0.975000   175.468470   -1748.736246
 0.980000   146.376613   -7567.065669
 0.985000   99.797814   -8639.364096
 0.990000   59.982972   -6576.741105
 0.995000   34.030403   -4067.749481
 1.000000   19.305477   -1822.220687
201 psinorm kpol(km/s/T) dkpol/dpsiN
 0.000000   0.030434   131.921505
 0.005000   0.566434   82.478585
 0.010000   0.855219   55.112631
 0.015000   1.117560   51.587558
 0.020000   1.371095   49.928700
 0.025000   1.616847   47.966750
 0.030000   1.850762   45.163389
 0.035000   2.068481   42.127788
 0.040000   2.272040   39.157341
 0.045000   2.460054   36.119286
 0.050000   2.633233   33.374519
 0.055000   2.793800   31.190237
 0.060000   2.945136   29.518265
 0.065000   3.088982   28.256011
 0.070000   3.227696   27.382159
 0.075000   3.362804   26.675141
 0.080000   3.494447   25.970491
 0.085000   3.622509   25.371348
 0.090000   3.748161   24.827959
 0.095000   3.870788   24.262028
 0.100000   3.990781   23.767197
 0.105000   4.108460   23.445043
 0.110000   4.225231   23.450480
 0.115000   4.342965   23.912606
 0.120000   4.464357   24.948054
 0.125000   4.592446   26.284486
 0.130000   4.727202   27.729083
 0.135000   4.869736   29.228165
 0.140000   5.019484   30.672374
 0.145000   5.176460   32.056137
 0.150000   5.340045   32.951867
 0.155000   5.505979   33.084878
 0.160000   5.670894   32.499555
 0.165000   5.830974   31.346610
 0.170000   5.984360   29.556137
 0.175000   6.126536   27.130634
 0.180000   6.255666   24.217623
 0.185000   6.368712   21.023140
 0.190000   6.465898   17.840940
 0.195000   6.547121   14.619235
 0.200000   6.612090   11.676219
 0.205000   6.663884   8.924413
 0.210000   6.701334   6.568124
 0.215000   6.729565   4.862444
 0.220000   6.749959   3.272247
 0.225000   6.762287   1.913947
 0.230000   6.769098   0.551476
 0.235000   6.767802   -1.102901
 0.240000   6.758069   -2.807103
 0.245000   6.739731   -4.725973
 0.250000   6.710809   -6.743543
 0.255000   6.672296   -8.746312
 0.260000   6.623346   -10.884358
 0.265000   6.563452   -12.838253
 0.270000   6.494964   -14.677123
 0.275000   6.416681   -16.611600
 0.280000   6.328848   -18.389717
 0.285000   6.232784   -20.241639
 0.290000   6.126431   -22.342965
 0.295000   6.009354   -24.537966
 0.300000   5.881052   -27.009750
 0.305000   5.739256   -29.806260
 0.310000   5.582989   -32.764965
 0.315000   5.411607   -36.036679
 0.320000   5.222622   -39.662125
 0.325000   5.014986   -43.303696
 0.330000   4.789585   -46.760706
 0.335000   4.547379   -49.863525
 0.340000   4.290950   -52.391223
 0.345000   4.023466   -54.320362
 0.350000   3.747747   -55.355647
 0.355000   3.469910   -55.576285
 0.360000   3.191984   -55.613604
 0.365000   2.913774   -55.660810
 0.370000   2.635376   -55.741308
 0.375000   2.356361   -56.084798
 0.380000   2.074528   -56.987346
 0.385000   1.786487   -58.651533
 0.390000   1.488012   -61.019273
 0.395000   1.176294   -63.757613
 0.400000   0.850436   -66.562036
 0.405000   0.510674   -69.192652
 0.410000   0.158510   -71.704774
 0.415000   -0.206374   -74.630108
 0.420000   -0.587791   -78.673879
 0.425000   -0.993112   -84.238185
 0.430000   -1.430173   -91.364552
 0.435000   -1.906758   -100.167728
 0.440000   -2.431851   -111.064839
 0.445000   -3.017406   -122.339873
 0.450000   -3.655249   -132.513394
 0.455000   -4.342540   -141.666040
 0.460000   -5.071910   -149.075278
 0.465000   -5.833293   -154.311770
 0.470000   -6.615027   -156.308974
 0.475000   -7.396383   -153.902518
 0.480000   -8.154053   -147.413796
 0.485000   -8.870521   -137.735595
 0.490000   -9.531409   -125.426049
 0.495000   -10.124781   -110.652940
 0.500000   -10.637938   -94.630691
 0.505000   -11.071088   -79.718103
 0.510000   -11.435119   -66.720633
 0.515000   -11.738294   -55.610206
 0.520000   -11.991221   -46.609296
 0.525000   -12.204387   -39.600418
 0.530000   -12.387225   -34.937956
 0.535000   -12.553767   -32.358542
 0.540000   -12.710811   -30.475362
 0.545000   -12.858521   -28.649319
 0.550000   -12.997304   -26.923093
 0.555000   -13.127752   -25.238662
 0.560000   -13.249690   -23.397509
 0.565000   -13.361727   -21.378441
 0.570000   -13.463475   -19.399589
 0.575000   -13.555723   -17.334543
 0.580000   -13.636820   -15.088298
 0.585000   -13.706605   -12.873786
 0.590000   -13.765558   -10.703529
 0.595000   -13.813641   -8.493115
 0.600000   -13.850489   -6.286041
 0.605000   -13.876501   -4.285094
 0.610000   -13.893340   -2.379181
 0.615000   -13.900293   -0.468121
 0.620000   -13.898021   1.263617
 0.625000   -13.887657   2.819732
 0.630000   -13.869824   4.325341
 0.635000   -13.844403   5.803937
 0.640000   -13.811785   7.118169
 0.645000   -13.773222   8.362907
 0.650000   -13.728156   9.633379
 0.655000   -13.676888   10.825101
 0.660000   -13.619905   11.895235
 0.665000   -13.557936   12.922274
 0.670000   -13.490682   13.963531
 0.675000   -13.418300   15.009015
 0.680000   -13.340592   16.209195
 0.685000   -13.256208   17.664094
 0.690000   -13.163951   19.361744
 0.695000   -13.062591   21.213713
 0.700000   -12.951814   23.316408
 0.705000   -12.829427   25.638784
 0.710000   -12.695426   27.771332
 0.715000   -12.551713   29.541922
 0.720000   -12.400007   30.948753
 0.725000   -12.242226   31.880697
 0.730000   -12.081200   32.166027
 0.735000   -11.920566   31.680789
 0.740000   -11.764392   30.479753
 0.745000   -11.615768   28.727618
 0.750000   -11.477116   26.517663
 0.755000   -11.350592   24.007741
 0.760000   -11.237038   21.261828
 0.765000   -11.137973   18.522079
 0.770000   -11.051817   16.114666
 0.775000   -10.976827   14.088478
 0.780000   -10.910933   12.441698
 0.785000   -10.852410   11.070651
 0.790000   -10.800226   9.913811
 0.795000   -10.753271   8.634500
 0.800000   -10.713881   6.804908
 0.805000   -10.685222   4.236360
 0.810000   -10.671517   0.839660
 0.815000   -10.676826   -3.450183
 0.820000   -10.706019   -8.907831
 0.825000   -10.765904   -15.678366
 0.830000   -10.862803   -23.606161
 0.835000   -11.001966   -32.496695
 0.840000   -11.187770   -42.040877
 0.845000   -11.422374   -51.736417
 0.850000   -11.705134   -60.744350
 0.855000   -12.029818   -68.010677
 0.860000   -12.385241   -73.138588
 0.865000   -12.761204   -76.168392
 0.870000   -13.146925   -77.109561
 0.875000   -13.532299   -76.168269
 0.880000   -13.908607   -73.692066
 0.885000   -14.269220   -69.699236
 0.890000   -14.605600   -63.987011
 0.895000   -14.909090   -56.462173
 0.900000   -15.170222   -46.973477
 0.905000   -15.378825   -34.958983
 0.910000   -15.519811   -19.501957
 0.915000   -15.573845   0.204145
 0.920000   -15.517770   24.777708
 0.925000   -15.326068   54.791468
 0.930000   -14.969855   90.284664
 0.935000   -14.423221   132.995290
 0.940000   -13.639902   181.804002
 0.945000   -12.605181   225.367560
 0.950000   -11.386227   248.470650
 0.955000   -10.120474   233.994252
 0.960000   -9.046284   159.142678
 0.965000   -8.529048   12.863142
 0.970000   -8.917653   -167.851513
 0.975000   -10.207563   -273.394074
 0.980000   -11.651594   -144.837069
 0.985000   -11.655933   323.247403
 0.990000   -8.419120   1035.668217
 0.995000   -1.299251   1638.789371
 1.000000   7.968774   2068.420800
201 psinorm omghb() domghb/dpsiN
 0.000000   -0.000050   0.020162
 0.005000   -0.000065   -0.026022
 0.010000   -0.000311   -0.018493
 0.015000   -0.000250   0.023036
 0.020000   -0.000080   0.043633
 0.025000   0.000186   0.064309
 0.030000   0.000563   0.094996
 0.035000   0.001136   0.129093
 0.040000   0.001854   0.159589
 0.045000   0.002732   0.178802
 0.050000   0.003642   0.181583
 0.055000   0.004548   0.178441
 0.060000   0.005426   0.166620
 0.065000   0.006214   0.147376
 0.070000   0.006900   0.141145
 0.075000   0.007626   0.137051
 0.080000   0.008270   0.124105
 0.085000   0.008867   0.117232
 0.090000   0.009443   0.113684
 0.095000   0.010004   0.102937
 0.100000   0.010472   0.100339
 0.105000   0.011007   0.100342
 0.110000   0.011476   0.067210
 0.115000   0.011679   0.037782
 0.120000   0.011853   0.025693
 0.125000   0.011936   0.033181
 0.130000   0.012185   0.012817
 0.135000   0.012064   -0.023146
 0.140000   0.011954   -0.027455
 0.145000   0.011790   -0.005566
 0.150000   0.011898   0.019161
 0.155000   0.011981   0.063684
 0.160000   0.012535   0.113360
 0.165000   0.013115   0.144262
 0.170000   0.013978   0.200030
 0.175000   0.015115   0.242942
 0.180000   0.016407   0.283099
 0.185000   0.017946   0.287434
 0.190000   0.019281   0.286696
 0.195000   0.020813   0.321073
 0.200000   0.022492   0.326416
 0.205000   0.024077   0.320572
 0.210000   0.025698   0.291085
 0.215000   0.026988   0.272029
 0.220000   0.028418   0.283924
 0.225000   0.029827   0.266316
 0.230000   0.031081   0.258671
 0.235000   0.032414   0.228870
 0.240000   0.033370   0.213530
 0.245000   0.034549   0.249427
 0.250000   0.035864   0.258029
 0.255000   0.037130   0.120309
 0.260000   0.037067   0.023812
 0.265000   0.037368   0.025499
 0.270000   0.037322   0.003492
 0.275000   0.037403   0.008659
 0.280000   0.037409   0.018103
 0.285000   0.037584   0.018049
 0.290000   0.037589   0.047208
 0.295000   0.038056   0.122214
 0.300000   0.038811   0.189330
 0.305000   0.039949   0.246527
 0.310000   0.041277   0.244714
 0.315000   0.042396   0.526586
 0.320000   0.046543   0.770990
 0.325000   0.050106   0.732501
 0.330000   0.053868   0.744385
 0.335000   0.057550   0.668788
 0.340000   0.060555   0.569788
 0.345000   0.063248   0.516332
 0.350000   0.065719   0.401856
 0.355000   0.067266   0.273111
 0.360000   0.068450   0.204061
 0.365000   0.069307   0.163678
 0.370000   0.070087   0.263228
 0.375000   0.071939   0.279069
 0.380000   0.072877   0.192589
 0.385000   0.073865   0.244233
 0.390000   0.075320   0.352305
 0.395000   0.077388   0.435311
 0.400000   0.079673   0.378212
 0.405000   0.081170   0.376447
 0.410000   0.083437   0.583137
 0.415000   0.087002   0.833198
 0.420000   0.091769   1.257839
 0.425000   0.099580   1.797387
 0.430000   0.109743   2.128414
 0.435000   0.120864   2.383028
 0.440000   0.133573   2.634033
 0.445000   0.147205   2.735615
 0.450000   0.160930   2.902764
 0.455000   0.176232   2.696541
 0.460000   0.187895   2.052847
 0.465000   0.196761   1.516234
 0.470000   0.203057   0.914186
 0.475000   0.205903   0.199731
 0.480000   0.205055   -0.646343
 0.485000   0.199439   -1.475552
 0.490000   0.190299   -2.033003
 0.495000   0.179109   -2.373462
 0.500000   0.166564   -2.514264
 0.505000   0.153966   -2.463649
 0.510000   0.141928   -2.404756
 0.515000   0.129919   -1.974578
 0.520000   0.122182   -1.388044
 0.525000   0.116038   -1.072310
 0.530000   0.111459   -0.720077
 0.535000   0.108838   -0.464416
 0.540000   0.106815   -0.401498
 0.545000   0.104823   -0.390342
 0.550000   0.102912   -0.352248
 0.555000   0.101300   -0.357132
 0.560000   0.099340   -0.312769
 0.565000   0.098173   -0.240950
 0.570000   0.096931   -0.248399
 0.575000   0.095689   -0.236922
 0.580000   0.094561   -0.198541
 0.585000   0.093703   -0.130192
 0.590000   0.093260   -0.105620
 0.595000   0.092647   -0.130931
 0.600000   0.091950   -0.131642
 0.605000   0.091330   -0.131255
 0.610000   0.090638   -0.141232
 0.615000   0.089918   -0.103822
 0.620000   0.089599   -0.076322
 0.625000   0.089155   -0.102456
 0.630000   0.088575   -0.133755
 0.635000   0.087817   -0.155729
 0.640000   0.087018   -0.143301
 0.645000   0.086384   -0.074274
 0.650000   0.086275   -0.086061
 0.655000   0.085524   -0.082547
 0.660000   0.085449   0.029843
 0.665000   0.085822   0.171959
 0.670000   0.087169   0.387487
 0.675000   0.089697   0.900215
 0.680000   0.096171   0.973703
 0.685000   0.099434   0.484670
 0.690000   0.101018   0.310030
 0.695000   0.102534   0.191177
 0.700000   0.102930   -0.048287
 0.705000   0.102052   -0.016023
 0.710000   0.102769   -0.436349
 0.715000   0.097688   -1.100604
 0.720000   0.091763   -1.027431
 0.725000   0.087414   -0.889964
 0.730000   0.082864   -0.925647
 0.735000   0.078157   -1.003222
 0.740000   0.072831   -1.177368
 0.745000   0.066384   -1.031929
 0.750000   0.062512   -0.675916
 0.755000   0.059624   -0.401397
 0.760000   0.058498   -0.069893
 0.765000   0.058926   0.073322
 0.770000   0.059231   0.340641
 0.775000   0.062332   0.999861
 0.780000   0.069230   1.192715
 0.785000   0.074259   1.126909
 0.790000   0.080499   1.187660
 0.795000   0.086136   1.116132
 0.800000   0.091660   1.252401
 0.805000   0.098660   1.426861
 0.810000   0.105929   1.316970
 0.815000   0.111829   1.276653
 0.820000   0.118696   1.476108
 0.825000   0.126590   1.755051
 0.830000   0.136246   2.163021
 0.835000   0.148221   2.427533
 0.840000   0.160521   2.595402
 0.845000   0.174175   2.788745
 0.850000   0.188409   2.866346
 0.855000   0.202838   2.936118
 0.860000   0.217770   3.142718
 0.865000   0.234265   3.195732
 0.870000   0.249727   3.383125
 0.875000   0.268097   3.968591
 0.880000   0.289413   4.527283
 0.885000   0.313369   4.979571
 0.890000   0.339209   6.332119
 0.895000   0.376691   6.765722
 0.900000   0.406866   6.646732
 0.905000   0.443158   7.556213
 0.910000   0.482428   8.104610
 0.915000   0.524204   8.637828
 0.920000   0.568807   12.159342
 0.925000   0.645797   11.936231
 0.930000   0.688169   10.830386
 0.935000   0.754101   14.061496
 0.940000   0.828784   16.376964
 0.945000   0.917871   17.971126
 0.950000   1.008495   24.154296
 0.955000   1.159414   16.194016
 0.960000   1.170435   -0.189592
 0.965000   1.157518   -12.653951
 0.970000   1.043896   -43.275752
 0.975000   0.724760   -96.316244
 0.980000   0.080733   -166.054963
 0.985000   -0.935789   -224.326675
 0.990000   -2.162533   -210.883210
 0.995000   -3.044621   -92.617854
 1.000000   -3.088712   74.981601
201 psinorm nz1(10^20/m^3) dnz1/dpsiN
 0.000000   0.017495   0.000001
 0.005000   0.017495   -0.000027
 0.010000   0.017495   -0.000056
 0.015000   0.017495   -0.000084
 0.020000   0.017494   -0.000114
 0.025000   0.017494   -0.000144
 0.030000   0.017493   -0.000174
 0.035000   0.017492   -0.000206
 0.040000   0.017491   -0.000238
 0.045000   0.017489   -0.000271
 0.050000   0.017488   -0.000305
 0.055000   0.017486   -0.000340
 0.060000   0.017485   -0.000375
 0.065000   0.017483   -0.000412
 0.070000   0.017480   -0.000450
 0.075000   0.017478   -0.000489
 0.080000   0.017476   -0.000528
 0.085000   0.017473   -0.000569
 0.090000   0.017470   -0.000610
 0.095000   0.017467   -0.000652
 0.100000   0.017463   -0.000694
 0.105000   0.017460   -0.000736
 0.110000   0.017456   -0.000779
 0.115000   0.017452   -0.000822
 0.120000   0.017448   -0.000865
 0.125000   0.017443   -0.000908
 0.130000   0.017439   -0.000951
 0.135000   0.017434   -0.000992
 0.140000   0.017429   -0.001034
 0.145000   0.017423   -0.001074
 0.150000   0.017418   -0.001113
 0.155000   0.017412   -0.001150
 0.160000   0.017407   -0.001186
 0.165000   0.017400   -0.001219
 0.170000   0.017394   -0.001250
 0.175000   0.017388   -0.001278
 0.180000   0.017382   -0.001304
 0.185000   0.017375   -0.001326
 0.190000   0.017368   -0.001345
 0.195000   0.017361   -0.001360
 0.200000   0.017355   -0.001371
 0.205000   0.017348   -0.001377
 0.210000   0.017341   -0.001379
 0.215000   0.017334   -0.001377
 0.220000   0.017327   -0.001369
 0.225000   0.017320   -0.001358
 0.230000   0.017314   -0.001342
 0.235000   0.017307   -0.001323
 0.240000   0.017300   -0.001298
 0.245000   0.017294   -0.001269
 0.250000   0.017288   -0.001233
 0.255000   0.017282   -0.001192
 0.260000   0.017276   -0.001144
 0.265000   0.017270   -0.001087
 0.270000   0.017265   -0.001022
 0.275000   0.017260   -0.000948
 0.280000   0.017255   -0.000865
 0.285000   0.017251   -0.000774
 0.290000   0.017248   -0.000673
 0.295000   0.017245   -0.000563
 0.300000   0.017242   -0.000445
 0.305000   0.017240   -0.000320
 0.310000   0.017239   -0.000188
 0.315000   0.017238   -0.000051
 0.320000   0.017238   0.000090
 0.325000   0.017239   0.000235
 0.330000   0.017241   0.000383
 0.335000   0.017243   0.000533
 0.340000   0.017246   0.000685
 0.345000   0.017250   0.000842
 0.350000   0.017254   0.001003
 0.355000   0.017260   0.001170
 0.360000   0.017266   0.001343
 0.365000   0.017273   0.001522
 0.370000   0.017281   0.001706
 0.375000   0.017290   0.001896
 0.380000   0.017300   0.002088
 0.385000   0.017311   0.002278
 0.390000   0.017323   0.002465
 0.395000   0.017336   0.002646
 0.400000   0.017349   0.002819
 0.405000   0.017364   0.002980
 0.410000   0.017379   0.003127
 0.415000   0.017395   0.003256
 0.420000   0.017412   0.003368
 0.425000   0.017429   0.003462
 0.430000   0.017446   0.003536
 0.435000   0.017464   0.003590
 0.440000   0.017482   0.003626
 0.445000   0.017501   0.003650
 0.450000   0.017519   0.003663
 0.455000   0.017537   0.003664
 0.460000   0.017556   0.003652
 0.465000   0.017574   0.003629
 0.470000   0.017592   0.003595
 0.475000   0.017610   0.003545
 0.480000   0.017627   0.003473
 0.485000   0.017644   0.003377
 0.490000   0.017661   0.003254
 0.495000   0.017677   0.003103
 0.500000   0.017692   0.002923
 0.505000   0.017706   0.002712
 0.510000   0.017719   0.002471
 0.515000   0.017731   0.002203
 0.520000   0.017741   0.001908
 0.525000   0.017750   0.001588
 0.530000   0.017757   0.001245
 0.535000   0.017762   0.000880
 0.540000   0.017766   0.000495
 0.545000   0.017767   0.000091
 0.550000   0.017767   -0.000333
 0.555000   0.017764   -0.000775
 0.560000   0.017759   -0.001236
 0.565000   0.017752   -0.001718
 0.570000   0.017742   -0.002219
 0.575000   0.017729   -0.002741
 0.580000   0.017714   -0.003282
 0.585000   0.017697   -0.003839
 0.590000   0.017676   -0.004410
 0.595000   0.017653   -0.004991
 0.600000   0.017626   -0.005580
 0.605000   0.017597   -0.006173
 0.610000   0.017564   -0.006771
 0.615000   0.017529   -0.007373
 0.620000   0.017491   -0.007987
 0.625000   0.017449   -0.008615
 0.630000   0.017405   -0.009258
 0.635000   0.017357   -0.009915
 0.640000   0.017305   -0.010585
 0.645000   0.017251   -0.011266
 0.650000   0.017193   -0.011964
 0.655000   0.017131   -0.012668
 0.660000   0.017066   -0.013360
 0.665000   0.016998   -0.014045
 0.670000   0.016926   -0.014739
 0.675000   0.016850   -0.015475
 0.680000   0.016771   -0.016348
 0.685000   0.016687   -0.017404
 0.690000   0.016597   -0.018586
 0.695000   0.016501   -0.019870
 0.700000   0.016398   -0.021241
 0.705000   0.016288   -0.022665
 0.710000   0.016171   -0.024164
 0.715000   0.016047   -0.025634
 0.720000   0.015915   -0.026906
 0.725000   0.015778   -0.027969
 0.730000   0.015635   -0.028820
 0.735000   0.015489   -0.029422
 0.740000   0.015341   -0.029739
 0.745000   0.015192   -0.029706
 0.750000   0.015044   -0.029303
 0.755000   0.014899   -0.028580
 0.760000   0.014758   -0.027572
 0.765000   0.014623   -0.026316
 0.770000   0.014495   -0.024823
 0.775000   0.014375   -0.023149
 0.780000   0.014264   -0.021482
 0.785000   0.014160   -0.019906
 0.790000   0.014065   -0.018408
 0.795000   0.013976   -0.017014
 0.800000   0.013894   -0.015733
 0.805000   0.013819   -0.014594
 0.810000   0.013749   -0.013623
 0.815000   0.013683   -0.012761
 0.820000   0.013621   -0.011932
 0.825000   0.013563   -0.011111
 0.830000   0.013510   -0.010289
 0.835000   0.013460   -0.009474
 0.840000   0.013415   -0.008689
 0.845000   0.013374   -0.007947
 0.850000   0.013336   -0.007246
 0.855000   0.013301   -0.006586
 0.860000   0.013270   -0.005971
 0.865000   0.013241   -0.005404
 0.870000   0.013216   -0.004893
 0.875000   0.013192   -0.004451
 0.880000   0.013171   -0.004085
 0.885000   0.013152   -0.003797
 0.890000   0.013133   -0.003597
 0.895000   0.013116   -0.003546
 0.900000   0.013098   -0.003669
 0.905000   0.013079   -0.004003
 0.910000   0.013058   -0.004707
 0.915000   0.013032   -0.006036
 0.920000   0.012997   -0.008417
 0.925000   0.012948   -0.012786
 0.930000   0.012870   -0.020205
 0.935000   0.012746   -0.032011
 0.940000   0.012549   -0.050103
 0.945000   0.012245   -0.076125
 0.950000   0.011788   -0.110611
 0.955000   0.011138   -0.153196
 0.960000   0.010256   -0.197709
 0.965000   0.009161   -0.233540
 0.970000   0.007921   -0.252249
 0.975000   0.006639   -0.249157
 0.980000   0.005429   -0.226093
 0.985000   0.004378   -0.190545
 0.990000   0.003524   -0.151357
 0.995000   0.002864   -0.115719
 1.000000   0.002367   -0.083408
201 psinorm vtor1(km/s) dvtor1/dpsiN
 0.000000   111.235707   544.439973
 0.005000   113.347853   300.418296
 0.010000   114.239890   157.015262
 0.015000   114.918006   123.792142
 0.020000   115.477812   104.335269
 0.025000   115.961358   91.597019
 0.030000   116.393782   82.224498
 0.035000   116.783603   74.021858
 0.040000   117.134001   66.905090
 0.045000   117.452654   60.853045
 0.050000   117.742531   55.243208
 0.055000   118.005086   49.840290
 0.060000   118.240934   44.847989
 0.065000   118.453566   40.363425
 0.070000   118.644568   36.111682
 0.075000   118.814683   32.135458
 0.080000   118.965923   28.494850
 0.085000   119.099632   25.082395
 0.090000   119.216747   21.720663
 0.095000   119.316838   18.492792
 0.100000   119.401675   15.497103
 0.105000   119.471809   12.519413
 0.110000   119.526869   9.536498
 0.115000   119.567174   6.669428
 0.120000   119.593563   3.868527
 0.125000   119.605859   0.994951
 0.130000   119.603513   -1.933512
 0.135000   119.586524   -4.962617
 0.140000   119.553886   -8.139727
 0.145000   119.505127   -11.404750
 0.150000   119.439839   -14.728501
 0.155000   119.357842   -18.133212
 0.160000   119.258507   -21.696288
 0.165000   119.140879   -25.358452
 0.170000   119.004922   -29.012597
 0.175000   118.850753   -32.669778
 0.180000   118.678224   -36.348998
 0.185000   118.487263   -39.991473
 0.190000   118.278310   -43.559905
 0.195000   118.051664   -47.052743
 0.200000   117.807782   -50.400511
 0.205000   117.547659   -53.530316
 0.210000   117.272479   -56.407973
 0.215000   116.983579   -59.008341
 0.220000   116.682396   -61.220067
 0.225000   116.371379   -62.894689
 0.230000   116.053449   -64.211462
 0.235000   115.729264   -65.298232
 0.240000   115.400466   -66.065382
 0.245000   115.068610   -66.547686
 0.250000   114.734990   -66.764841
 0.255000   114.400962   -66.573258
 0.260000   114.069257   -66.214544
 0.265000   113.738816   -65.910875
 0.270000   113.410148   -65.529797
 0.275000   113.083518   -65.118267
 0.280000   112.758966   -64.732779
 0.285000   112.436191   -64.403970
 0.290000   112.114926   -64.368452
 0.295000   111.792506   -64.723434
 0.300000   111.467692   -65.304822
 0.305000   111.139458   -66.052939
 0.310000   110.807162   -66.867431
 0.315000   110.470784   -67.674585
 0.320000   110.130416   -68.425219
 0.325000   109.786531   -69.095232
 0.330000   109.439464   -69.698450
 0.335000   109.089547   -70.243064
 0.340000   108.737033   -70.733340
 0.345000   108.382213   -71.149980
 0.350000   108.025534   -71.469381
 0.355000   107.667520   -71.699964
 0.360000   107.308534   -71.858707
 0.365000   106.948933   -71.929722
 0.370000   106.589237   -71.906502
 0.375000   106.229868   -71.794512
 0.380000   105.871292   -71.593687
 0.385000   105.513931   -71.306539
 0.390000   105.158226   -70.931245
 0.395000   104.804618   -70.472303
 0.400000   104.453503   -69.935769
 0.405000   104.105261   -69.297955
 0.410000   103.760524   -68.694994
 0.415000   103.418311   -68.456803
 0.420000   103.075956   -68.836755
 0.425000   102.729943   -69.955718
 0.430000   102.376398   -71.857933
 0.435000   102.011364   -74.815745
 0.440000   101.628241   -78.784357
 0.445000   101.223520   -83.098523
 0.450000   100.797256   -87.529590
 0.455000   100.348224   -92.136993
 0.460000   99.875886   -96.776344
 0.465000   99.380461   -101.592619
 0.470000   98.859960   -106.403212
 0.475000   98.316429   -110.357991
 0.480000   97.756380   -113.320209
 0.485000   97.183227   -115.564394
 0.490000   96.600736   -117.016974
 0.495000   96.013057   -117.658032
 0.500000   95.424155   -117.380339
 0.505000   94.839253   -116.184589
 0.510000   94.262310   -114.442160
 0.515000   93.694832   -112.459776
 0.520000   93.137712   -110.326990
 0.525000   92.591562   -108.064316
 0.530000   92.057069   -105.643060
 0.535000   91.535131   -103.244894
 0.540000   91.024620   -101.020868
 0.545000   90.524923   -98.946969
 0.550000   90.035150   -97.066769
 0.555000   89.554255   -95.393807
 0.560000   89.081212   -93.888098
 0.565000   88.615374   -92.758932
 0.570000   88.153623   -92.136075
 0.575000   87.694013   -91.916271
 0.580000   87.234460   -92.116437
 0.585000   86.772849   -92.756318
 0.590000   86.306897   -93.841541
 0.595000   85.834434   -95.230332
 0.600000   85.354593   -96.717652
 0.605000   84.867257   -98.203454
 0.610000   84.372559   -99.644337
 0.615000   83.870814   -101.016721
 0.620000   83.362392   -102.130931
 0.625000   82.849504   -103.096298
 0.630000   82.331429   -104.111200
 0.635000   81.808392   -105.072741
 0.640000   81.280701   -105.985273
 0.645000   80.748540   -106.870868
 0.650000   80.211993   -107.622067
 0.655000   79.672319   -108.562902
 0.660000   79.126364   -110.062419
 0.665000   78.571695   -112.050839
 0.670000   78.005855   -114.558414
 0.675000   77.426111   -117.620560
 0.680000   76.829650   -121.373292
 0.685000   76.212378   -125.478666
 0.690000   75.574863   -129.276951
 0.695000   74.919608   -132.581226
 0.700000   74.249051   -135.386897
 0.705000   73.565739   -137.721943
 0.710000   72.871831   -139.694248
 0.715000   72.168797   -141.430950
 0.720000   71.457522   -142.989344
 0.725000   70.738903   -144.359729
 0.730000   70.013924   -145.530070
 0.735000   69.283603   -146.493743
 0.740000   68.548987   -147.255413
 0.745000   67.811048   -147.843711
 0.750000   67.070550   -148.393145
 0.755000   66.327117   -149.203512
 0.760000   65.578515   -150.574549
 0.765000   64.821371   -152.669983
 0.770000   64.051815   -155.789850
 0.775000   63.263473   -159.854431
 0.780000   62.453271   -163.731663
 0.785000   61.626156   -166.850274
 0.790000   60.784768   -169.367987
 0.795000   59.932476   -171.167538
 0.800000   59.073093   -172.330202
 0.805000   58.209174   -172.860132
 0.810000   57.344491   -172.348272
 0.815000   56.485692   -171.065895
 0.820000   55.633832   -169.733736
 0.825000   54.788354   -168.640718
 0.830000   53.947425   -168.093323
 0.835000   53.107421   -168.353055
 0.840000   52.263895   -169.131582
 0.845000   51.416105   -170.504059
 0.850000   50.558854   -173.150302
 0.855000   49.684602   -177.564323
 0.860000   48.783211   -184.354232
 0.865000   47.841060   -194.560183
 0.870000   46.837609   -208.402828
 0.875000   45.757032   -225.849091
 0.880000   44.579118   -247.459308
 0.885000   43.282439   -273.385094
 0.890000   41.845267   -303.569102
 0.895000   40.246748   -338.823244
 0.900000   38.457035   -377.167401
 0.905000   36.475074   -416.118408
 0.910000   34.295851   -455.161023
 0.915000   31.923463   -492.276946
 0.920000   29.373081   -525.109480
 0.925000   26.672369   -551.788380
 0.930000   23.855197   -568.132870
 0.935000   20.991040   -570.231086
 0.940000   18.152886   -557.179440
 0.945000   15.419245   -528.586122
 0.950000   12.867025   -485.582690
 0.955000   10.563419   -429.703442
 0.960000   8.569991   -365.494332
 0.965000   6.908475   -298.981064
 0.970000   5.580180   -233.896357
 0.975000   4.569512   -173.396140
 0.980000   3.846219   -119.895012
 0.985000   3.370562   -74.610672
 0.990000   3.100112   -38.386194
 0.995000   2.986700   -11.080245
 1.000000   2.989310   12.124198
201 psinorm vpol1(km/s) dvpol1/dpsiN
 0.000000   0.000182   4.996875
 0.005000   0.027264   5.835937
 0.010000   0.058541   6.653320
 0.015000   0.093797   7.410547
 0.020000   0.132646   8.063281
 0.025000   0.174430   8.563086
 0.030000   0.218277   8.855078
 0.035000   0.262980   8.976562
 0.040000   0.308043   8.995313
 0.045000   0.352934   8.927539
 0.050000   0.397318   8.819141
 0.055000   0.441125   8.714063
 0.060000   0.484459   8.645117
 0.065000   0.527576   8.628906
 0.070000   0.570748   8.637500
 0.075000   0.613951   8.648633
 0.080000   0.657234   8.662891
 0.085000   0.700580   8.672656
 0.090000   0.743961   8.673047
 0.095000   0.787311   8.665039
 0.100000   0.830611   8.661523
 0.105000   0.873926   8.686719
 0.110000   0.917479   8.767187
 0.115000   0.961598   8.956250
 0.120000   1.007041   9.276367
 0.125000   1.054361   9.671094
 0.130000   1.103752   10.104102
 0.135000   1.155402   10.564648
 0.140000   1.209398   11.024609
 0.145000   1.265648   11.474609
 0.150000   1.324145   11.820703
 0.155000   1.383855   11.969336
 0.160000   1.443838   11.938477
 0.165000   1.503240   11.736328
 0.170000   1.561201   11.367383
 0.175000   1.616914   10.801367
 0.180000   1.669215   10.070703
 0.185000   1.717621   9.259570
 0.190000   1.761811   8.401562
 0.195000   1.801637   7.531250
 0.200000   1.837123   6.682227
 0.205000   1.868459   5.870898
 0.210000   1.895832   5.175977
 0.215000   1.920219   4.619141
 0.220000   1.942023   4.122266
 0.225000   1.961441   3.648633
 0.230000   1.978510   3.163281
 0.235000   1.993074   2.625781
 0.240000   2.004768   2.024023
 0.245000   2.013314   1.372656
 0.250000   2.018494   0.680078
 0.255000   2.020115   -0.039844
 0.260000   2.018096   -0.767383
 0.265000   2.012441   -1.482031
 0.270000   2.003275   -2.176367
 0.275000   1.990678   -2.858398
 0.280000   1.974691   -3.544922
 0.285000   1.955229   -4.256836
 0.290000   1.932123   -5.014648
 0.295000   1.905082   -5.849609
 0.300000   1.873627   -6.768555
 0.305000   1.837396   -7.775781
 0.310000   1.795869   -8.877930
 0.315000   1.748617   -10.075781
 0.320000   1.695111   -11.382031
 0.325000   1.634797   -12.732422
 0.330000   1.567787   -14.018164
 0.335000   1.494615   -15.182812
 0.340000   1.415959   -16.189258
 0.345000   1.332723   -16.990039
 0.350000   1.246059   -17.480859
 0.355000   1.157914   -17.719531
 0.360000   1.068863   -17.885742
 0.365000   0.979057   -18.035938
 0.370000   0.888504   -18.210352
 0.375000   0.796953   -18.466406
 0.380000   0.703840   -18.894727
 0.385000   0.608006   -19.595117
 0.390000   0.507889   -20.535937
 0.395000   0.402646   -21.595312
 0.400000   0.291936   -22.687500
 0.405000   0.175771   -23.723437
 0.410000   0.054701   -24.717578
 0.415000   -0.071404   -25.857813
 0.420000   -0.203877   -27.388086
 0.425000   -0.345285   -29.454492
 0.430000   -0.498422   -32.075781
 0.435000   -0.666043   -35.288086
 0.440000   -0.851303   -39.251953
 0.445000   -1.058563   -43.377344
 0.450000   -1.285076   -47.114648
 0.455000   -1.529709   -50.505664
 0.460000   -1.790133   -53.316406
 0.465000   -2.062873   -55.346875
 0.470000   -2.343602   -56.219043
 0.475000   -2.625063   -55.547070
 0.480000   -2.899072   -53.412402
 0.485000   -3.159188   -50.091309
 0.490000   -3.399985   -45.821289
 0.495000   -3.617400   -40.678613
 0.500000   -3.806771   -35.011328
 0.505000   -3.967514   -29.707520
 0.510000   -4.103847   -25.115723
 0.515000   -4.218671   -21.157129
 0.520000   -4.315418   -17.911719
 0.525000   -4.397788   -15.398437
 0.530000   -4.469402   -13.746387
 0.535000   -4.535252   -12.787793
 0.540000   -4.597280   -12.079785
 0.545000   -4.656050   -11.441406
 0.550000   -4.711694   -10.805469
 0.555000   -4.764104   -10.159570
 0.560000   -4.813290   -9.485059
 0.565000   -4.858955   -8.761621
 0.570000   -4.900906   -8.003711
 0.575000   -4.938992   -7.215723
 0.580000   -4.973063   -6.406055
 0.585000   -5.003053   -5.578906
 0.590000   -5.028853   -4.744336
 0.595000   -5.050496   -3.919922
 0.600000   -5.068052   -3.114844
 0.605000   -5.081645   -2.339941
 0.610000   -5.091451   -1.599121
 0.615000   -5.097636   -0.898145
 0.620000   -5.100433   -0.243262
 0.625000   -5.100068   0.370020
 0.630000   -5.096732   0.947559
 0.635000   -5.090593   1.494336
 0.640000   -5.081789   2.012598
 0.645000   -5.070467   2.510547
 0.650000   -5.056684   2.987354
 0.655000   -5.040593   3.439795
 0.660000   -5.022286   3.870654
 0.665000   -5.001887   4.277393
 0.670000   -4.979512   4.667139
 0.675000   -4.955215   5.076270
 0.680000   -4.928749   5.552100
 0.685000   -4.899694   6.105078
 0.690000   -4.867698   6.739404
 0.695000   -4.832300   7.453418
 0.700000   -4.793164   8.260400
 0.705000   -4.749696   9.127393
 0.710000   -4.701890   9.931494
 0.715000   -4.650381   10.613477
 0.720000   -4.595755   11.154443
 0.725000   -4.538837   11.508252
 0.730000   -4.480673   11.632349
 0.735000   -4.422513   11.474731
 0.740000   -4.365926   11.040991
 0.745000   -4.312104   10.397778
 0.750000   -4.261948   9.595972
 0.755000   -4.216144   8.681616
 0.760000   -4.175132   7.666461
 0.765000   -4.139479   6.656213
 0.770000   -4.108569   5.776520
 0.775000   -4.081714   5.034245
 0.780000   -4.058227   4.424490
 0.785000   -4.037469   3.923869
 0.790000   -4.018988   3.507364
 0.795000   -4.002395   3.037839
 0.800000   -3.988610   2.358215
 0.805000   -3.978813   1.414459
 0.810000   -3.974465   0.163507
 0.815000   -3.977178   -1.432495
 0.820000   -3.988790   -3.464551
 0.825000   -4.011824   -5.972437
 0.830000   -4.048515   -8.914551
 0.835000   -4.100969   -12.231152
 0.840000   -4.170826   -15.785303
 0.845000   -4.258822   -19.383057
 0.850000   -4.364657   -22.732275
 0.855000   -4.486145   -25.446289
 0.860000   -4.619120   -27.346338
 0.865000   -4.759608   -28.450830
 0.870000   -4.903628   -28.791895
 0.875000   -5.047527   -28.442578
 0.880000   -5.188054   -27.488477
 0.885000   -5.322412   -25.958984
 0.890000   -5.447644   -23.818555
 0.895000   -5.560598   -21.009570
 0.900000   -5.657739   -17.416797
 0.905000   -5.734766   -12.882129
 0.910000   -5.786561   -7.116016
 0.915000   -5.805926   0.242383
 0.920000   -5.784137   9.452539
 0.925000   -5.711400   20.673242
 0.930000   -5.577404   33.886328
 0.935000   -5.372537   49.404492
 0.940000   -5.083359   66.706445
 0.945000   -4.705473   82.593750
 0.950000   -4.257422   91.513867
 0.955000   -3.790334   85.668945
 0.960000   -3.400732   56.707813
 0.965000   -3.223256   1.301758
 0.970000   -3.387715   -67.447070
 0.975000   -3.897727   -107.699219
 0.980000   -4.464707   -58.092578
 0.985000   -4.478652   122.094531
 0.990000   -3.243762   397.671094
 0.995000   -0.501941   632.077734
 1.000000   3.077016   799.505078
3 N Z A of ION SPECIES
 6.000000   6.000000   12.010700
 1.000000   1.000000   2.000000
 1.000000   1.000000   2.000000
