201 psinorm ne(10^20/m^3) dne/dpsiN
 0.000000   0.724777   -0.243864
 0.005000   0.723558   -0.243634
 0.010000   0.722341   -0.243404
 0.015000   0.721124   -0.243174
 0.020000   0.719909   -0.242944
 0.025000   0.718695   -0.242713
 0.030000   0.717482   -0.242482
 0.035000   0.716270   -0.242251
 0.040000   0.715059   -0.242020
 0.045000   0.713850   -0.241789
 0.050000   0.712641   -0.241557
 0.055000   0.711434   -0.241325
 0.060000   0.710228   -0.241093
 0.065000   0.709023   -0.240861
 0.070000   0.707820   -0.240629
 0.075000   0.706617   -0.240396
 0.080000   0.705416   -0.240163
 0.085000   0.704215   -0.239930
 0.090000   0.703016   -0.239697
 0.095000   0.701818   -0.239464
 0.100000   0.700622   -0.239230
 0.105000   0.699426   -0.238996
 0.110000   0.698232   -0.238762
 0.115000   0.697038   -0.238528
 0.120000   0.695846   -0.238293
 0.125000   0.694656   -0.238059
 0.130000   0.693466   -0.237824
 0.135000   0.692277   -0.237589
 0.140000   0.691090   -0.237354
 0.145000   0.689904   -0.237118
 0.150000   0.688719   -0.236883
 0.155000   0.687535   -0.236647
 0.160000   0.686352   -0.236411
 0.165000   0.685171   -0.236175
 0.170000   0.683991   -0.235939
 0.175000   0.682811   -0.235702
 0.180000   0.681634   -0.235466
 0.185000   0.680457   -0.235229
 0.190000   0.679281   -0.234992
 0.195000   0.678107   -0.234755
 0.200000   0.676934   -0.234517
 0.205000   0.675762   -0.234280
 0.210000   0.674591   -0.234042
 0.215000   0.673421   -0.233804
 0.220000   0.672253   -0.233566
 0.225000   0.671086   -0.233328
 0.230000   0.669920   -0.233090
 0.235000   0.668755   -0.232851
 0.240000   0.667591   -0.232612
 0.245000   0.666429   -0.232373
 0.250000   0.665267   -0.232134
 0.255000   0.664107   -0.231895
 0.260000   0.662948   -0.231656
 0.265000   0.661791   -0.231416
 0.270000   0.660634   -0.231177
 0.275000   0.659479   -0.230937
 0.280000   0.658325   -0.230697
 0.285000   0.657172   -0.230457
 0.290000   0.656020   -0.230216
 0.295000   0.654870   -0.229976
 0.300000   0.653721   -0.229735
 0.305000   0.652572   -0.229495
 0.310000   0.651426   -0.229254
 0.315000   0.650280   -0.229013
 0.320000   0.649135   -0.228771
 0.325000   0.647992   -0.228530
 0.330000   0.646850   -0.228289
 0.335000   0.645709   -0.228047
 0.340000   0.644570   -0.227805
 0.345000   0.643431   -0.227563
 0.350000   0.642294   -0.227321
 0.355000   0.641158   -0.227079
 0.360000   0.640023   -0.226837
 0.365000   0.638890   -0.226594
 0.370000   0.637757   -0.226352
 0.375000   0.636626   -0.226109
 0.380000   0.635496   -0.225866
 0.385000   0.634368   -0.225623
 0.390000   0.633240   -0.225380
 0.395000   0.632114   -0.225137
 0.400000   0.630989   -0.224893
 0.405000   0.629865   -0.224650
 0.410000   0.628742   -0.224406
 0.415000   0.627621   -0.224162
 0.420000   0.626501   -0.223918
 0.425000   0.625382   -0.223674
 0.430000   0.624264   -0.223430
 0.435000   0.623147   -0.223186
 0.440000   0.622032   -0.222942
 0.445000   0.620918   -0.222697
 0.450000   0.619805   -0.222453
 0.455000   0.618693   -0.222208
 0.460000   0.617583   -0.221963
 0.465000   0.616474   -0.221718
 0.470000   0.615366   -0.221473
 0.475000   0.614259   -0.221228
 0.480000   0.613153   -0.220983
 0.485000   0.612049   -0.220737
 0.490000   0.610946   -0.220492
 0.495000   0.609844   -0.220246
 0.500000   0.608744   -0.220000
 0.505000   0.607644   -0.219755
 0.510000   0.606546   -0.219509
 0.515000   0.605449   -0.219263
 0.520000   0.604353   -0.219017
 0.525000   0.603259   -0.218770
 0.530000   0.602166   -0.218524
 0.535000   0.601074   -0.218278
 0.540000   0.599983   -0.218031
 0.545000   0.598893   -0.217785
 0.550000   0.597805   -0.217538
 0.555000   0.596718   -0.217291
 0.560000   0.595632   -0.217044
 0.565000   0.594548   -0.216797
 0.570000   0.593464   -0.216550
 0.575000   0.592382   -0.216303
 0.580000   0.591301   -0.216055
 0.585000   0.590221   -0.215808
 0.590000   0.589143   -0.215560
 0.595000   0.588066   -0.215313
 0.600000   0.586990   -0.215065
 0.605000   0.585915   -0.214817
 0.610000   0.584842   -0.214569
 0.615000   0.583770   -0.214321
 0.620000   0.582699   -0.214072
 0.625000   0.581629   -0.213824
 0.630000   0.580560   -0.213575
 0.635000   0.579493   -0.213326
 0.640000   0.578427   -0.213076
 0.645000   0.577362   -0.212826
 0.650000   0.576299   -0.212576
 0.655000   0.575237   -0.212324
 0.660000   0.574176   -0.212072
 0.665000   0.573116   -0.211819
 0.670000   0.572057   -0.211564
 0.675000   0.571000   -0.211308
 0.680000   0.569944   -0.211049
 0.685000   0.568890   -0.210788
 0.690000   0.567836   -0.210523
 0.695000   0.566784   -0.210253
 0.700000   0.565734   -0.209978
 0.705000   0.564685   -0.209695
 0.710000   0.563637   -0.209402
 0.715000   0.562591   -0.209098
 0.720000   0.561546   -0.208779
 0.725000   0.560503   -0.208439
 0.730000   0.559462   -0.208075
 0.735000   0.558422   -0.207680
 0.740000   0.557385   -0.207244
 0.745000   0.556350   -0.206758
 0.750000   0.555317   -0.206207
 0.755000   0.554288   -0.205574
 0.760000   0.553261   -0.204838
 0.765000   0.552239   -0.203970
 0.770000   0.551222   -0.202937
 0.775000   0.550210   -0.201696
 0.780000   0.549205   -0.200192
 0.785000   0.548208   -0.198358
 0.790000   0.547221   -0.196110
 0.795000   0.546247   -0.193344
 0.800000   0.545288   -0.189931
 0.805000   0.544348   -0.185713
 0.810000   0.543431   -0.180497
 0.815000   0.542543   -0.174047
 0.820000   0.541690   -0.166077
 0.825000   0.540882   -0.156247
 0.830000   0.540128   -0.144151
 0.835000   0.539440   -0.129315
 0.840000   0.538835   -0.111195
 0.845000   0.538328   -0.089178
 0.850000   0.537943   -0.062599
 0.855000   0.537702   -0.030772
 0.860000   0.537635   0.006950
 0.865000   0.537772   0.051073
 0.870000   0.538146   0.101792
 0.875000   0.538790   0.158716
 0.880000   0.539733   0.220454
 0.885000   0.540994   0.283970
 0.890000   0.542573   0.343650
 0.895000   0.544431   0.389957
 0.900000   0.546472   0.407632
 0.905000   0.548507   0.373428
 0.910000   0.550206   0.253718
 0.915000   0.551044   0.002811
 0.920000   0.550235   -0.436132
 0.925000   0.546683   -1.124413
 0.930000   0.538990   -2.111323
 0.935000   0.525570   -3.405678
 0.940000   0.504934   -4.940425
 0.945000   0.476165   -6.548420
 0.950000   0.439450   -7.977234
 0.955000   0.396393   -8.959387
 0.960000   0.349856   -9.314921
 0.965000   0.303244   -9.025437
 0.970000   0.259601   -8.229203
 0.975000   0.220952   -7.145726
 0.980000   0.188144   -5.985994
 0.985000   0.161092   -4.897913
 0.990000   0.139165   -3.956931
 0.995000   0.121523   -3.183608
 1.000000   0.107329   -2.493942
201 psinorm te(KeV) dte/dpsiN
 0.000000   3.530975   -0.863284
 0.005000   3.526563   -0.901488
 0.010000   3.521960   -0.939616
 0.015000   3.517167   -0.977589
 0.020000   3.512184   -1.015399
 0.025000   3.507013   -1.053042
 0.030000   3.501654   -1.090511
 0.035000   3.496108   -1.127800
 0.040000   3.490376   -1.164903
 0.045000   3.484459   -1.201814
 0.050000   3.478358   -1.238528
 0.055000   3.472073   -1.275039
 0.060000   3.465607   -1.311340
 0.065000   3.458960   -1.347426
 0.070000   3.452133   -1.383292
 0.075000   3.445127   -1.418932
 0.080000   3.437944   -1.454341
 0.085000   3.430584   -1.489512
 0.090000   3.423049   -1.524441
 0.095000   3.415339   -1.559123
 0.100000   3.407457   -1.593552
 0.105000   3.399404   -1.627722
 0.110000   3.391180   -1.661630
 0.115000   3.382787   -1.695269
 0.120000   3.374227   -1.728635
 0.125000   3.365501   -1.761723
 0.130000   3.356610   -1.794529
 0.135000   3.347556   -1.827046
 0.140000   3.338340   -1.859272
 0.145000   3.328963   -1.891201
 0.150000   3.319428   -1.922828
 0.155000   3.309735   -1.954150
 0.160000   3.299886   -1.985161
 0.165000   3.289883   -2.015859
 0.170000   3.279728   -2.046237
 0.175000   3.269421   -2.076293
 0.180000   3.258965   -2.106023
 0.185000   3.248361   -2.135422
 0.190000   3.237610   -2.164486
 0.195000   3.226716   -2.193212
 0.200000   3.215678   -2.221597
 0.205000   3.204500   -2.249636
 0.210000   3.193182   -2.277327
 0.215000   3.181727   -2.304665
 0.220000   3.170135   -2.331647
 0.225000   3.158410   -2.358271
 0.230000   3.146553   -2.384533
 0.235000   3.134565   -2.410429
 0.240000   3.122448   -2.435959
 0.245000   3.110205   -2.461117
 0.250000   3.097837   -2.485902
 0.255000   3.085346   -2.510310
 0.260000   3.072734   -2.534341
 0.265000   3.060003   -2.557990
 0.270000   3.047154   -2.581255
 0.275000   3.034190   -2.604135
 0.280000   3.021113   -2.626626
 0.285000   3.007924   -2.648728
 0.290000   2.994626   -2.670438
 0.295000   2.981220   -2.691753
 0.300000   2.967708   -2.712673
 0.305000   2.954093   -2.733196
 0.310000   2.940376   -2.753319
 0.315000   2.926560   -2.773042
 0.320000   2.912646   -2.792363
 0.325000   2.898636   -2.811281
 0.330000   2.884533   -2.829794
 0.335000   2.870338   -2.847902
 0.340000   2.856054   -2.865603
 0.345000   2.841682   -2.882896
 0.350000   2.827225   -2.899781
 0.355000   2.812684   -2.916257
 0.360000   2.798062   -2.932323
 0.365000   2.783361   -2.947978
 0.370000   2.768582   -2.963223
 0.375000   2.753729   -2.978057
 0.380000   2.738802   -2.992479
 0.385000   2.723804   -3.006490
 0.390000   2.708737   -3.020089
 0.395000   2.693603   -3.033276
 0.400000   2.678404   -3.046052
 0.405000   2.663143   -3.058416
 0.410000   2.647820   -3.070369
 0.415000   2.632439   -3.081912
 0.420000   2.617001   -3.093044
 0.425000   2.601508   -3.103766
 0.430000   2.585963   -3.114079
 0.435000   2.570368   -3.123984
 0.440000   2.554723   -3.133481
 0.445000   2.539033   -3.142572
 0.450000   2.523298   -3.151257
 0.455000   2.507520   -3.159537
 0.460000   2.491702   -3.167414
 0.465000   2.475846   -3.174888
 0.470000   2.459953   -3.181961
 0.475000   2.444026   -3.188635
 0.480000   2.428067   -3.194911
 0.485000   2.412077   -3.200791
 0.490000   2.396059   -3.206275
 0.495000   2.380015   -3.211366
 0.500000   2.363946   -3.216066
 0.505000   2.347854   -3.220377
 0.510000   2.331742   -3.224299
 0.515000   2.315611   -3.227836
 0.520000   2.299463   -3.230990
 0.525000   2.283301   -3.233762
 0.530000   2.267126   -3.236155
 0.535000   2.250940   -3.238171
 0.540000   2.234744   -3.239813
 0.545000   2.218541   -3.241082
 0.550000   2.202333   -3.241982
 0.555000   2.186122   -3.242515
 0.560000   2.169908   -3.242683
 0.565000   2.153695   -3.242490
 0.570000   2.137483   -3.241938
 0.575000   2.121275   -3.241029
 0.580000   2.105073   -3.239767
 0.585000   2.088878   -3.238155
 0.590000   2.072691   -3.236195
 0.595000   2.056516   -3.233890
 0.600000   2.040352   -3.231245
 0.605000   2.024203   -3.228261
 0.610000   2.008070   -3.224942
 0.615000   1.991954   -3.221291
 0.620000   1.975857   -3.217312
 0.625000   1.959781   -3.213007
 0.630000   1.943727   -3.208381
 0.635000   1.927697   -3.203436
 0.640000   1.911693   -3.198177
 0.645000   1.895715   -3.192607
 0.650000   1.879766   -3.186728
 0.655000   1.863848   -3.180546
 0.660000   1.847961   -3.174064
 0.665000   1.832107   -3.167285
 0.670000   1.816288   -3.160214
 0.675000   1.800505   -3.152854
 0.680000   1.784760   -3.145210
 0.685000   1.769053   -3.137285
 0.690000   1.753387   -3.129084
 0.695000   1.737762   -3.120612
 0.700000   1.722181   -3.111872
 0.705000   1.706643   -3.102870
 0.710000   1.691152   -3.093611
 0.715000   1.675707   -3.084100
 0.720000   1.660311   -3.074343
 0.725000   1.644964   -3.064346
 0.730000   1.629667   -3.054116
 0.735000   1.614423   -3.043661
 0.740000   1.599231   -3.032990
 0.745000   1.584093   -3.022112
 0.750000   1.569010   -3.011040
 0.755000   1.553982   -2.999788
 0.760000   1.539012   -2.988371
 0.765000   1.524099   -2.976812
 0.770000   1.509244   -2.965133
 0.775000   1.494447   -2.953367
 0.780000   1.479710   -2.941552
 0.785000   1.465032   -2.929737
 0.790000   1.450413   -2.917983
 0.795000   1.435852   -2.906369
 0.800000   1.421349   -2.894996
 0.805000   1.406902   -2.883993
 0.810000   1.392509   -2.873526
 0.815000   1.378167   -2.863810
 0.820000   1.363871   -2.855123
 0.825000   1.349616   -2.847824
 0.830000   1.335393   -2.842380
 0.835000   1.321192   -2.839399
 0.840000   1.306999   -2.839667
 0.845000   1.292795   -2.844208
 0.850000   1.278557   -2.854353
 0.855000   1.264252   -2.871832
 0.860000   1.249838   -2.898889
 0.865000   1.235263   -2.938437
 0.870000   1.220454   -2.994242
 0.875000   1.205320   -3.071163
 0.880000   1.189742   -3.175446
 0.885000   1.173566   -3.315065
 0.890000   1.156592   -3.500127
 0.895000   1.138565   -3.743298
 0.900000   1.119159   -4.060204
 0.905000   1.097963   -4.469699
 0.910000   1.074462   -4.993807
 0.915000   1.048024   -5.657001
 0.920000   1.017892   -6.484318
 0.925000   0.983181   -7.497604
 0.930000   0.942916   -8.709026
 0.935000   0.896091   -10.111147
 0.940000   0.841804   -11.663620
 0.945000   0.779455   -13.278501
 0.950000   0.709019   -14.809536
 0.955000   0.631359   -16.054771
 0.960000   0.548472   -16.783435
 0.965000   0.463525   -16.792103
 0.970000   0.380550   -15.978373
 0.975000   0.303741   -14.399118
 0.980000   0.236559   -12.273998
 0.985000   0.181001   -9.919922
 0.990000   0.137360   -7.647114
 0.995000   0.104530   -5.673180
 1.000000   0.080628   -3.887618
201 psinorm ni(10^20/m^3) dni/dpsiN
 0.000000   0.390281   -0.245517
 0.005000   0.389113   -0.221772
 0.010000   0.388063   -0.196866
 0.015000   0.387144   -0.170567
 0.020000   0.386358   -0.145961
 0.025000   0.385685   -0.124336
 0.030000   0.385114   -0.104626
 0.035000   0.384638   -0.086583
 0.040000   0.384249   -0.070168
 0.045000   0.383937   -0.055286
 0.050000   0.383696   -0.041510
 0.055000   0.383522   -0.029235
 0.060000   0.383403   -0.018297
 0.065000   0.383339   -0.008504
 0.070000   0.383318   -0.000122
 0.075000   0.383337   0.007266
 0.080000   0.383391   0.013630
 0.085000   0.383474   0.019109
 0.090000   0.383582   0.023771
 0.095000   0.383711   0.027579
 0.100000   0.383858   0.030637
 0.105000   0.384018   0.033062
 0.110000   0.384188   0.034845
 0.115000   0.384366   0.035927
 0.120000   0.384548   0.036360
 0.125000   0.384730   0.036200
 0.130000   0.384910   0.035484
 0.135000   0.385085   0.034255
 0.140000   0.385252   0.032520
 0.145000   0.385410   0.030322
 0.150000   0.385555   0.027709
 0.155000   0.385687   0.024701
 0.160000   0.385802   0.021322
 0.165000   0.385900   0.017594
 0.170000   0.385978   0.013554
 0.175000   0.386036   0.009228
 0.180000   0.386071   0.004635
 0.185000   0.386082   -0.000207
 0.190000   0.386069   -0.005290
 0.195000   0.386029   -0.010585
 0.200000   0.385963   -0.016011
 0.205000   0.385869   -0.021673
 0.210000   0.385746   -0.027438
 0.215000   0.385595   -0.032995
 0.220000   0.385416   -0.038404
 0.225000   0.385211   -0.043736
 0.230000   0.384979   -0.049104
 0.235000   0.384720   -0.054596
 0.240000   0.384433   -0.060402
 0.245000   0.384116   -0.066419
 0.250000   0.383769   -0.072368
 0.255000   0.383392   -0.078386
 0.260000   0.382985   -0.084636
 0.265000   0.382546   -0.091143
 0.270000   0.382073   -0.098071
 0.275000   0.381565   -0.105143
 0.280000   0.381022   -0.112106
 0.285000   0.380444   -0.119215
 0.290000   0.379830   -0.126409
 0.295000   0.379180   -0.133735
 0.300000   0.378492   -0.140993
 0.305000   0.377770   -0.147964
 0.310000   0.377013   -0.154757
 0.315000   0.376222   -0.161374
 0.320000   0.375399   -0.167830
 0.325000   0.374544   -0.173976
 0.330000   0.373659   -0.179787
 0.335000   0.372746   -0.185416
 0.340000   0.371805   -0.190941
 0.345000   0.370837   -0.196369
 0.350000   0.369841   -0.201641
 0.355000   0.368820   -0.206763
 0.360000   0.367774   -0.211738
 0.365000   0.366703   -0.216535
 0.370000   0.365608   -0.221077
 0.375000   0.364492   -0.225311
 0.380000   0.363355   -0.229203
 0.385000   0.362200   -0.232703
 0.390000   0.361028   -0.235776
 0.395000   0.359842   -0.238389
 0.400000   0.358644   -0.240519
 0.405000   0.357437   -0.242111
 0.410000   0.356223   -0.243189
 0.415000   0.355005   -0.243857
 0.420000   0.353785   -0.244152
 0.425000   0.352564   -0.244082
 0.430000   0.351344   -0.243663
 0.435000   0.350127   -0.242920
 0.440000   0.348915   -0.241865
 0.445000   0.347708   -0.240442
 0.450000   0.346510   -0.238576
 0.455000   0.345323   -0.236210
 0.460000   0.344148   -0.233272
 0.465000   0.342990   -0.229698
 0.470000   0.341851   -0.225431
 0.475000   0.340736   -0.220432
 0.480000   0.339647   -0.214730
 0.485000   0.338588   -0.208379
 0.490000   0.337563   -0.201437
 0.495000   0.336574   -0.193974
 0.500000   0.335623   -0.186081
 0.505000   0.334713   -0.177859
 0.510000   0.333845   -0.169396
 0.515000   0.333019   -0.160759
 0.520000   0.332237   -0.151999
 0.525000   0.331499   -0.143179
 0.530000   0.330805   -0.134359
 0.535000   0.330156   -0.125456
 0.540000   0.329551   -0.116390
 0.545000   0.328992   -0.107165
 0.550000   0.328479   -0.097749
 0.555000   0.328014   -0.088122
 0.560000   0.327598   -0.078303
 0.565000   0.327231   -0.068372
 0.570000   0.326914   -0.058412
 0.575000   0.326647   -0.048465
 0.580000   0.326430   -0.038564
 0.585000   0.326261   -0.028745
 0.590000   0.326142   -0.019043
 0.595000   0.326071   -0.009455
 0.600000   0.326048   0.000031
 0.605000   0.326071   0.009389
 0.610000   0.326141   0.018591
 0.615000   0.326257   0.027618
 0.620000   0.326418   0.036497
 0.625000   0.326622   0.045165
 0.630000   0.326869   0.053517
 0.635000   0.327157   0.061540
 0.640000   0.327485   0.069212
 0.645000   0.327849   0.076565
 0.650000   0.328250   0.084061
 0.655000   0.328690   0.092593
 0.660000   0.329176   0.102779
 0.665000   0.329718   0.114790
 0.670000   0.330324   0.128598
 0.675000   0.331004   0.143966
 0.680000   0.331764   0.161709
 0.685000   0.332621   0.180500
 0.690000   0.333569   0.197793
 0.695000   0.334599   0.213427
 0.700000   0.335703   0.227143
 0.705000   0.336870   0.238313
 0.710000   0.338086   0.246769
 0.715000   0.339338   0.251266
 0.720000   0.340599   0.250682
 0.725000   0.341845   0.245662
 0.730000   0.343055   0.236671
 0.735000   0.344211   0.223990
 0.740000   0.345295   0.207446
 0.745000   0.346286   0.187476
 0.750000   0.347170   0.166143
 0.755000   0.347947   0.144709
 0.760000   0.348617   0.123501
 0.765000   0.349182   0.103125
 0.770000   0.349648   0.083744
 0.775000   0.350020   0.066005
 0.780000   0.350309   0.051111
 0.785000   0.350531   0.038938
 0.790000   0.350698   0.028788
 0.795000   0.350819   0.020362
 0.800000   0.350902   0.013287
 0.805000   0.350952   0.007201
 0.810000   0.350974   0.002115
 0.815000   0.350973   -0.001601
 0.820000   0.350958   -0.003536
 0.825000   0.350937   -0.003263
 0.830000   0.350925   -0.000312
 0.835000   0.350934   0.005839
 0.840000   0.350983   0.015798
 0.845000   0.351092   0.030236
 0.850000   0.351286   0.049904
 0.855000   0.351591   0.075603
 0.860000   0.352042   0.108098
 0.865000   0.352672   0.148101
 0.870000   0.353523   0.195720
 0.875000   0.354630   0.250507
 0.880000   0.356028   0.311407
 0.885000   0.357744   0.375766
 0.890000   0.359785   0.438502
 0.895000   0.362129   0.491518
 0.900000   0.364701   0.520707
 0.905000   0.367336   0.504890
 0.910000   0.369749   0.414875
 0.915000   0.371484   0.211178
 0.920000   0.371861   -0.153497
 0.925000   0.369949   -0.717863
 0.930000   0.364683   -1.509659
 0.935000   0.354853   -2.516950
 0.940000   0.339513   -3.645078
 0.945000   0.318402   -4.715970
 0.950000   0.292353   -5.502166
 0.955000   0.263380   -5.793314
 0.960000   0.234420   -5.581629
 0.965000   0.207564   -5.048839
 0.970000   0.183932   -4.398748
 0.975000   0.163577   -3.797421
 0.980000   0.145958   -3.305816
 0.985000   0.130519   -2.903815
 0.990000   0.116920   -2.551944
 0.995000   0.104999   -2.223584
 1.000000   0.094684   -1.902567
201 psinorm ti(KeV) dti/dpsiN
 0.000000   4.631486   0.005088
 0.005000   4.631063   -0.174350
 0.010000   4.629743   -0.361457
 0.015000   4.627448   -0.563523
 0.020000   4.624107   -0.779563
 0.025000   4.619653   -1.008085
 0.030000   4.614027   -1.247079
 0.035000   4.607182   -1.494107
 0.040000   4.599085   -1.744975
 0.045000   4.589732   -1.997106
 0.050000   4.579114   -2.249017
 0.055000   4.567242   -2.497585
 0.060000   4.554139   -2.740480
 0.065000   4.539837   -2.976061
 0.070000   4.524378   -3.200767
 0.075000   4.507830   -3.416193
 0.080000   4.490216   -3.625619
 0.085000   4.471573   -3.827382
 0.090000   4.451942   -4.021341
 0.095000   4.431360   -4.208117
 0.100000   4.409861   -4.386814
 0.105000   4.387492   -4.558544
 0.110000   4.364276   -4.724974
 0.115000   4.340242   -4.884977
 0.120000   4.315426   -5.038023
 0.125000   4.289862   -5.183745
 0.130000   4.263588   -5.320355
 0.135000   4.236658   -5.446528
 0.140000   4.209123   -5.562868
 0.145000   4.181030   -5.669382
 0.150000   4.152429   -5.765529
 0.155000   4.123374   -5.851076
 0.160000   4.093919   -5.924796
 0.165000   4.064126   -5.986234
 0.170000   4.034056   -6.037442
 0.175000   4.003752   -6.079473
 0.180000   3.973261   -6.112870
 0.185000   3.942623   -6.139676
 0.190000   3.911865   -6.162666
 0.195000   3.880997   -6.185109
 0.200000   3.850014   -6.206835
 0.205000   3.818928   -6.225856
 0.210000   3.787755   -6.241992
 0.215000   3.756508   -6.255227
 0.220000   3.725203   -6.266432
 0.225000   3.693844   -6.277193
 0.230000   3.662431   -6.283622
 0.235000   3.631008   -6.283257
 0.240000   3.599598   -6.277744
 0.245000   3.568230   -6.265994
 0.250000   3.536938   -6.247086
 0.255000   3.505759   -6.220336
 0.260000   3.474735   -6.181000
 0.265000   3.443949   -6.127525
 0.270000   3.413460   -6.062719
 0.275000   3.383322   -5.986686
 0.280000   3.353593   -5.899563
 0.285000   3.324327   -5.799265
 0.290000   3.295600   -5.688497
 0.295000   3.267442   -5.572579
 0.300000   3.239874   -5.453121
 0.305000   3.212910   -5.332118
 0.310000   3.186553   -5.211077
 0.315000   3.160800   -5.089651
 0.320000   3.135657   -4.971202
 0.325000   3.111088   -4.858030
 0.330000   3.087076   -4.748238
 0.335000   3.063605   -4.642104
 0.340000   3.040655   -4.539864
 0.345000   3.018207   -4.442915
 0.350000   2.996226   -4.351076
 0.355000   2.974696   -4.262357
 0.360000   2.953603   -4.175455
 0.365000   2.932941   -4.088633
 0.370000   2.912716   -4.000041
 0.375000   2.892941   -3.907614
 0.380000   2.873640   -3.809892
 0.385000   2.854842   -3.708291
 0.390000   2.836557   -3.605315
 0.395000   2.818789   -3.502584
 0.400000   2.801531   -3.401722
 0.405000   2.784772   -3.302721
 0.410000   2.768504   -3.207498
 0.415000   2.752697   -3.118609
 0.420000   2.737318   -3.035141
 0.425000   2.722345   -2.956441
 0.430000   2.707754   -2.882709
 0.435000   2.693518   -2.813515
 0.440000   2.679619   -2.749801
 0.445000   2.666020   -2.693153
 0.450000   2.652687   -2.643036
 0.455000   2.639590   -2.598793
 0.460000   2.626699   -2.560379
 0.465000   2.613986   -2.528019
 0.470000   2.601419   -2.501370
 0.475000   2.588972   -2.478024
 0.480000   2.576639   -2.456128
 0.485000   2.564411   -2.435762
 0.490000   2.552281   -2.417270
 0.495000   2.540238   -2.401125
 0.500000   2.528270   -2.387603
 0.505000   2.516362   -2.376719
 0.510000   2.504503   -2.368370
 0.515000   2.492679   -2.362399
 0.520000   2.480879   -2.358673
 0.525000   2.469092   -2.357046
 0.530000   2.457308   -2.357374
 0.535000   2.445518   -2.359538
 0.540000   2.433713   -2.363390
 0.545000   2.421884   -2.368752
 0.550000   2.410025   -2.375471
 0.555000   2.398130   -2.383390
 0.560000   2.386191   -2.392377
 0.565000   2.374206   -2.402267
 0.570000   2.362169   -2.413003
 0.575000   2.350076   -2.424760
 0.580000   2.337921   -2.437788
 0.585000   2.325698   -2.452364
 0.590000   2.313397   -2.469442
 0.595000   2.301003   -2.488391
 0.600000   2.288514   -2.508087
 0.605000   2.275923   -2.528690
 0.610000   2.263227   -2.549917
 0.615000   2.250423   -2.571470
 0.620000   2.237512   -2.594237
 0.625000   2.224481   -2.616641
 0.630000   2.211346   -2.637300
 0.635000   2.198108   -2.657764
 0.640000   2.184768   -2.678522
 0.645000   2.171323   -2.699853
 0.650000   2.157769   -2.723510
 0.655000   2.144088   -2.747701
 0.660000   2.130292   -2.769055
 0.665000   2.116397   -2.787119
 0.670000   2.102421   -2.800739
 0.675000   2.088390   -2.808817
 0.680000   2.074333   -2.810045
 0.685000   2.060289   -2.804533
 0.690000   2.046288   -2.794681
 0.695000   2.032343   -2.782100
 0.700000   2.018467   -2.767177
 0.705000   2.004671   -2.750338
 0.710000   1.990963   -2.730801
 0.715000   1.977363   -2.709628
 0.720000   1.963867   -2.689385
 0.725000   1.950469   -2.670365
 0.730000   1.937163   -2.653088
 0.735000   1.923938   -2.639222
 0.740000   1.910771   -2.631617
 0.745000   1.897622   -2.633880
 0.750000   1.884432   -2.644935
 0.755000   1.871173   -2.660946
 0.760000   1.857823   -2.680024
 0.765000   1.844372   -2.700722
 0.770000   1.830816   -2.723075
 0.775000   1.817142   -2.746340
 0.780000   1.803352   -2.767487
 0.785000   1.789467   -2.786522
 0.790000   1.775487   -2.805800
 0.795000   1.761409   -2.827045
 0.800000   1.747217   -2.853602
 0.805000   1.732873   -2.889661
 0.810000   1.718320   -2.932929
 0.815000   1.703543   -2.979977
 0.820000   1.688520   -3.030958
 0.825000   1.673234   -3.085116
 0.830000   1.657669   -3.143588
 0.835000   1.641798   -3.213548
 0.840000   1.625534   -3.298126
 0.845000   1.608817   -3.397551
 0.850000   1.591558   -3.514646
 0.855000   1.573670   -3.649098
 0.860000   1.555067   -3.802214
 0.865000   1.535648   -3.984987
 0.870000   1.515217   -4.185037
 0.875000   1.493798   -4.391014
 0.880000   1.471307   -4.615127
 0.885000   1.447646   -4.861412
 0.890000   1.422693   -5.135898
 0.895000   1.396287   -5.468277
 0.900000   1.368010   -5.840940
 0.905000   1.337878   -6.231485
 0.910000   1.305695   -6.660575
 0.915000   1.271272   -7.125256
 0.920000   1.234443   -7.618525
 0.925000   1.195087   -8.162487
 0.930000   1.152818   -8.711649
 0.935000   1.107971   -9.211203
 0.940000   1.060706   -9.669907
 0.945000   1.011271   -10.066809
 0.950000   0.960038   -10.377133
 0.955000   0.907500   -10.588216
 0.960000   0.854156   -10.662627
 0.965000   0.800874   -10.571132
 0.970000   0.748444   -10.320734
 0.975000   0.697667   -9.911041
 0.980000   0.649334   -9.348574
 0.985000   0.604181   -8.637811
 0.990000   0.562956   -7.808871
 0.995000   0.526092   -6.916683
 1.000000   0.493789   -6.004555
201 psinorm nb(10^20/m^3) dnb/dpsiN
 0.000000   0.051827   0.001585
 0.005000   0.051792   -0.015689
 0.010000   0.051670   -0.034033
 0.015000   0.051451   -0.053603
 0.020000   0.051134   -0.071349
 0.025000   0.050738   -0.086025
 0.030000   0.050274   -0.098753
 0.035000   0.049750   -0.109832
 0.040000   0.049175   -0.119386
 0.045000   0.048556   -0.127551
 0.050000   0.047900   -0.134769
 0.055000   0.047209   -0.140690
 0.060000   0.046493   -0.145509
 0.065000   0.045754   -0.149438
 0.070000   0.044999   -0.152246
 0.075000   0.044231   -0.154314
 0.080000   0.043455   -0.155568
 0.085000   0.042675   -0.156171
 0.090000   0.041894   -0.156199
 0.095000   0.041113   -0.155609
 0.100000   0.040338   -0.154502
 0.105000   0.039568   -0.152981
 0.110000   0.038808   -0.151057
 0.115000   0.038058   -0.148702
 0.120000   0.037321   -0.145981
 0.125000   0.036598   -0.142957
 0.130000   0.035891   -0.139670
 0.135000   0.035201   -0.136167
 0.140000   0.034530   -0.132468
 0.145000   0.033877   -0.128622
 0.150000   0.033243   -0.124680
 0.155000   0.032630   -0.120667
 0.160000   0.032037   -0.116608
 0.165000   0.031464   -0.112528
 0.170000   0.030911   -0.108458
 0.175000   0.030379   -0.104420
 0.180000   0.029867   -0.100435
 0.185000   0.029375   -0.096519
 0.190000   0.028902   -0.092680
 0.195000   0.028448   -0.088934
 0.200000   0.028013   -0.085293
 0.205000   0.027595   -0.081581
 0.210000   0.027197   -0.077896
 0.215000   0.026816   -0.074527
 0.220000   0.026452   -0.071385
 0.225000   0.026102   -0.068374
 0.230000   0.025768   -0.065498
 0.235000   0.025447   -0.062770
 0.240000   0.025140   -0.059987
 0.245000   0.024847   -0.057276
 0.250000   0.024567   -0.054927
 0.255000   0.024298   -0.052798
 0.260000   0.024039   -0.050799
 0.265000   0.023790   -0.048923
 0.270000   0.023550   -0.046938
 0.275000   0.023321   -0.045098
 0.280000   0.023099   -0.043631
 0.285000   0.022885   -0.042273
 0.290000   0.022676   -0.041017
 0.295000   0.022474   -0.039714
 0.300000   0.022279   -0.038514
 0.305000   0.022089   -0.037580
 0.310000   0.021903   -0.036749
 0.315000   0.021722   -0.035983
 0.320000   0.021544   -0.035198
 0.325000   0.021370   -0.034524
 0.330000   0.021198   -0.034040
 0.335000   0.021029   -0.033617
 0.340000   0.020862   -0.033202
 0.345000   0.020697   -0.032813
 0.350000   0.020534   -0.032521
 0.355000   0.020372   -0.032298
 0.360000   0.020211   -0.032104
 0.365000   0.020051   -0.031930
 0.370000   0.019892   -0.031804
 0.375000   0.019733   -0.031731
 0.380000   0.019575   -0.031680
 0.385000   0.019416   -0.031651
 0.390000   0.019258   -0.031644
 0.395000   0.019100   -0.031654
 0.400000   0.018941   -0.031677
 0.405000   0.018783   -0.031712
 0.410000   0.018624   -0.031754
 0.415000   0.018465   -0.031794
 0.420000   0.018306   -0.031829
 0.425000   0.018147   -0.031866
 0.430000   0.017988   -0.031903
 0.435000   0.017828   -0.031934
 0.440000   0.017668   -0.031956
 0.445000   0.017509   -0.031976
 0.450000   0.017349   -0.031992
 0.455000   0.017189   -0.032000
 0.460000   0.017029   -0.032001
 0.465000   0.016869   -0.032002
 0.470000   0.016709   -0.032000
 0.475000   0.016549   -0.031994
 0.480000   0.016389   -0.031988
 0.485000   0.016229   -0.031981
 0.490000   0.016069   -0.031967
 0.495000   0.015909   -0.031948
 0.500000   0.015749   -0.031927
 0.505000   0.015590   -0.031903
 0.510000   0.015430   -0.031869
 0.515000   0.015271   -0.031830
 0.520000   0.015112   -0.031793
 0.525000   0.014953   -0.031755
 0.530000   0.014795   -0.031711
 0.535000   0.014636   -0.031662
 0.540000   0.014478   -0.031620
 0.545000   0.014320   -0.031583
 0.550000   0.014162   -0.031545
 0.555000   0.014004   -0.031506
 0.560000   0.013847   -0.031473
 0.565000   0.013690   -0.031450
 0.570000   0.013533   -0.031431
 0.575000   0.013375   -0.031417
 0.580000   0.013218   -0.031411
 0.585000   0.013061   -0.031416
 0.590000   0.012904   -0.031428
 0.595000   0.012747   -0.031449
 0.600000   0.012590   -0.031486
 0.605000   0.012432   -0.031533
 0.610000   0.012274   -0.031584
 0.615000   0.012116   -0.031641
 0.620000   0.011958   -0.031717
 0.625000   0.011799   -0.031809
 0.630000   0.011640   -0.031902
 0.635000   0.011480   -0.031998
 0.640000   0.011320   -0.032102
 0.645000   0.011159   -0.032230
 0.650000   0.010998   -0.032370
 0.655000   0.010835   -0.032502
 0.660000   0.010673   -0.032635
 0.665000   0.010509   -0.032774
 0.670000   0.010345   -0.032940
 0.675000   0.010180   -0.033121
 0.680000   0.010014   -0.033289
 0.685000   0.009847   -0.033455
 0.690000   0.009679   -0.033625
 0.695000   0.009511   -0.033811
 0.700000   0.009341   -0.034013
 0.705000   0.009170   -0.034201
 0.710000   0.008999   -0.034372
 0.715000   0.008827   -0.034538
 0.720000   0.008654   -0.034699
 0.725000   0.008480   -0.034864
 0.730000   0.008305   -0.035024
 0.735000   0.008129   -0.035157
 0.740000   0.007953   -0.035273
 0.745000   0.007777   -0.035376
 0.750000   0.007600   -0.035465
 0.755000   0.007422   -0.035543
 0.760000   0.007244   -0.035610
 0.765000   0.007066   -0.035663
 0.770000   0.006888   -0.035700
 0.775000   0.006709   -0.035726
 0.780000   0.006530   -0.035741
 0.785000   0.006352   -0.035746
 0.790000   0.006173   -0.035739
 0.795000   0.005994   -0.035719
 0.800000   0.005816   -0.035685
 0.805000   0.005637   -0.035637
 0.810000   0.005459   -0.035575
 0.815000   0.005282   -0.035498
 0.820000   0.005104   -0.035406
 0.825000   0.004928   -0.035298
 0.830000   0.004751   -0.035179
 0.835000   0.004576   -0.035041
 0.840000   0.004401   -0.034881
 0.845000   0.004227   -0.034709
 0.850000   0.004054   -0.034527
 0.855000   0.003882   -0.034328
 0.860000   0.003711   -0.034109
 0.865000   0.003541   -0.033867
 0.870000   0.003372   -0.033612
 0.875000   0.003204   -0.033362
 0.880000   0.003038   -0.033117
 0.885000   0.002873   -0.032866
 0.890000   0.002710   -0.032591
 0.895000   0.002547   -0.032264
 0.900000   0.002387   -0.031848
 0.905000   0.002229   -0.031305
 0.910000   0.002074   -0.030602
 0.915000   0.001923   -0.029704
 0.920000   0.001777   -0.028578
 0.925000   0.001637   -0.027218
 0.930000   0.001505   -0.025697
 0.935000   0.001380   -0.024183
 0.940000   0.001263   -0.022940
 0.945000   0.001151   -0.022276
 0.950000   0.001040   -0.022415
 0.955000   0.000927   -0.023242
 0.960000   0.000808   -0.024148
 0.965000   0.000685   -0.024265
 0.970000   0.000565   -0.022979
 0.975000   0.000455   -0.020290
 0.980000   0.000362   -0.016918
 0.985000   0.000286   -0.013961
 0.990000   0.000223   -0.012204
 0.995000   0.000164   -0.011824
 1.000000   0.000104   -0.012104
201 psinorm pb(KPa) dpb/dpsiN
 0.000000   20.874892   -6.079833
 0.005000   20.829394   -12.119570
 0.010000   20.753696   -18.948869
 0.015000   20.639905   -26.738983
 0.020000   20.486307   -33.756619
 0.025000   20.302339   -39.363227
 0.030000   20.092674   -44.108045
 0.035000   19.861258   -48.199581
 0.040000   19.610678   -51.752664
 0.045000   19.343732   -54.772498
 0.050000   19.062953   -57.493318
 0.055000   18.768798   -59.721304
 0.060000   18.465740   -61.440936
 0.065000   18.154389   -62.799326
 0.070000   17.837747   -63.726002
 0.075000   17.517129   -64.307221
 0.080000   17.194675   -64.565638
 0.085000   16.871473   -64.643640
 0.090000   16.548239   -64.526136
 0.095000   16.226211   -64.172930
 0.100000   15.906509   -63.628842
 0.105000   15.589923   -62.956601
 0.110000   15.276943   -62.140409
 0.115000   14.968519   -61.131695
 0.120000   14.665626   -59.967248
 0.125000   14.368846   -58.690656
 0.130000   14.078720   -57.316981
 0.135000   13.795676   -55.863647
 0.140000   13.520083   -54.334371
 0.145000   13.252333   -52.752184
 0.150000   12.992561   -51.143200
 0.155000   12.740901   -49.512221
 0.160000   12.497439   -47.867686
 0.165000   12.262224   -46.219699
 0.170000   12.035242   -44.578978
 0.175000   11.816434   -42.955272
 0.180000   11.605690   -41.359316
 0.185000   11.402841   -39.795340
 0.190000   11.207736   -38.261606
 0.195000   11.020225   -36.763745
 0.200000   10.840099   -35.309559
 0.205000   10.667129   -33.832338
 0.210000   10.501775   -32.369963
 0.215000   10.343430   -31.031449
 0.220000   10.191461   -29.779885
 0.225000   10.045631   -28.573892
 0.230000   9.905722   -27.418097
 0.235000   9.771450   -26.329154
 0.240000   9.642430   -25.229609
 0.245000   9.519154   -24.160329
 0.250000   9.400827   -23.229390
 0.255000   9.286860   -22.383356
 0.260000   9.176993   -21.587930
 0.265000   9.070981   -20.840442
 0.270000   8.968589   -20.053653
 0.275000   8.870444   -19.320329
 0.280000   8.775386   -18.726601
 0.285000   8.683178   -18.177354
 0.290000   8.593612   -17.668139
 0.295000   8.506497   -17.142770
 0.300000   8.422185   -16.657438
 0.305000   8.339922   -16.272273
 0.310000   8.259462   -15.926510
 0.315000   8.180657   -15.605395
 0.320000   8.103408   -15.278159
 0.325000   8.027876   -14.994570
 0.330000   7.953462   -14.785868
 0.335000   7.880017   -14.603072
 0.340000   7.807431   -14.419661
 0.345000   7.735820   -14.241941
 0.350000   7.665012   -14.101088
 0.355000   7.594809   -13.986519
 0.360000   7.525147   -13.883434
 0.365000   7.455975   -13.788246
 0.370000   7.387264   -13.712041
 0.375000   7.318855   -13.656361
 0.380000   7.250701   -13.609458
 0.385000   7.182760   -13.572095
 0.390000   7.114980   -13.547359
 0.395000   7.047286   -13.530109
 0.400000   6.979679   -13.513463
 0.405000   6.912152   -13.499953
 0.410000   6.844679   -13.488646
 0.415000   6.777265   -13.475160
 0.420000   6.709928   -13.459578
 0.425000   6.642670   -13.444206
 0.430000   6.575486   -13.429349
 0.435000   6.508376   -13.411776
 0.440000   6.441368   -13.391094
 0.445000   6.374465   -13.370073
 0.450000   6.307667   -13.349121
 0.455000   6.240974   -13.321926
 0.460000   6.174448   -13.290161
 0.465000   6.108072   -13.263502
 0.470000   6.041813   -13.241570
 0.475000   5.975657   -13.220264
 0.480000   5.909610   -13.198538
 0.485000   5.843671   -13.177103
 0.490000   5.777839   -13.158013
 0.495000   5.712091   -13.137908
 0.500000   5.646460   -13.113997
 0.505000   5.580951   -13.089036
 0.510000   5.515570   -13.064015
 0.515000   5.450311   -13.036624
 0.520000   5.385203   -13.008042
 0.525000   5.320231   -12.981977
 0.530000   5.255384   -12.958220
 0.535000   5.190648   -12.930860
 0.540000   5.126075   -12.899074
 0.545000   5.061658   -12.868184
 0.550000   4.997393   -12.838122
 0.555000   4.933276   -12.809457
 0.560000   4.869299   -12.781506
 0.565000   4.805461   -12.754746
 0.570000   4.741751   -12.730455
 0.575000   4.678157   -12.707287
 0.580000   4.614678   -12.686351
 0.585000   4.551293   -12.666979
 0.590000   4.488009   -12.648156
 0.595000   4.424812   -12.635384
 0.600000   4.361655   -12.627033
 0.605000   4.298541   -12.617258
 0.610000   4.235482   -12.607535
 0.615000   4.172466   -12.599755
 0.620000   4.109485   -12.599114
 0.625000   4.046475   -12.603370
 0.630000   3.983451   -12.604743
 0.635000   3.920428   -12.605143
 0.640000   3.857399   -12.606483
 0.645000   3.794363   -12.616325
 0.650000   3.731236   -12.628842
 0.655000   3.668074   -12.634843
 0.660000   3.604888   -12.639967
 0.665000   3.541675   -12.645354
 0.670000   3.478434   -12.659365
 0.675000   3.415081   -12.677633
 0.680000   3.351658   -12.689421
 0.685000   3.288187   -12.699191
 0.690000   3.224666   -12.709414
 0.695000   3.161093   -12.724057
 0.700000   3.097425   -12.742938
 0.705000   3.033663   -12.755590
 0.710000   2.969869   -12.760984
 0.715000   2.906053   -12.764034
 0.720000   2.842229   -12.763818
 0.725000   2.778415   -12.764430
 0.730000   2.714585   -12.762150
 0.735000   2.650794   -12.749695
 0.740000   2.587088   -12.730076
 0.745000   2.523493   -12.705015
 0.750000   2.460038   -12.674027
 0.755000   2.396753   -12.637941
 0.760000   2.333658   -12.597179
 0.765000   2.270781   -12.551636
 0.770000   2.208142   -12.501858
 0.775000   2.145762   -12.448175
 0.780000   2.083660   -12.391083
 0.785000   2.021851   -12.330890
 0.790000   1.960351   -12.267575
 0.795000   1.899176   -12.200383
 0.800000   1.838347   -12.129527
 0.805000   1.777880   -12.054763
 0.810000   1.717800   -11.975981
 0.815000   1.658121   -11.893801
 0.820000   1.598862   -11.807720
 0.825000   1.540043   -11.718346
 0.830000   1.481678   -11.626635
 0.835000   1.423777   -11.530891
 0.840000   1.366369   -11.430134
 0.845000   1.309476   -11.327231
 0.850000   1.253097   -11.222954
 0.855000   1.197246   -11.115048
 0.860000   1.141947   -11.002030
 0.865000   1.087226   -10.883800
 0.870000   1.033109   -10.762591
 0.875000   0.979600   -10.641456
 0.880000   0.926694   -10.519844
 0.885000   0.874402   -10.394176
 0.890000   0.822752   -10.260258
 0.895000   0.771799   -10.110575
 0.900000   0.721647   -9.934573
 0.905000   0.672453   -9.722585
 0.910000   0.624421   -9.465471
 0.915000   0.577799   -9.153754
 0.920000   0.532883   -8.778166
 0.925000   0.490017   -8.336489
 0.930000   0.449518   -7.845338
 0.935000   0.411564   -7.346245
 0.940000   0.376056   -6.905669
 0.945000   0.342507   -6.605544
 0.950000   0.310000   -6.512613
 0.955000   0.277381   -6.620093
 0.960000   0.243800   -6.809246
 0.965000   0.209288   -6.887438
 0.970000   0.174925   -6.678988
 0.975000   0.142498   -6.122886
 0.980000   0.113696   -5.313341
 0.985000   0.089365   -4.439313
 0.990000   0.069303   -3.721696
 0.995000   0.052148   -3.376470
 1.000000   0.035538   -3.267355
201 psinorm ptot(KPa) dptot/dpsiN
 0.000000   94.333848   -48.086175
 0.005000   94.078422   -54.084041
 0.010000   93.793007   -60.834026
 0.015000   93.470082   -68.536820
 0.020000   93.107639   -75.681949
 0.025000   92.713262   -81.716647
 0.030000   92.290473   -87.097539
 0.035000   91.842287   -91.998408
 0.040000   91.370488   -96.502185
 0.045000   90.877265   -100.589538
 0.050000   90.364593   -104.453877
 0.055000   89.832726   -107.908736
 0.060000   89.285506   -110.910574
 0.065000   88.723621   -113.581078
 0.070000   88.149695   -115.844034
 0.075000   87.565180   -117.766693
 0.080000   86.972028   -119.396501
 0.085000   86.371215   -120.853664
 0.090000   85.763491   -122.116584
 0.095000   85.150049   -123.151370
 0.100000   84.531978   -123.988483
 0.105000   83.910165   -124.689586
 0.110000   83.285082   -125.249786
 0.115000   82.657667   -125.615799
 0.120000   82.028924   -125.815951
 0.125000   81.399507   -125.886311
 0.130000   80.770061   -125.826101
 0.135000   80.141246   -125.639712
 0.140000   79.513664   -125.333324
 0.145000   78.887913   -124.926221
 0.150000   78.264401   -124.436653
 0.155000   77.643546   -123.865514
 0.160000   77.025746   -123.210541
 0.165000   76.411441   -122.476364
 0.170000   75.800983   -121.684947
 0.175000   75.194592   -120.851115
 0.180000   74.592471   -119.987563
 0.185000   73.994716   -119.111031
 0.190000   73.401361   -118.237967
 0.195000   72.812336   -117.394481
 0.200000   72.227416   -116.582527
 0.205000   71.646511   -115.728644
 0.210000   71.070130   -114.861402
 0.215000   70.497897   -114.070996
 0.220000   69.929420   -113.330883
 0.225000   69.364588   -112.615280
 0.230000   68.803267   -111.907801
 0.235000   68.245510   -111.212373
 0.240000   67.691143   -110.473846
 0.245000   67.140772   -109.719265
 0.250000   66.593951   -109.034353
 0.255000   66.050428   -108.369121
 0.260000   65.510260   -107.665701
 0.265000   64.973771   -106.912133
 0.270000   64.441138   -106.050005
 0.275000   63.913271   -105.158150
 0.280000   63.389557   -104.310532
 0.285000   62.870166   -103.412647
 0.290000   62.355430   -102.476276
 0.295000   61.845403   -101.485166
 0.300000   61.340579   -100.496925
 0.305000   60.840434   -99.574913
 0.310000   60.344829   -98.675360
 0.315000   59.853680   -97.782333
 0.320000   59.367006   -96.889356
 0.325000   58.884787   -96.054785
 0.330000   58.406458   -95.295923
 0.335000   57.931827   -94.573500
 0.340000   57.460723   -93.866424
 0.345000   56.993163   -93.190567
 0.350000   56.528818   -92.572971
 0.355000   56.067433   -91.990573
 0.360000   55.608912   -91.420619
 0.365000   55.153227   -90.847284
 0.370000   54.700439   -90.266830
 0.375000   54.250559   -89.665786
 0.380000   53.803781   -89.022766
 0.385000   53.360331   -88.346586
 0.390000   52.920315   -87.656064
 0.395000   52.483771   -86.955981
 0.400000   52.050756   -86.249542
 0.405000   51.621275   -85.537714
 0.410000   51.195378   -84.833033
 0.415000   50.772945   -84.151523
 0.420000   50.353863   -83.488839
 0.425000   49.938056   -82.843298
 0.430000   49.525430   -82.216983
 0.435000   49.115887   -81.604898
 0.440000   48.709381   -81.012875
 0.445000   48.305758   -80.451404
 0.450000   47.904867   -79.914669
 0.455000   47.506611   -79.390144
 0.460000   47.110966   -78.876569
 0.465000   46.717846   -78.382758
 0.470000   46.327138   -77.904255
 0.475000   45.938803   -77.420863
 0.480000   45.552929   -76.921430
 0.485000   45.169589   -76.409367
 0.490000   44.788836   -75.891151
 0.495000   44.410677   -75.368891
 0.500000   44.035147   -74.844706
 0.505000   43.662230   -74.324975
 0.510000   43.291897   -73.813066
 0.515000   42.924099   -73.307961
 0.520000   42.558818   -72.811703
 0.525000   42.195982   -72.329228
 0.530000   41.835525   -71.861376
 0.535000   41.477369   -71.398865
 0.540000   41.121537   -70.937286
 0.545000   40.767996   -70.481155
 0.550000   40.416725   -70.028579
 0.555000   40.067710   -69.578780
 0.560000   39.720937   -69.130967
 0.565000   39.376400   -68.687351
 0.570000   39.034064   -68.251630
 0.575000   38.693884   -67.824897
 0.580000   38.355815   -67.410833
 0.585000   38.019776   -67.011538
 0.590000   37.685699   -66.632731
 0.595000   37.353448   -66.276114
 0.600000   37.022938   -65.933047
 0.605000   36.694118   -65.599524
 0.610000   36.366943   -65.276270
 0.615000   36.041355   -64.963978
 0.620000   35.717303   -64.672190
 0.625000   35.394633   -64.391359
 0.630000   35.073390   -64.108682
 0.635000   34.753547   -63.835479
 0.640000   34.435035   -63.577043
 0.645000   34.117776   -63.341421
 0.650000   33.801621   -63.119840
 0.655000   33.486578   -62.867477
 0.660000   33.172946   -62.553315
 0.665000   32.861045   -62.172278
 0.670000   32.551223   -61.728046
 0.675000   32.243764   -61.217648
 0.680000   31.939047   -60.601560
 0.685000   31.637748   -59.922486
 0.690000   31.339822   -59.267197
 0.695000   31.045076   -58.652227
 0.700000   30.753299   -58.085247
 0.705000   30.464224   -57.573658
 0.710000   30.177563   -57.114132
 0.715000   29.893083   -56.748417
 0.720000   29.610079   -56.517431
 0.725000   29.327908   -56.406646
 0.730000   29.046012   -56.400361
 0.735000   28.763905   -56.491628
 0.740000   28.481096   -56.702584
 0.745000   28.196879   -57.043408
 0.750000   27.910662   -57.453082
 0.755000   27.622348   -57.876494
 0.760000   27.331897   -58.293976
 0.765000   27.039408   -58.681325
 0.770000   26.745084   -59.035122
 0.775000   26.449057   -59.335375
 0.780000   26.151730   -59.535215
 0.785000   25.853705   -59.638590
 0.790000   25.555344   -59.676945
 0.795000   25.256936   -59.666723
 0.800000   24.958677   -59.636460
 0.805000   24.660571   -59.618356
 0.810000   24.362493   -59.595772
 0.815000   24.064613   -59.537245
 0.820000   23.767121   -59.431240
 0.825000   23.470301   -59.261400
 0.830000   23.174507   -59.022653
 0.835000   22.880074   -58.743641
 0.840000   22.587070   -58.428314
 0.845000   22.295791   -58.067331
 0.850000   22.006397   -57.666961
 0.855000   21.719122   -57.215744
 0.860000   21.434240   -56.722010
 0.865000   21.151901   -56.268668
 0.870000   20.871553   -55.828029
 0.875000   20.593621   -55.416301
 0.880000   20.317390   -55.239433
 0.885000   20.041227   -55.533352
 0.890000   19.762056   -56.662980
 0.895000   19.474597   -59.289542
 0.900000   19.169161   -64.001080
 0.905000   18.834586   -71.611893
 0.910000   18.453042   -83.466623
 0.915000   17.999920   -100.992520
 0.920000   17.443117   -125.604211
 0.925000   16.743878   -158.327039
 0.930000   15.859847   -198.650642
 0.935000   14.757371   -243.887773
 0.940000   13.420969   -288.661439
 0.945000   11.870757   -324.767454
 0.950000   10.173294   -343.409317
 0.955000   8.436664   -338.563521
 0.960000   6.787659   -310.884269
 0.965000   5.327821   -267.421921
 0.970000   4.113440   -217.559003
 0.975000   3.152231   -169.567232
 0.980000   2.417767   -128.341675
 0.985000   1.868814   -95.452976
 0.990000   1.463238   -70.513359
 0.995000   1.163681   -52.343721
 1.000000   0.939801   -37.208413
201 psinorm omeg(kRad/s) domeg/dpsiN
 0.000000   83.679662   0.011468
 0.005000   83.679168   -0.209098
 0.010000   83.677571   -0.447577
 0.015000   83.674692   -0.722732
 0.020000   83.670343   -1.035625
 0.025000   83.664335   -1.386129
 0.030000   83.656482   -1.773003
 0.035000   83.646605   -2.193872
 0.040000   83.634543   -2.642667
 0.045000   83.620179   -3.115558
 0.050000   83.603388   -3.610683
 0.055000   83.584072   -4.123349
 0.060000   83.562154   -4.650230
 0.065000   83.537570   -5.189651
 0.070000   83.510258   -5.736775
 0.075000   83.480202   -6.295151
 0.080000   83.447306   -6.868950
 0.085000   83.411512   -7.452860
 0.090000   83.372778   -8.045633
 0.095000   83.331056   -8.648362
 0.100000   83.286294   -9.259182
 0.105000   83.238464   -9.886026
 0.110000   83.187434   -10.543347
 0.115000   83.133031   -11.239814
 0.120000   83.075036   -11.985541
 0.125000   83.013175   -12.789025
 0.130000   82.947145   -13.659380
 0.135000   82.876582   -14.593477
 0.140000   82.801211   -15.577423
 0.145000   82.720807   -16.611203
 0.150000   82.635099   -17.699569
 0.155000   82.543812   -18.841778
 0.160000   82.446681   -20.044410
 0.165000   82.343368   -21.302045
 0.170000   82.233660   -22.589306
 0.175000   82.117474   -23.900147
 0.180000   81.994659   -25.239354
 0.185000   81.865081   -26.602964
 0.190000   81.728629   -27.987136
 0.195000   81.585210   -29.364078
 0.200000   81.434988   -30.691035
 0.205000   81.278299   -31.947244
 0.210000   81.115516   -33.120579
 0.215000   80.947093   -34.196087
 0.220000   80.773555   -35.142701
 0.225000   80.595666   -35.909295
 0.230000   80.414462   -36.558524
 0.235000   80.230081   -37.146457
 0.240000   80.042998   -37.641352
 0.245000   79.853668   -38.045609
 0.250000   79.662541   -38.341515
 0.255000   79.470253   -38.472652
 0.260000   79.277815   -38.558489
 0.265000   79.084668   -38.692629
 0.270000   78.890889   -38.824335
 0.275000   78.696424   -38.980660
 0.280000   78.501082   -39.187324
 0.285000   78.304551   -39.468232
 0.290000   78.106400   -39.888866
 0.295000   77.905662   -40.437969
 0.300000   77.702020   -41.043156
 0.305000   77.495231   -41.692039
 0.310000   77.285100   -42.379029
 0.315000   77.071441   -43.131814
 0.320000   76.853782   -43.936588
 0.325000   76.632075   -44.762166
 0.330000   76.406160   -45.618315
 0.335000   76.175892   -46.501041
 0.340000   75.941149   -47.404607
 0.345000   75.701845   -48.360366
 0.350000   75.457546   -49.323294
 0.355000   75.208612   -50.231145
 0.360000   74.955234   -51.092961
 0.365000   74.697683   -51.884792
 0.370000   74.436386   -52.574226
 0.375000   74.171941   -53.112007
 0.380000   73.905266   -53.454195
 0.385000   73.637399   -53.625254
 0.390000   73.369014   -53.701198
 0.395000   73.100387   -53.774430
 0.400000   72.831270   -53.955456
 0.405000   72.560832   -54.408781
 0.410000   72.287182   -55.243951
 0.415000   72.008393   -56.384223
 0.420000   71.723339   -57.748848
 0.425000   71.430904   -59.323687
 0.430000   71.130103   -61.080564
 0.435000   70.820099   -63.116848
 0.440000   70.498934   -65.373494
 0.445000   70.166364   -67.557410
 0.450000   69.823360   -69.615079
 0.455000   69.470213   -71.589261
 0.460000   69.107467   -73.428511
 0.465000   68.735928   -75.151167
 0.470000   68.355956   -76.633276
 0.475000   67.969595   -77.594611
 0.480000   67.580010   -78.043152
 0.485000   67.189163   -78.143347
 0.490000   66.798576   -77.989378
 0.495000   66.409270   -77.679958
 0.500000   66.021777   -77.275463
 0.505000   65.636515   -76.781032
 0.510000   65.253966   -76.202412
 0.515000   64.874491   -75.555290
 0.520000   64.498413   -74.846986
 0.525000   64.126021   -74.087970
 0.530000   63.757534   -73.293034
 0.535000   63.393091   -72.462594
 0.540000   63.032908   -71.600429
 0.545000   62.677086   -70.722484
 0.550000   62.325683   -69.837810
 0.555000   61.978708   -68.958540
 0.560000   61.636098   -68.109710
 0.565000   61.297611   -67.276554
 0.570000   60.963332   -66.429706
 0.575000   60.633314   -65.564774
 0.580000   60.307684   -64.672481
 0.585000   59.986589   -63.753035
 0.590000   59.670154   -62.786926
 0.595000   59.358720   -61.809446
 0.600000   59.052059   -60.875725
 0.605000   58.749963   -59.992455
 0.610000   58.452135   -59.176134
 0.615000   58.158201   -58.441982
 0.620000   57.867715   -57.759735
 0.625000   57.580604   -57.198257
 0.630000   57.295732   -56.842933
 0.635000   57.012175   -56.694044
 0.640000   56.728792   -56.793343
 0.645000   56.444241   -57.178741
 0.650000   56.157005   -57.947301
 0.655000   55.864768   -59.098789
 0.660000   55.566017   -60.488509
 0.665000   55.259883   -61.993671
 0.670000   54.946080   -63.500880
 0.675000   54.624874   -64.908012
 0.680000   54.297000   -66.107443
 0.685000   53.963800   -67.106686
 0.690000   53.625933   -68.056828
 0.695000   53.283232   -69.041769
 0.700000   52.935515   -70.066582
 0.705000   52.582566   -71.135518
 0.710000   52.224160   -72.224295
 0.715000   51.860323   -73.369704
 0.720000   51.490463   -74.629198
 0.725000   51.114031   -76.002057
 0.730000   50.730443   -77.547450
 0.735000   50.338556   -79.400807
 0.740000   49.936434   -81.910251
 0.745000   49.519454   -85.419592
 0.750000   49.082239   -89.677446
 0.755000   48.622679   -94.314828
 0.760000   48.139090   -99.181277
 0.765000   47.630867   -104.062831
 0.770000   47.098462   -108.940999
 0.775000   46.541457   -113.619897
 0.780000   45.962263   -117.449290
 0.785000   45.366964   -120.271194
 0.790000   44.759551   -122.322252
 0.795000   44.143741   -123.693425
 0.800000   43.522617   -124.677534
 0.805000   42.896966   -125.613440
 0.810000   42.266482   -126.089685
 0.815000   41.636069   -125.716670
 0.820000   41.009316   -124.584808
 0.825000   40.390221   -122.675592
 0.830000   39.782560   -120.193623
 0.835000   39.188285   -117.792551
 0.840000   38.604634   -115.732539
 0.845000   38.030959   -114.218890
 0.850000   37.462445   -113.900700
 0.855000   36.891952   -115.365996
 0.860000   36.308785   -119.564148
 0.865000   35.696311   -128.205530
 0.870000   35.026730   -141.924461
 0.875000   34.277066   -161.510146
 0.880000   33.411629   -188.669441
 0.885000   32.390372   -223.817207
 0.890000   31.173457   -266.272467
 0.895000   29.727647   -314.615938
 0.900000   28.027297   -363.808835
 0.905000   26.089559   -407.583455
 0.910000   23.951463   -440.807770
 0.915000   21.681481   -457.672620
 0.920000   19.374736   -454.004662
 0.925000   17.141435   -427.455652
 0.930000   15.100180   -381.163811
 0.935000   13.329796   -322.341321
 0.940000   11.876767   -257.833363
 0.945000   10.751463   -194.560037
 0.950000   9.931166   -138.250230
 0.955000   9.368961   -92.314403
 0.960000   9.008022   -58.808711
 0.965000   8.780873   -37.619672
 0.970000   8.631826   -26.491188
 0.975000   8.515962   -23.276150
 0.980000   8.399064   -25.855321
 0.985000   8.257408   -32.057852
 0.990000   8.078486   -40.264964
 0.995000   7.854759   -49.539693
 1.000000   7.583089   -59.128309
201 psinorm omegp(kRad/s) domegp/dpsiN
 0.000000   -0.007619   127.966847
 0.005000   0.498928   74.651967
 0.010000   0.738901   45.069303
 0.015000   0.949621   41.241017
 0.020000   1.151311   39.760918
 0.025000   1.347231   38.630364
 0.030000   1.537615   37.339106
 0.035000   1.720622   36.094141
 0.040000   1.898556   34.959189
 0.045000   2.070214   33.665253
 0.050000   2.235209   32.443541
 0.055000   2.394649   31.457242
 0.060000   2.549781   30.598578
 0.065000   2.700635   29.773171
 0.070000   2.847513   29.030983
 0.075000   2.990945   28.291643
 0.080000   3.130429   27.395147
 0.085000   3.264896   26.437771
 0.090000   3.394807   25.430038
 0.095000   3.519196   24.458900
 0.100000   3.639396   23.729562
 0.105000   3.756492   23.198491
 0.110000   3.871381   22.878771
 0.115000   3.985280   22.684841
 0.120000   4.098229   22.608829
 0.125000   4.211368   22.564285
 0.130000   4.323872   22.465307
 0.135000   4.436021   22.196776
 0.140000   4.545840   21.751629
 0.145000   4.653537   21.113748
 0.150000   4.756978   20.136516
 0.155000   4.854903   18.924187
 0.160000   4.946219   17.483284
 0.165000   5.029735   15.832522
 0.170000   5.104545   13.923104
 0.175000   5.168966   11.756704
 0.180000   5.222112   9.415090
 0.185000   5.263117   7.115496
 0.190000   5.293267   4.906542
 0.195000   5.312183   2.817988
 0.200000   5.321446   0.991086
 0.205000   5.322094   -0.712086
 0.210000   5.314326   -2.169049
 0.215000   5.300403   -3.556990
 0.220000   5.278756   -5.076618
 0.225000   5.249637   -6.637399
 0.230000   5.212382   -8.368125
 0.235000   5.165956   -10.139720
 0.240000   5.110985   -11.981235
 0.245000   5.046143   -13.920281
 0.250000   4.971782   -15.728412
 0.255000   4.888859   -17.583643
 0.260000   4.795945   -19.518736
 0.265000   4.693672   -21.445140
 0.270000   4.581494   -23.495753
 0.275000   4.458714   -25.584959
 0.280000   4.325644   -27.681385
 0.285000   4.181901   -29.881841
 0.290000   4.026826   -32.110009
 0.295000   3.860800   -34.340218
 0.300000   3.683424   -36.635168
 0.305000   3.494449   -38.864238
 0.310000   3.294781   -41.059464
 0.315000   3.083854   -43.168201
 0.320000   2.863099   -44.847726
 0.325000   2.635377   -45.971235
 0.330000   2.403387   -46.706493
 0.335000   2.168312   -47.152099
 0.340000   1.931866   -47.456194
 0.345000   1.693750   -47.878134
 0.350000   1.453085   -48.520431
 0.355000   1.208546   -49.691823
 0.360000   0.956166   -51.512773
 0.365000   0.693418   -53.839458
 0.370000   0.417772   -56.631294
 0.375000   0.127105   -59.745892
 0.380000   -0.179687   -63.002922
 0.385000   -0.502924   -65.911880
 0.390000   -0.838806   -68.430925
 0.395000   -1.187233   -71.273048
 0.400000   -1.551536   -74.949458
 0.405000   -1.936728   -79.868348
 0.410000   -2.350220   -87.099334
 0.415000   -2.807721   -95.849897
 0.420000   -3.308719   -104.726435
 0.425000   -3.854986   -113.713328
 0.430000   -4.445852   -122.408113
 0.435000   -5.079067   -130.273049
 0.440000   -5.748583   -136.651578
 0.445000   -6.445583   -139.986174
 0.450000   -7.148444   -139.422214
 0.455000   -7.839805   -135.288859
 0.460000   -8.501333   -127.686632
 0.465000   -9.116671   -116.720351
 0.470000   -9.668536   -102.435856
 0.475000   -10.141030   -86.923758
 0.480000   -10.537774   -72.284630
 0.485000   -10.863876   -58.691865
 0.490000   -11.124693   -46.496171
 0.495000   -11.328838   -36.004893
 0.500000   -11.484742   -27.779208
 0.505000   -11.606630   -22.293022
 0.510000   -11.707672   -18.864702
 0.515000   -11.795277   -16.744576
 0.520000   -11.875118   -15.221117
 0.525000   -11.947488   -13.797625
 0.530000   -12.013094   -12.348336
 0.535000   -12.070971   -10.496225
 0.540000   -12.118056   -8.095133
 0.545000   -12.151923   -5.275026
 0.550000   -12.170806   -2.196000
 0.555000   -12.173883   1.190045
 0.560000   -12.158906   4.842729
 0.565000   -12.125455   8.394529
 0.570000   -12.074961   11.663800
 0.575000   -12.008817   14.647119
 0.580000   -11.928489   17.206598
 0.585000   -11.836751   19.053984
 0.590000   -11.737950   20.335854
 0.595000   -11.633393   21.299124
 0.600000   -11.524958   21.831227
 0.605000   -11.415081   22.035962
 0.610000   -11.304599   22.148574
 0.615000   -11.193595   22.221195
 0.620000   -11.082387   22.312718
 0.625000   -10.970468   22.510704
 0.630000   -10.857280   22.752573
 0.635000   -10.742942   22.925500
 0.640000   -10.628025   22.956982
 0.645000   -10.513372   22.904065
 0.650000   -10.398984   22.823045
 0.655000   -10.285142   22.616539
 0.660000   -10.172819   22.319348
 0.665000   -10.061948   22.004015
 0.670000   -9.952779   21.672942
 0.675000   -9.845219   21.328383
 0.680000   -9.739495   20.953554
 0.685000   -9.635683   20.509550
 0.690000   -9.534399   19.952156
 0.695000   -9.436162   19.256574
 0.700000   -9.341833   18.413939
 0.705000   -9.252022   17.398891
 0.710000   -9.167845   16.152791
 0.715000   -9.090494   14.695821
 0.720000   -9.020886   13.067878
 0.725000   -8.959816   11.314362
 0.730000   -8.907743   9.449277
 0.735000   -8.865323   7.531793
 0.740000   -8.832425   5.624284
 0.745000   -8.809080   3.752590
 0.750000   -8.794899   1.944599
 0.755000   -8.789634   0.136682
 0.760000   -8.793532   -1.868500
 0.765000   -8.808319   -4.368433
 0.770000   -8.837216   -7.576098
 0.775000   -8.884080   -11.665107
 0.780000   -8.953867   -16.771938
 0.785000   -9.051799   -22.994974
 0.790000   -9.183817   -30.592299
 0.795000   -9.357722   -38.833686
 0.800000   -9.572154   -46.843484
 0.805000   -9.826157   -54.468732
 0.810000   -10.116841   -61.174278
 0.815000   -10.437900   -66.346312
 0.820000   -10.780304   -69.335771
 0.825000   -11.131258   -69.940406
 0.830000   -11.479709   -68.293778
 0.835000   -11.814195   -64.598387
 0.840000   -12.125692   -59.362826
 0.845000   -12.407824   -53.308952
 0.850000   -12.658782   -46.732204
 0.855000   -12.875146   -40.334020
 0.860000   -13.062122   -34.717768
 0.865000   -13.222323   -29.865495
 0.870000   -13.360777   -25.290578
 0.875000   -13.475229   -20.448503
 0.880000   -13.565262   -15.480532
 0.885000   -13.630034   -10.405166
 0.890000   -13.669314   -5.032127
 0.895000   -13.680356   0.967621
 0.900000   -13.659638   8.478211
 0.905000   -13.595574   19.172083
 0.910000   -13.467917   32.320002
 0.915000   -13.272374   48.323640
 0.920000   -12.984680   71.775043
 0.925000   -12.554623   103.846966
 0.930000   -11.946211   135.006233
 0.935000   -11.204561   156.099053
 0.940000   -10.385220   153.371680
 0.945000   -9.670844   106.512734
 0.950000   -9.320093   13.816175
 0.955000   -9.532682   -88.994286
 0.960000   -10.210036   -128.268735
 0.965000   -10.815370   -27.165571
 0.970000   -10.481691   233.346658
 0.975000   -8.481903   559.077808
 0.980000   -4.890913   786.914341
 0.985000   -0.612760   804.542792
 0.990000   3.154515   618.884153
 0.995000   5.576082   332.136733
 1.000000   6.475882   27.783304
201 psinorm omgvb(kRad/s) domgvb/dpsiN
 0.000000   83.672043   127.978315
 0.005000   84.178096   74.442869
 0.010000   84.416472   44.621726
 0.015000   84.624313   40.518285
 0.020000   84.821655   38.725294
 0.025000   85.011566   37.244234
 0.030000   85.194097   35.566104
 0.035000   85.367227   33.900269
 0.040000   85.533100   32.316522
 0.045000   85.690392   30.549695
 0.050000   85.838597   28.832858
 0.055000   85.978721   27.333893
 0.060000   86.111935   25.948348
 0.065000   86.238204   24.583520
 0.070000   86.357771   23.294208
 0.075000   86.471147   21.996492
 0.080000   86.577736   20.526197
 0.085000   86.676409   18.984910
 0.090000   86.767585   17.384405
 0.095000   86.850253   15.810538
 0.100000   86.925690   14.470380
 0.105000   86.994956   13.312466
 0.110000   87.058815   12.335424
 0.115000   87.118311   11.445027
 0.120000   87.173265   10.623288
 0.125000   87.224543   9.775259
 0.130000   87.271018   8.805928
 0.135000   87.312603   7.603299
 0.140000   87.347051   6.174205
 0.145000   87.374345   4.502544
 0.150000   87.392076   2.436947
 0.155000   87.398714   0.082409
 0.160000   87.392900   -2.561126
 0.165000   87.373103   -5.469523
 0.170000   87.338205   -8.666202
 0.175000   87.286441   -12.143443
 0.180000   87.216770   -15.824264
 0.185000   87.128198   -19.487468
 0.190000   87.021896   -23.080594
 0.195000   86.897392   -26.546090
 0.200000   86.756435   -29.699949
 0.205000   86.600393   -32.659330
 0.210000   86.429842   -35.289628
 0.215000   86.247497   -37.753077
 0.220000   86.052311   -40.219319
 0.225000   85.845303   -42.546693
 0.230000   85.626844   -44.926649
 0.235000   85.396037   -47.286177
 0.240000   85.153982   -49.622587
 0.245000   84.899811   -51.965890
 0.250000   84.634323   -54.069927
 0.255000   84.359112   -56.056294
 0.260000   84.073760   -58.077225
 0.265000   83.778340   -60.137769
 0.270000   83.472383   -62.320088
 0.275000   83.155139   -64.565619
 0.280000   82.826726   -66.868709
 0.285000   82.486452   -69.350073
 0.290000   82.133226   -71.998875
 0.295000   81.766463   -74.778187
 0.300000   81.385444   -77.678325
 0.305000   80.989680   -80.556277
 0.310000   80.579881   -83.438493
 0.315000   80.155295   -86.300015
 0.320000   79.716881   -88.784314
 0.325000   79.267452   -90.733401
 0.330000   78.809547   -92.324808
 0.335000   78.344203   -93.653141
 0.340000   77.873015   -94.860801
 0.345000   77.395595   -96.238500
 0.350000   76.910630   -97.843725
 0.355000   76.417158   -99.922968
 0.360000   75.911401   -102.605734
 0.365000   75.391101   -105.724250
 0.370000   74.854158   -109.205520
 0.375000   74.299046   -112.857899
 0.380000   73.725579   -116.457117
 0.385000   73.134474   -119.537134
 0.390000   72.530208   -122.132123
 0.395000   71.913153   -125.047478
 0.400000   71.279733   -128.904914
 0.405000   70.624104   -134.277129
 0.410000   69.936962   -142.343285
 0.415000   69.200671   -152.234120
 0.420000   68.414621   -162.475283
 0.425000   67.575918   -173.037014
 0.430000   66.684251   -183.488677
 0.435000   65.741032   -193.389897
 0.440000   64.750352   -202.025072
 0.445000   63.720781   -207.543584
 0.450000   62.674916   -209.037294
 0.455000   61.630408   -206.878119
 0.460000   60.606135   -201.115143
 0.465000   59.619257   -191.871517
 0.470000   58.687419   -179.069132
 0.475000   57.828565   -164.518369
 0.480000   57.042236   -150.327782
 0.485000   56.325287   -136.835212
 0.490000   55.673884   -124.485549
 0.495000   55.080432   -113.684850
 0.500000   54.537035   -105.054671
 0.505000   54.029885   -99.074053
 0.510000   53.546294   -95.067115
 0.515000   53.079214   -92.299866
 0.520000   52.623296   -90.068103
 0.525000   52.178533   -87.885595
 0.530000   51.744440   -85.641369
 0.535000   51.322119   -82.958819
 0.540000   50.914852   -79.695561
 0.545000   50.525164   -75.997509
 0.550000   50.154877   -72.033809
 0.555000   49.804826   -67.768495
 0.560000   49.477192   -63.266981
 0.565000   49.172156   -58.882025
 0.570000   48.888371   -54.765906
 0.575000   48.624497   -50.917655
 0.580000   48.379195   -47.465882
 0.585000   48.149838   -44.699050
 0.590000   47.932204   -42.451073
 0.595000   47.725327   -40.510322
 0.600000   47.527101   -39.044497
 0.605000   47.334882   -37.956494
 0.610000   47.147536   -37.027560
 0.615000   46.964607   -36.220787
 0.620000   46.785328   -35.447017
 0.625000   46.610136   -34.687554
 0.630000   46.438453   -34.090360
 0.635000   46.269233   -33.768544
 0.640000   46.100767   -33.836362
 0.645000   45.930869   -34.274676
 0.650000   45.758021   -35.124256
 0.655000   45.579627   -36.482250
 0.660000   45.393198   -38.169160
 0.665000   45.197935   -39.989656
 0.670000   44.993302   -41.827939
 0.675000   44.779656   -43.579629
 0.680000   44.557505   -45.153890
 0.685000   44.328117   -46.597136
 0.690000   44.091534   -48.104673
 0.695000   43.847070   -49.785195
 0.700000   43.593682   -51.652642
 0.705000   43.330544   -53.736627
 0.710000   43.056316   -56.071504
 0.715000   42.769829   -58.673882
 0.720000   42.469577   -61.561320
 0.725000   42.154215   -64.687695
 0.730000   41.822700   -68.098173
 0.735000   41.473234   -71.869014
 0.740000   41.104010   -76.285967
 0.745000   40.710374   -81.667002
 0.750000   40.287340   -87.732847
 0.755000   39.833046   -94.178147
 0.760000   39.345558   -101.049778
 0.765000   38.822548   -108.431264
 0.770000   38.261246   -116.517097
 0.775000   37.657377   -125.285005
 0.780000   37.008396   -134.221228
 0.785000   36.315165   -143.266169
 0.790000   35.575734   -152.914551
 0.795000   34.786019   -162.527111
 0.800000   33.950463   -171.521019
 0.805000   33.070809   -180.082172
 0.810000   32.149641   -187.263963
 0.815000   31.198169   -192.062982
 0.820000   30.229011   -193.920579
 0.825000   29.258963   -192.615998
 0.830000   28.302851   -188.487401
 0.835000   27.374089   -182.390938
 0.840000   26.478942   -175.095366
 0.845000   25.623136   -167.527842
 0.850000   24.803663   -160.632904
 0.855000   24.016807   -155.700016
 0.860000   23.246663   -154.281916
 0.865000   22.473988   -158.071025
 0.870000   21.665953   -167.215039
 0.875000   20.801837   -181.958648
 0.880000   19.846367   -204.149973
 0.885000   18.760337   -234.222374
 0.890000   17.504143   -271.304594
 0.895000   16.047291   -313.648317
 0.900000   14.367660   -355.330623
 0.905000   12.493985   -388.411372
 0.910000   10.483546   -408.487767
 0.915000   8.409108   -409.348980
 0.920000   6.390056   -382.229619
 0.925000   4.586811   -323.608686
 0.930000   3.153969   -246.157578
 0.935000   2.125236   -166.242268
 0.940000   1.491547   -104.461683
 0.945000   1.080619   -88.047303
 0.950000   0.611074   -124.434056
 0.955000   -0.163722   -181.308689
 0.960000   -1.202013   -187.077446
 0.965000   -2.034496   -64.785244
 0.970000   -1.849866   206.855470
 0.975000   0.034058   535.801658
 0.980000   3.508151   761.059021
 0.985000   7.644649   772.484940
 0.990000   11.233000   578.619188
 0.995000   13.430841   282.597039
 1.000000   14.058971   -31.345005
201 psinorm omgpp(kRad/s) domgpp/dpsiN
 0.000000   -0.039513   -19.552973
 0.005000   -0.162276   -29.552055
 0.010000   -0.335034   -35.613248
 0.015000   -0.518409   -37.643570
 0.020000   -0.711470   -39.423528
 0.025000   -0.912644   -40.832782
 0.030000   -1.119798   -41.876919
 0.035000   -1.331413   -42.531751
 0.040000   -1.545115   -42.723271
 0.045000   -1.758646   -42.466799
 0.050000   -1.969783   -41.646933
 0.055000   -2.175115   -40.268070
 0.060000   -2.372464   -39.002303
 0.065000   -2.565138   -37.790023
 0.070000   -2.750364   -36.261600
 0.075000   -2.927754   -34.677257
 0.080000   -3.097137   -32.978849
 0.085000   -3.257543   -31.208026
 0.090000   -3.409217   -30.013886
 0.095000   -3.557681   -29.028344
 0.100000   -3.699500   -27.685812
 0.105000   -3.834540   -26.309140
 0.110000   -3.962592   -24.870126
 0.115000   -4.083241   -23.377766
 0.120000   -4.196369   -22.031432
 0.125000   -4.303555   -20.585045
 0.130000   -4.402220   -18.834397
 0.135000   -4.491899   -17.008417
 0.140000   -4.572304   -15.143627
 0.145000   -4.643335   -13.119176
 0.150000   -4.703496   -11.221540
 0.155000   -4.755551   -9.437274
 0.160000   -4.797868   -7.495800
 0.165000   -4.830509   -5.578599
 0.170000   -4.853654   -3.712054
 0.175000   -4.867629   -1.741387
 0.180000   -4.871068   -0.294544
 0.185000   -4.870575   0.528638
 0.190000   -4.865782   1.342497
 0.195000   -4.857150   2.068802
 0.200000   -4.845094   2.732294
 0.205000   -4.829827   3.004661
 0.210000   -4.815047   3.248731
 0.215000   -4.797339   3.864662
 0.220000   -4.776401   4.505825
 0.225000   -4.752281   5.184533
 0.230000   -4.724555   5.948603
 0.235000   -4.692795   6.345346
 0.240000   -4.661102   7.229611
 0.245000   -4.620499   9.035463
 0.250000   -4.570747   10.757680
 0.255000   -4.512922   12.409115
 0.260000   -4.446656   14.112059
 0.265000   -4.371802   15.825016
 0.270000   -4.288406   17.763454
 0.275000   -4.194167   19.697237
 0.280000   -4.091434   21.256019
 0.285000   -3.981607   22.555372
 0.290000   -3.865880   23.587026
 0.295000   -3.745737   24.481187
 0.300000   -3.621068   24.877884
 0.305000   -3.496958   24.454100
 0.310000   -3.376527   23.834259
 0.315000   -3.258615   23.271356
 0.320000   -3.143813   22.611855
 0.325000   -3.032497   21.906389
 0.330000   -2.924749   21.072091
 0.335000   -2.821776   20.181620
 0.340000   -2.722933   19.432099
 0.345000   -2.627455   18.764574
 0.350000   -2.535288   18.105889
 0.355000   -2.446396   17.393997
 0.360000   -2.361348   16.782016
 0.365000   -2.278576   16.703184
 0.370000   -2.194316   16.851663
 0.375000   -2.110059   16.805696
 0.380000   -2.026259   16.652879
 0.385000   -1.943530   16.422015
 0.390000   -1.862039   16.176268
 0.395000   -1.781768   15.398655
 0.400000   -1.708052   14.171795
 0.405000   -1.640050   13.015549
 0.410000   -1.577897   11.857161
 0.415000   -1.521478   10.766898
 0.420000   -1.470228   9.896740
 0.425000   -1.422511   8.852319
 0.430000   -1.381704   7.631039
 0.435000   -1.346200   6.555610
 0.440000   -1.316148   5.444593
 0.445000   -1.291754   4.289003
 0.450000   -1.273258   3.127061
 0.455000   -1.260484   1.710608
 0.460000   -1.256152   0.150135
 0.465000   -1.258982   -1.244334
 0.470000   -1.268596   -2.532105
 0.475000   -1.284303   -3.652469
 0.480000   -1.305120   -4.583620
 0.485000   -1.330140   -5.405198
 0.490000   -1.359172   -6.227240
 0.495000   -1.392412   -7.019312
 0.500000   -1.429365   -7.705998
 0.505000   -1.469472   -8.279288
 0.510000   -1.512158   -8.700814
 0.515000   -1.556480   -9.033474
 0.520000   -1.602493   -9.345798
 0.525000   -1.649938   -9.607790
 0.530000   -1.698571   -9.839794
 0.535000   -1.748336   -10.070736
 0.540000   -1.799278   -10.302237
 0.545000   -1.851358   -10.637894
 0.550000   -1.905657   -11.036729
 0.555000   -1.961726   -11.338681
 0.560000   -2.019044   -11.548317
 0.565000   -2.077209   -11.676951
 0.570000   -2.135813   -11.751960
 0.575000   -2.194729   -11.832831
 0.580000   -2.254142   -11.918886
 0.585000   -2.313917   -11.978326
 0.590000   -2.373925   -12.008927
 0.595000   -2.434007   -12.009922
 0.600000   -2.494024   -12.064001
 0.605000   -2.554647   -12.112468
 0.610000   -2.615149   -11.940556
 0.615000   -2.674052   -11.654808
 0.620000   -2.731697   -11.369865
 0.625000   -2.787751   -11.025535
 0.630000   -2.841952   -10.732489
 0.635000   -2.895076   -10.522952
 0.640000   -2.947182   -10.168456
 0.645000   -2.996760   -9.997650
 0.650000   -3.047158   -10.461724
 0.655000   -3.101378   -11.525314
 0.660000   -3.162412   -13.507815
 0.665000   -3.236456   -16.481351
 0.670000   -3.327225   -17.845657
 0.675000   -3.414912   -17.741368
 0.680000   -3.504639   -17.929279
 0.685000   -3.594205   -17.624503
 0.690000   -3.680884   -17.001793
 0.695000   -3.764223   -16.236691
 0.700000   -3.843251   -13.024744
 0.705000   -3.894470   -8.481304
 0.710000   -3.928064   -4.737278
 0.715000   -3.941843   -0.598008
 0.720000   -3.934044   3.857208
 0.725000   -3.903271   9.142400
 0.730000   -3.842620   13.935344
 0.735000   -3.763918   17.176279
 0.740000   -3.670857   19.665018
 0.745000   -3.567268   21.378356
 0.750000   -3.457073   22.317014
 0.755000   -3.344097   23.503018
 0.760000   -3.222043   22.828186
 0.765000   -3.115816   20.527793
 0.770000   -3.016765   18.963844
 0.775000   -2.926177   17.185263
 0.780000   -2.844913   15.286743
 0.785000   -2.773310   13.246797
 0.790000   -2.712445   11.107626
 0.795000   -2.662233   9.480158
 0.800000   -2.617643   8.448961
 0.805000   -2.577744   7.535185
 0.810000   -2.542291   6.639841
 0.815000   -2.511345   5.430865
 0.820000   -2.487983   4.525250
 0.825000   -2.466093   3.970763
 0.830000   -2.448275   2.776567
 0.835000   -2.438327   0.926811
 0.840000   -2.439007   -1.460426
 0.845000   -2.452931   -5.105599
 0.850000   -2.490063   -8.853272
 0.855000   -2.541464   -11.430644
 0.860000   -2.604369   -14.062589
 0.865000   -2.682090   -17.028328
 0.870000   -2.774653   -20.027266
 0.875000   -2.882363   -24.380682
 0.880000   -3.018459   -29.359145
 0.885000   -3.175954   -33.526654
 0.890000   -3.353726   -38.833508
 0.895000   -3.564289   -46.026034
 0.900000   -3.813986   -54.823675
 0.905000   -4.112526   -69.027800
 0.910000   -4.504264   -89.088178
 0.915000   -5.003408   -109.380844
 0.920000   -5.598073   -135.948961
 0.925000   -6.362897   -176.897850
 0.930000   -7.367051   -233.645056
 0.935000   -8.699348   -315.882471
 0.940000   -10.525876   -426.552146
 0.945000   -12.964869   -533.376870
 0.950000   -15.859645   -624.632781
 0.955000   -19.211197   -694.279456
 0.960000   -22.802439   -700.351235
 0.965000   -26.214710   -615.491394
 0.970000   -28.957353   -422.003842
 0.975000   -30.434748   -119.652585
 0.980000   -30.153879   204.395339
 0.985000   -28.390795   466.352669
 0.990000   -25.490352   643.955562
 0.995000   -21.951239   719.761930
 1.000000   -18.292733   743.640460
201 psinorm omgeb(kRad/s) domgeb/dpsiN
 0.000000   83.632530   108.425342
 0.005000   84.015820   44.890814
 0.010000   84.081438   9.008478
 0.015000   84.105905   2.874715
 0.020000   84.110185   -0.698235
 0.025000   84.098922   -3.588548
 0.030000   84.074299   -6.310815
 0.035000   84.035814   -8.631482
 0.040000   83.987985   -10.406749
 0.045000   83.931747   -11.917104
 0.050000   83.868813   -12.814075
 0.055000   83.803606   -12.934177
 0.060000   83.739472   -13.053955
 0.065000   83.673066   -13.206503
 0.070000   83.607407   -12.967392
 0.075000   83.543392   -12.680764
 0.080000   83.480599   -12.452651
 0.085000   83.418866   -12.223116
 0.090000   83.358368   -12.629481
 0.095000   83.292571   -13.217805
 0.100000   83.226190   -13.215433
 0.105000   83.160417   -12.996674
 0.110000   83.096223   -12.534702
 0.115000   83.035070   -11.932738
 0.120000   82.976896   -11.408144
 0.125000   82.920988   -10.809786
 0.130000   82.868798   -10.028470
 0.135000   82.820704   -9.405118
 0.140000   82.774747   -8.969421
 0.145000   82.731009   -8.616631
 0.150000   82.688580   -8.784592
 0.155000   82.643164   -9.354865
 0.160000   82.595032   -10.056926
 0.165000   82.542594   -11.048122
 0.170000   82.484550   -12.378256
 0.175000   82.418812   -13.884830
 0.180000   82.345702   -16.118808
 0.185000   82.257624   -18.958830
 0.190000   82.156114   -21.738097
 0.195000   82.040243   -24.477288
 0.200000   81.911341   -26.967655
 0.205000   81.770566   -29.654669
 0.210000   81.614794   -32.040897
 0.215000   81.450157   -33.888414
 0.220000   81.275910   -35.713494
 0.225000   81.093022   -37.362160
 0.230000   80.902289   -38.978046
 0.235000   80.703242   -40.940831
 0.240000   80.492880   -42.392976
 0.245000   80.279312   -42.930427
 0.250000   80.063576   -43.312247
 0.255000   79.846190   -43.647179
 0.260000   79.627104   -43.965166
 0.265000   79.406538   -44.312753
 0.270000   79.183977   -44.556634
 0.275000   78.960972   -44.868382
 0.280000   78.735293   -45.612690
 0.285000   78.504845   -46.794701
 0.290000   78.267346   -48.411849
 0.295000   78.020726   -50.297000
 0.300000   77.764376   -52.800441
 0.305000   77.492722   -56.102177
 0.310000   77.203354   -59.604234
 0.315000   76.896679   -63.028658
 0.320000   76.573067   -66.172459
 0.325000   76.234955   -68.827012
 0.330000   75.884797   -71.252717
 0.335000   75.522428   -73.471520
 0.340000   75.150082   -75.428702
 0.345000   74.768141   -77.473926
 0.350000   74.375343   -79.737836
 0.355000   73.970762   -82.528971
 0.360000   73.550053   -85.823718
 0.365000   73.112525   -89.021066
 0.370000   72.659843   -92.353858
 0.375000   72.188986   -96.052203
 0.380000   71.699320   -99.804238
 0.385000   71.190944   -103.115119
 0.390000   70.668169   -105.955855
 0.395000   70.131386   -109.648823
 0.400000   69.571681   -114.733119
 0.405000   68.984054   -121.261580
 0.410000   68.359065   -130.486124
 0.415000   67.679193   -141.467222
 0.420000   66.944393   -152.578542
 0.425000   66.153408   -164.184695
 0.430000   65.302546   -175.857638
 0.435000   64.394831   -186.834286
 0.440000   63.434203   -196.580478
 0.445000   62.429027   -203.254580
 0.450000   61.401657   -205.910233
 0.455000   60.369924   -205.167511
 0.460000   59.349982   -200.965008
 0.465000   58.360274   -193.115851
 0.470000   57.418824   -181.601237
 0.475000   56.544262   -168.170838
 0.480000   55.737115   -154.911402
 0.485000   54.995148   -142.240410
 0.490000   54.314711   -130.712789
 0.495000   53.688020   -120.704162
 0.500000   53.107670   -112.760669
 0.505000   52.560413   -107.353342
 0.510000   52.034136   -103.767929
 0.515000   51.522734   -101.333340
 0.520000   51.020803   -99.413901
 0.525000   50.528595   -97.493385
 0.530000   50.045869   -95.481163
 0.535000   49.573783   -93.029554
 0.540000   49.115573   -89.997798
 0.545000   48.673805   -86.635404
 0.550000   48.249219   -83.070538
 0.555000   47.843100   -79.107176
 0.560000   47.458148   -74.815297
 0.565000   47.094947   -70.558976
 0.570000   46.752558   -66.517866
 0.575000   46.429768   -62.750486
 0.580000   46.125053   -59.384769
 0.585000   45.835921   -56.677376
 0.590000   45.558279   -54.460000
 0.595000   45.291321   -52.520244
 0.600000   45.033077   -51.108499
 0.605000   44.780236   -50.068962
 0.610000   44.532387   -48.968116
 0.615000   44.290554   -47.875595
 0.620000   44.053631   -46.816882
 0.625000   43.822386   -45.713089
 0.630000   43.596500   -44.822849
 0.635000   43.374157   -44.291496
 0.640000   43.153585   -44.004818
 0.645000   42.934109   -44.272326
 0.650000   42.710862   -45.585980
 0.655000   42.478249   -48.007564
 0.660000   42.230787   -51.676975
 0.665000   41.961479   -56.471007
 0.670000   41.666076   -59.673596
 0.675000   41.364743   -61.320997
 0.680000   41.052867   -63.083169
 0.685000   40.733912   -64.221639
 0.690000   40.410650   -65.106465
 0.695000   40.082847   -66.021886
 0.700000   39.750431   -64.677387
 0.705000   39.436073   -62.217931
 0.710000   39.128252   -60.808782
 0.715000   38.827985   -59.271891
 0.720000   38.535533   -57.704112
 0.725000   38.250944   -55.545295
 0.730000   37.980080   -54.162829
 0.735000   37.709316   -54.692735
 0.740000   37.433153   -56.620949
 0.745000   37.143106   -60.288646
 0.750000   36.830266   -65.415833
 0.755000   36.488948   -70.675129
 0.760000   36.123515   -78.221592
 0.765000   35.706732   -87.903471
 0.770000   35.244480   -97.553253
 0.775000   34.731200   -108.099742
 0.780000   34.163483   -118.934485
 0.785000   33.541855   -130.019372
 0.790000   32.863289   -141.806924
 0.795000   32.123786   -153.046953
 0.800000   31.332820   -163.072058
 0.805000   30.493065   -172.546988
 0.810000   29.607350   -180.624122
 0.815000   28.686824   -186.632116
 0.820000   27.741029   -189.395329
 0.825000   26.792870   -188.645235
 0.830000   25.854576   -185.710834
 0.835000   24.935762   -181.464126
 0.840000   24.039935   -176.555792
 0.845000   23.170204   -172.633441
 0.850000   22.313601   -169.486176
 0.855000   21.475342   -167.130660
 0.860000   20.642294   -168.344505
 0.865000   19.791897   -175.099353
 0.870000   18.891300   -187.242305
 0.875000   17.919474   -206.339330
 0.880000   16.827907   -233.509118
 0.885000   15.584383   -267.749027
 0.890000   14.150417   -310.138102
 0.895000   12.483002   -359.674351
 0.900000   10.553673   -410.154298
 0.905000   8.381459   -457.439172
 0.910000   5.979282   -497.575945
 0.915000   3.405700   -518.729824
 0.920000   0.791983   -518.178580
 0.925000   -1.776086   -500.506536
 0.930000   -4.213082   -479.802633
 0.935000   -6.574112   -482.124739
 0.940000   -9.034329   -531.013829
 0.945000   -11.884251   -621.424174
 0.950000   -15.248571   -749.066837
 0.955000   -19.374919   -875.588145
 0.960000   -24.004453   -887.428680
 0.965000   -28.249206   -680.276638
 0.970000   -30.807219   -215.148372
 0.975000   -30.400690   416.149073
 0.980000   -26.645728   965.454360
 0.985000   -20.746146   1238.837609
 0.990000   -14.257352   1222.574751
 0.995000   -8.520398   1002.358969
 1.000000   -4.233762   712.295455
201 psinorm er(kV/m) der/dpsiN
 0.000000   1.429533   1346.054347
 0.005000   6.892442   839.109194
 0.010000   9.820625   519.416174
 0.015000   12.086604   416.424556
 0.020000   13.984871   357.136204
 0.025000   15.657966   318.570202
 0.030000   17.170573   290.083546
 0.035000   18.558802   267.303535
 0.040000   19.843608   248.882492
 0.045000   21.047626   234.158433
 0.050000   22.185193   221.384592
 0.055000   23.261472   209.246872
 0.060000   24.277661   197.857827
 0.065000   25.240051   190.569818
 0.070000   26.183360   184.042625
 0.075000   27.080477   174.317628
 0.080000   27.926536   169.300266
 0.085000   28.773480   164.394452
 0.090000   29.570480   156.073964
 0.095000   30.334219   152.921049
 0.100000   31.099691   146.672141
 0.105000   31.800941   142.744708
 0.110000   32.527138   139.123070
 0.115000   33.192171   134.896053
 0.120000   33.876098   131.584559
 0.125000   34.508017   128.031691
 0.130000   35.156415   124.910485
 0.135000   35.757122   122.099254
 0.140000   36.377408   118.814557
 0.145000   36.945267   116.584231
 0.150000   37.543250   112.907078
 0.155000   38.074338   110.929318
 0.160000   38.652543   106.839583
 0.165000   39.142734   103.448358
 0.170000   39.687027   102.543481
 0.175000   40.168169   97.040516
 0.180000   40.657432   96.171812
 0.185000   41.129887   89.861362
 0.190000   41.556046   88.379355
 0.195000   42.013680   82.650097
 0.200000   42.382547   78.580553
 0.205000   42.799486   78.905152
 0.210000   43.171598   71.762553
 0.215000   43.517112   71.601267
 0.220000   43.887611   65.882865
 0.225000   44.175940   62.292164
 0.230000   44.510533   63.882817
 0.235000   44.814768   56.694034
 0.240000   45.077473   55.695344
 0.245000   45.371722   53.733192
 0.250000   45.614805   49.432582
 0.255000   45.866048   51.436124
 0.260000   46.129166   45.978032
 0.265000   46.325828   43.437820
 0.270000   46.563544   46.135588
 0.275000   46.787184   40.275210
 0.280000   46.966296   38.673766
 0.285000   47.173921   39.099567
 0.290000   47.357292   33.340081
 0.295000   47.507322   31.717676
 0.300000   47.674469   30.267160
 0.305000   47.809994   24.075137
 0.310000   47.915220   21.685894
 0.315000   48.026853   19.014511
 0.320000   48.105365   13.373637
 0.325000   48.160589   11.542578
 0.330000   48.220791   9.255147
 0.335000   48.253141   4.449593
 0.340000   48.265287   2.858194
 0.345000   48.281723   0.999910
 0.350000   48.275286   -3.722663
 0.355000   48.244496   -6.223320
 0.360000   48.213053   -8.583426
 0.365000   48.158662   -13.791664
 0.370000   48.075136   -17.020516
 0.375000   47.988457   -19.395452
 0.380000   47.881182   -24.843237
 0.385000   47.740024   -28.432371
 0.390000   47.596858   -30.023966
 0.395000   47.439784   -35.269108
 0.400000   47.244167   -40.402290
 0.405000   47.035762   -44.559874
 0.410000   46.798568   -53.064611
 0.415000   46.505115   -62.606190
 0.420000   46.172506   -70.592564
 0.425000   45.799190   -79.969300
 0.430000   45.372813   -90.393876
 0.435000   44.895251   -99.172778
 0.440000   44.381086   -106.684381
 0.445000   43.828407   -113.740279
 0.450000   43.243683   -117.187706
 0.455000   42.656530   -117.039212
 0.460000   42.073291   -116.185568
 0.465000   41.494675   -112.358709
 0.470000   40.949704   -104.523167
 0.475000   40.449443   -96.118287
 0.480000   39.988521   -88.440809
 0.485000   39.565035   -80.116290
 0.490000   39.187358   -72.022296
 0.495000   38.844812   -66.508908
 0.500000   38.522269   -61.735023
 0.505000   38.227462   -57.604090
 0.510000   37.946228   -56.153082
 0.515000   37.665931   -55.647344
 0.520000   37.389754   -54.370503
 0.525000   37.122226   -53.184127
 0.530000   36.857913   -53.223602
 0.535000   36.589990   -52.040604
 0.540000   36.337507   -49.399647
 0.545000   36.095993   -48.059652
 0.550000   35.856911   -46.471254
 0.555000   35.631281   -43.342815
 0.560000   35.423482   -40.247868
 0.565000   35.228802   -38.504848
 0.570000   35.038434   -35.889285
 0.575000   34.869909   -32.411451
 0.580000   34.714319   -30.847158
 0.585000   34.561438   -29.787101
 0.590000   34.416448   -27.803666
 0.595000   34.283401   -26.075999
 0.600000   34.155688   -26.507336
 0.605000   34.018328   -26.100394
 0.610000   33.894684   -24.311553
 0.615000   33.775212   -24.166464
 0.620000   33.653020   -24.468670
 0.625000   33.530525   -23.411413
 0.630000   33.418906   -22.088461
 0.635000   33.309641   -22.987209
 0.640000   33.189034   -23.334085
 0.645000   33.076300   -22.636250
 0.650000   32.962671   -23.743234
 0.655000   32.838868   -27.013586
 0.660000   32.692535   -29.888438
 0.665000   32.539983   -32.573409
 0.670000   32.366801   -35.925227
 0.675000   32.180731   -38.224535
 0.680000   31.984556   -39.081057
 0.685000   31.789920   -39.316235
 0.690000   31.591393   -41.512961
 0.695000   31.374791   -42.753262
 0.700000   31.163861   -40.512982
 0.705000   30.969661   -38.568809
 0.710000   30.778173   -39.195238
 0.715000   30.577709   -37.970848
 0.720000   30.398464   -35.293625
 0.725000   30.224772   -34.365859
 0.730000   30.054806   -34.499422
 0.735000   29.879778   -34.416035
 0.740000   29.710645   -35.011091
 0.745000   29.529667   -39.062273
 0.750000   29.320023   -43.912878
 0.755000   29.090538   -47.315038
 0.760000   28.846872   -52.952454
 0.765000   28.561014   -62.103102
 0.770000   28.225841   -70.332478
 0.775000   27.857689   -77.909143
 0.780000   27.446750   -86.716971
 0.785000   26.990519   -97.211389
 0.790000   26.474636   -107.111290
 0.795000   25.919406   -115.382015
 0.800000   25.320816   -124.092962
 0.805000   24.678477   -133.193009
 0.810000   23.988886   -140.115519
 0.815000   23.277322   -144.569149
 0.820000   22.543194   -147.596986
 0.825000   21.801352   -148.313856
 0.830000   21.060056   -146.258738
 0.835000   20.338764   -142.561157
 0.840000   19.634444   -139.356294
 0.845000   18.945201   -137.346375
 0.850000   18.260980   -135.030912
 0.855000   17.594892   -132.917072
 0.860000   16.931810   -134.736171
 0.865000   16.247531   -141.333561
 0.870000   15.518474   -151.481367
 0.875000   14.732717   -167.104527
 0.880000   13.847429   -190.158479
 0.885000   12.831132   -218.908430
 0.890000   11.658344   -253.777436
 0.895000   10.293358   -294.765201
 0.900000   8.710692   -336.956338
 0.905000   6.923794   -375.461688
 0.910000   4.956075   -408.222851
 0.915000   2.841566   -426.836196
 0.920000   0.687714   -432.947861
 0.925000   -1.487913   -419.957287
 0.930000   -3.511859   -399.166834
 0.935000   -5.479581   -402.370929
 0.940000   -7.535569   -483.030376
 0.945000   -10.309885   -569.531586
 0.950000   -13.230884   -649.521763
 0.955000   -16.805102   -761.653439
 0.960000   -20.847419   -837.169281
 0.965000   -25.176795   -676.427796
 0.970000   -27.611697   -210.820293
 0.975000   -27.284998   366.935581
 0.980000   -23.942341   856.610704
 0.985000   -18.718891   1100.660552
 0.990000   -12.935736   1094.906303
 0.995000   -7.769828   903.574482
 1.000000   -3.899991   644.360464
201 psinorm ommvb() dommvb/dpsiN
 0.000000   103.141204   9592.754037
 0.005000   142.571666   6179.430883
 0.010000   164.935513   5708.535618
 0.015000   199.657022   6717.503362
 0.020000   232.110546   5741.477883
 0.025000   257.071801   4743.880016
 0.030000   279.549346   4277.715475
 0.035000   299.848956   3890.195414
 0.040000   318.451301   3512.417949
 0.045000   334.973135   3282.754337
 0.050000   351.278844   3045.784754
 0.055000   365.430983   2676.537882
 0.060000   378.044223   2338.972733
 0.065000   388.820710   2113.007763
 0.070000   399.174300   1827.895314
 0.075000   407.099663   1476.762789
 0.080000   413.941928   1346.382183
 0.085000   420.563485   1213.846125
 0.090000   426.080389   1009.765890
 0.095000   430.661144   826.233773
 0.100000   434.342727   670.842038
 0.105000   437.369564   516.651878
 0.110000   439.509246   287.200783
 0.115000   440.241572   76.743606
 0.120000   440.276682   -71.771666
 0.125000   439.523856   -228.791463
 0.130000   437.988767   -377.138845
 0.135000   435.752467   -521.294995
 0.140000   432.775817   -662.652250
 0.145000   429.125945   -778.435913
 0.150000   424.991458   -879.231477
 0.155000   420.333630   -979.595357
 0.160000   415.195505   -1071.533260
 0.165000   409.618297   -1152.737720
 0.170000   403.668128   -1222.077292
 0.175000   397.397524   -1279.089354
 0.180000   390.877234   -1430.636446
 0.185000   383.091160   -1497.159518
 0.190000   375.905639   -1437.614823
 0.195000   368.715012   -1444.203780
 0.200000   361.463601   -1451.939831
 0.205000   354.195613   -1453.040580
 0.210000   346.933195   -1447.190005
 0.215000   339.723713   -1434.664039
 0.220000   332.586555   -1510.969702
 0.225000   324.614016   -1614.186574
 0.230000   316.444689   -1479.040175
 0.235000   309.823615   -1301.647064
 0.240000   303.428218   -1258.224933
 0.245000   297.241365   -1214.404436
 0.250000   291.284174   -1215.019722
 0.255000   285.091168   -1293.397711
 0.260000   278.350197   -1175.496878
 0.265000   273.336199   -976.301188
 0.270000   268.587185   -927.361901
 0.275000   264.062580   -882.834080
 0.280000   259.758844   -956.850084
 0.285000   254.494079   -893.843628
 0.290000   250.820408   -689.749833
 0.295000   247.596581   -621.393235
 0.300000   244.606476   -574.831390
 0.305000   241.848267   -623.759984
 0.310000   238.368876   -561.619397
 0.315000   236.232073   -401.124050
 0.320000   234.357635   -354.753113
 0.325000   232.684542   -329.953575
 0.330000   231.058100   -299.975693
 0.335000   229.684785   -229.786181
 0.340000   228.760238   -172.967085
 0.345000   227.955114   -146.930128
 0.350000   227.290936   -143.027491
 0.355000   226.524839   -107.331472
 0.360000   226.217622   -43.680961
 0.365000   226.088030   -15.858251
 0.370000   226.059039   0.108361
 0.375000   226.089113   25.669574
 0.380000   226.315735   58.879231
 0.385000   226.677906   80.585824
 0.390000   227.121593   100.150879
 0.395000   227.679414   118.290996
 0.400000   228.304503   119.622828
 0.405000   228.875643   112.944452
 0.410000   229.433948   108.765295
 0.415000   229.963296   110.399221
 0.420000   230.537940   100.547362
 0.425000   230.968769   81.867930
 0.430000   231.356619   73.504621
 0.435000   231.703815   69.215909
 0.440000   232.048778   60.737882
 0.445000   232.311194   50.549081
 0.450000   232.554269   47.704008
 0.455000   232.788234   36.719871
 0.460000   232.921468   49.464906
 0.465000   233.282883   77.828767
 0.470000   233.699755   92.953536
 0.475000   234.212419   117.796357
 0.480000   234.877719   143.178214
 0.485000   235.644201   158.473485
 0.490000   236.462454   170.745529
 0.495000   237.351656   185.946968
 0.500000   238.321924   199.720207
 0.505000   239.348858   204.641089
 0.510000   240.368334   205.603937
 0.515000   241.404898   208.332234
 0.520000   242.451657   227.391719
 0.525000   243.678815   244.467890
 0.530000   244.896336   241.342981
 0.535000   246.092245   237.485721
 0.540000   247.271193   248.552132
 0.545000   248.577766   264.487336
 0.550000   249.916066   272.060547
 0.555000   251.298371   282.683612
 0.560000   252.742902   302.337704
 0.565000   254.321749   332.741075
 0.570000   256.070313   344.665838
 0.575000   257.768407   348.655302
 0.580000   259.556866   372.688314
 0.585000   261.495290   408.141034
 0.590000   263.638277   436.372067
 0.595000   265.859011   446.835660
 0.600000   268.106633   455.327487
 0.605000   270.412286   488.708267
 0.610000   272.993716   531.719900
 0.615000   275.729485   547.838866
 0.620000   278.472104   560.097004
 0.625000   281.330455   583.574249
 0.630000   284.307847   635.873884
 0.635000   287.689193   673.381048
 0.640000   291.041657   676.760453
 0.645000   294.456798   696.009101
 0.650000   298.001748   721.211672
 0.655000   301.668915   779.114976
 0.660000   305.792898   813.504180
 0.665000   309.803957   813.286738
 0.670000   313.925766   843.233172
 0.675000   318.236288   879.941993
 0.680000   322.725185   942.045736
 0.685000   327.656746   997.592743
 0.690000   332.701113   1015.680385
 0.695000   337.813549   1041.965766
 0.700000   343.120771   1082.989863
 0.705000   348.643448   1129.453491
 0.710000   354.415305   1206.506380
 0.715000   360.708512   1239.370849
 0.720000   366.809014   1243.746563
 0.725000   373.145978   1289.756382
 0.730000   379.706578   1331.434268
 0.735000   386.460320   1371.922910
 0.740000   393.425807   1423.311209
 0.745000   400.693432   1445.824176
 0.750000   407.884049   1458.686561
 0.755000   415.280298   1503.379649
 0.760000   422.917845   1553.596586
 0.765000   430.816264   1610.717528
 0.770000   439.025020   1667.769749
 0.775000   447.493961   1722.427531
 0.780000   456.249296   1787.313165
 0.785000   465.367093   1864.671789
 0.790000   474.896014   1951.015397
 0.795000   484.877247   2043.779196
 0.800000   495.333806   2138.649548
 0.805000   506.263742   2235.661893
 0.810000   517.690425   2338.002939
 0.815000   529.643772   2452.550304
 0.820000   542.215928   2602.387897
 0.825000   555.667651   2782.556634
 0.830000   570.041494   2972.964230
 0.835000   585.397293   3178.408659
 0.840000   601.825580   3403.004471
 0.845000   619.427338   3648.966721
 0.850000   638.315248   3922.212574
 0.855000   658.649463   4213.175478
 0.860000   680.447002   4518.233420
 0.865000   703.831798   4826.636950
 0.870000   728.713372   5260.407679
 0.875000   756.435874   5821.335402
 0.880000   786.926726   6376.572971
 0.885000   820.201604   6956.722465
 0.890000   856.493951   7528.910510
 0.895000   895.490709   8006.572786
 0.900000   936.559679   8350.556087
 0.905000   978.996270   8514.263742
 0.910000   1021.702316   8410.918689
 0.915000   1063.105457   7909.674297
 0.920000   1100.799059   6905.436596
 0.925000   1132.159823   5564.759108
 0.930000   1156.446650   4493.068757
 0.935000   1177.090511   4799.222648
 0.940000   1204.438876   8164.592114
 0.945000   1258.736432   16460.008112
 0.950000   1369.038958   30764.174949
 0.955000   1566.378181   48971.503152
 0.960000   1858.753989   66064.613350
 0.965000   2227.024315   75770.685245
 0.970000   2616.460842   73945.755670
 0.975000   2966.481871   60449.899691
 0.980000   3220.959838   45159.387150
 0.985000   3418.075743   51976.805220
 0.990000   3740.727891   93734.099614
 0.995000   4355.416739   395055.910520
 1.000000   7691.286996   939292.192206
201 psinorm ommpp() dommpp/dpsiN
 0.000000   -19.508674   -9484.328695
 0.005000   -58.555846   -6134.540069
 0.010000   -80.854075   -5699.527141
 0.015000   -115.551118   -6714.628647
 0.020000   -148.000361   -5742.176118
 0.025000   -172.972879   -4747.468563
 0.030000   -195.475047   -4284.026290
 0.035000   -215.813142   -3898.826895
 0.040000   -234.463316   -3522.824698
 0.045000   -251.041389   -3294.671441
 0.050000   -267.410030   -3058.598829
 0.055000   -281.627377   -2689.472059
 0.060000   -294.304751   -2352.026689
 0.065000   -305.147644   -2126.214266
 0.070000   -315.566894   -1840.862706
 0.075000   -323.556271   -1489.443553
 0.080000   -330.461329   -1358.834834
 0.085000   -337.144619   -1226.069241
 0.090000   -342.722022   -1022.395371
 0.095000   -347.368573   -839.451579
 0.100000   -351.116537   -684.057471
 0.105000   -354.209148   -529.648551
 0.110000   -356.413023   -299.735484
 0.115000   -357.206502   -88.676344
 0.120000   -357.299786   60.363522
 0.125000   -356.602867   217.981677
 0.130000   -355.119970   367.110376
 0.135000   -352.931763   511.889877
 0.140000   -350.001071   653.682829
 0.145000   -346.394935   769.819282
 0.150000   -342.302878   870.446885
 0.155000   -337.690466   970.240492
 0.160000   -332.600473   1061.476334
 0.165000   -327.075703   1141.689599
 0.170000   -321.183577   1209.699036
 0.175000   -314.978713   1265.204524
 0.180000   -308.531532   1414.517638
 0.185000   -300.833536   1478.200688
 0.190000   -293.749525   1415.876726
 0.195000   -286.674769   1419.726492
 0.200000   -279.552260   1424.972176
 0.205000   -272.425047   1423.385912
 0.210000   -265.318401   1415.149108
 0.215000   -258.273556   1400.775625
 0.220000   -251.310645   1475.256208
 0.225000   -243.520994   1576.824414
 0.230000   -235.542401   1440.062129
 0.235000   -229.120373   1260.706233
 0.240000   -222.935338   1215.831956
 0.245000   -216.962053   1171.474009
 0.250000   -211.220598   1171.707475
 0.255000   -205.244978   1249.750532
 0.260000   -198.723093   1131.531711
 0.265000   -193.929661   931.988434
 0.270000   -189.403208   882.805267
 0.275000   -185.101609   837.965698
 0.280000   -181.023551   911.237394
 0.285000   -175.989235   847.048927
 0.290000   -172.553062   641.337984
 0.295000   -169.575855   571.096235
 0.300000   -166.842100   522.030949
 0.305000   -164.355545   567.657807
 0.310000   -161.165522   502.015162
 0.315000   -159.335394   338.095392
 0.320000   -157.784568   288.580654
 0.325000   -156.449587   261.126563
 0.330000   -155.173302   228.722976
 0.335000   -154.162357   156.314661
 0.340000   -153.610156   97.538383
 0.345000   -153.186974   69.456202
 0.350000   -152.915594   63.289654
 0.355000   -152.554077   24.802501
 0.360000   -152.667569   -42.142758
 0.365000   -152.975505   -73.162815
 0.370000   -153.399197   -92.462219
 0.375000   -153.900127   -121.721777
 0.380000   -154.616415   -158.683469
 0.385000   -155.486962   -183.700943
 0.390000   -156.453424   -206.106734
 0.395000   -157.548029   -227.939819
 0.400000   -158.732822   -234.355947
 0.405000   -159.891588   -234.206032
 0.410000   -161.074882   -239.251419
 0.415000   -162.284103   -251.866443
 0.420000   -163.593547   -253.125905
 0.425000   -164.815362   -246.052625
 0.430000   -166.054073   -249.362259
 0.435000   -167.308984   -256.050196
 0.440000   -168.614575   -257.318360
 0.445000   -169.882168   -253.803661
 0.450000   -171.152612   -253.614241
 0.455000   -172.418310   -241.887382
 0.460000   -173.571486   -250.429914
 0.465000   -174.922609   -270.944618
 0.470000   -176.280932   -274.554773
 0.475000   -177.668157   -285.967195
 0.480000   -179.140604   -298.089616
 0.485000   -180.649053   -300.713895
 0.490000   -182.147743   -301.458319
 0.495000   -183.663636   -306.651131
 0.500000   -185.214254   -312.480876
 0.505000   -186.788445   -311.994430
 0.510000   -188.334198   -309.371866
 0.515000   -189.882164   -309.665574
 0.520000   -191.430854   -326.805620
 0.525000   -193.150220   -341.961275
 0.530000   -194.850467   -336.824144
 0.535000   -196.518461   -330.515276
 0.540000   -198.155619   -338.549931
 0.545000   -199.903961   -351.122740
 0.550000   -201.666847   -355.131085
 0.555000   -203.455272   -361.790788
 0.560000   -205.284755   -377.153001
 0.565000   -207.226802   -403.300050
 0.570000   -209.317755   -411.183705
 0.575000   -211.338639   -411.405788
 0.580000   -213.431813   -432.073083
 0.585000   -215.659370   -464.818410
 0.590000   -218.079997   -490.832067
 0.595000   -220.567690   -499.355904
 0.600000   -223.073556   -506.435986
 0.605000   -225.632050   -538.777228
 0.610000   -228.461329   -580.688016
 0.615000   -231.438930   -595.714461
 0.620000   -234.418473   -606.913886
 0.625000   -237.508069   -629.287338
 0.630000   -240.711347   -680.696733
 0.635000   -244.315036   -717.672544
 0.640000   -247.888072   -720.765271
 0.645000   -251.522689   -740.281427
 0.650000   -255.290886   -766.797652
 0.655000   -259.190666   -827.122540
 0.660000   -263.562112   -865.181155
 0.665000   -267.842477   -869.757745
 0.670000   -272.259689   -902.906767
 0.675000   -276.871545   -941.262989
 0.680000   -281.672319   -1005.128905
 0.685000   -286.922834   -1061.814382
 0.690000   -292.290463   -1080.786850
 0.695000   -297.730702   -1107.987652
 0.700000   -303.370339   -1147.667249
 0.705000   -309.207375   -1191.671422
 0.710000   -315.287054   -1267.315162
 0.715000   -321.880527   -1298.642740
 0.720000   -328.273481   -1301.450674
 0.725000   -334.895033   -1345.301676
 0.730000   -341.726498   -1385.597097
 0.735000   -348.751004   -1426.615645
 0.740000   -355.992654   -1479.932158
 0.745000   -363.550326   -1506.112822
 0.750000   -371.053782   -1524.102394
 0.755000   -378.791350   -1574.054778
 0.760000   -386.794330   -1631.818178
 0.765000   -395.109532   -1698.620998
 0.770000   -403.780540   -1765.323002
 0.775000   -412.762762   -1830.527273
 0.780000   -422.085813   -1906.247650
 0.785000   -431.825238   -1994.691161
 0.790000   -442.032724   -2092.822322
 0.795000   -452.753461   -2196.826148
 0.800000   -464.000986   -2301.721606
 0.805000   -475.770677   -2408.208881
 0.810000   -488.083075   -2518.627061
 0.815000   -500.956948   -2639.182420
 0.820000   -514.474899   -2791.783226
 0.825000   -528.874780   -2971.201869
 0.830000   -544.186918   -3158.675064
 0.835000   -560.461531   -3359.872785
 0.840000   -577.785646   -3579.560263
 0.845000   -596.257134   -3821.600162
 0.850000   -616.001647   -4091.698749
 0.855000   -637.174121   -4380.306139
 0.860000   -659.804709   -4686.577925
 0.865000   -684.039900   -5001.736303
 0.870000   -709.822072   -5447.649985
 0.875000   -738.516400   -6027.674732
 0.880000   -770.098819   -6610.082090
 0.885000   -804.617221   -7224.471493
 0.890000   -842.343534   -7839.048613
 0.895000   -883.007707   -8366.247136
 0.900000   -926.006005   -8760.710385
 0.905000   -970.614811   -8971.702913
 0.910000   -1015.723034   -8908.494634
 0.915000   -1059.699757   -8428.404121
 0.920000   -1100.007076   -7423.615176
 0.925000   -1133.935909   -6065.265644
 0.930000   -1160.659732   -4972.871391
 0.935000   -1183.664623   -5281.347387
 0.940000   -1213.473206   -8695.605943
 0.945000   -1270.620682   -17081.432286
 0.950000   -1384.287529   -31513.241786
 0.955000   -1585.753100   -49847.091296
 0.960000   -1882.758442   -66952.042031
 0.965000   -2255.273521   -76450.961883
 0.970000   -2647.268060   -74160.904041
 0.975000   -2996.882561   -60033.750618
 0.980000   -3247.605567   -44193.932790
 0.985000   -3438.821889   -50737.967611
 0.990000   -3754.985243   -92511.524864
 0.995000   -4363.937138   -394053.551552
 1.000000   -7695.520758   -938579.896751
201 psinorm omevb() domevb/dpsiN
 0.000000   76.288811   91.447852
 0.005000   76.571012   21.432637
 0.010000   76.503137   -17.610898
 0.015000   76.394903   -23.584227
 0.020000   76.267295   -26.992476
 0.025000   76.124978   -29.713861
 0.030000   75.970156   -32.263014
 0.035000   75.802348   -34.406424
 0.040000   75.626092   -36.000334
 0.045000   75.442345   -37.325277
 0.050000   75.252839   -38.032828
 0.055000   75.062016   -37.959547
 0.060000   74.873244   -37.882028
 0.065000   74.683196   -37.833412
 0.070000   74.494910   -37.389323
 0.075000   74.309303   -36.893952
 0.080000   74.125970   -36.453383
 0.085000   73.944769   -36.007732
 0.090000   73.765893   -36.194374
 0.095000   73.582825   -36.559424
 0.100000   73.400299   -36.330281
 0.105000   73.219523   -35.881311
 0.110000   73.041485   -35.185746
 0.115000   72.867665   -34.346865
 0.120000   72.698017   -33.582087
 0.125000   72.531844   -32.740339
 0.130000   72.370613   -31.712487
 0.135000   72.214719   -30.839515
 0.140000   72.062218   -30.151174
 0.145000   71.913208   -29.542780
 0.150000   71.766790   -29.452240
 0.155000   71.618685   -29.761178
 0.160000   71.469179   -30.199136
 0.165000   71.316694   -30.923524
 0.170000   71.159943   -31.984212
 0.175000   70.996852   -33.218769
 0.180000   70.827756   -35.178224
 0.185000   70.645070   -37.741284
 0.190000   70.450343   -40.241220
 0.195000   70.242657   -42.698777
 0.200000   70.023355   -44.905276
 0.205000   69.793605   -47.306258
 0.210000   69.550293   -49.404359
 0.215000   69.299561   -50.961723
 0.220000   69.040675   -52.494695
 0.225000   68.774614   -53.849368
 0.230000   68.502182   -55.169447
 0.235000   68.222920   -56.834682
 0.240000   67.933835   -57.987605
 0.245000   67.643044   -58.224234
 0.250000   67.351593   -58.303702
 0.255000   67.060007   -58.334825
 0.260000   66.768244   -58.347619
 0.265000   66.476530   -58.388699
 0.270000   66.184357   -58.324832
 0.275000   65.893282   -58.327664
 0.280000   65.601081   -58.761959
 0.285000   65.305662   -59.632933
 0.290000   65.004751   -60.938093
 0.295000   64.696281   -62.510375
 0.300000   64.379648   -64.700141
 0.305000   64.049280   -67.687466
 0.310000   63.702773   -70.874450
 0.315000   63.340536   -73.983208
 0.320000   62.962941   -76.810824
 0.325000   62.572427   -79.148745
 0.330000   62.171453   -81.257440
 0.335000   61.759853   -83.158929
 0.340000   61.339864   -84.798562
 0.345000   60.911867   -86.526073
 0.350000   60.474603   -88.472178
 0.355000   60.027146   -90.945484
 0.360000   59.565148   -93.922449
 0.365000   59.087921   -96.802131
 0.370000   58.597127   -99.817442
 0.375000   58.089747   -103.198560
 0.380000   57.565142   -106.633691
 0.385000   57.023410   -109.628057
 0.390000   56.468861   -112.152736
 0.395000   55.901882   -115.530171
 0.400000   55.313559   -120.299525
 0.405000   54.698887   -126.513701
 0.410000   54.048422   -135.424681
 0.415000   53.344640   -146.093003
 0.420000   52.587492   -156.892398
 0.425000   51.775716   -168.187541
 0.430000   50.905617   -179.550451
 0.435000   49.980212   -190.218108
 0.440000   49.003436   -199.656411
 0.445000   47.983648   -206.023787
 0.450000   46.943198   -208.373937
 0.455000   45.899908   -207.326998
 0.460000   44.869928   -202.821620
 0.465000   43.871692   -194.670989
 0.470000   42.923218   -182.856359
 0.475000   42.043129   -169.127462
 0.480000   41.231943   -155.571098
 0.485000   40.487418   -142.604807
 0.490000   39.805895   -130.783569
 0.495000   39.179582   -120.483060
 0.500000   38.601065   -112.249474
 0.505000   38.057087   -106.553895
 0.510000   37.535526   -102.682122
 0.515000   37.030266   -99.963115
 0.520000   36.535895   -97.761251
 0.525000   36.052653   -95.560351
 0.530000   35.580291   -93.269833
 0.535000   35.119955   -90.542064
 0.540000   34.674871   -87.236329
 0.545000   34.247592   -83.602181
 0.550000   33.838849   -79.767833
 0.555000   33.449913   -75.537301
 0.560000   33.083476   -70.980608
 0.565000   32.740107   -66.461868
 0.570000   32.418857   -62.160776
 0.575000   32.118500   -58.135886
 0.580000   31.837498   -54.515172
 0.585000   31.573348   -51.555329
 0.590000   31.321945   -49.088084
 0.595000   31.082467   -46.901075
 0.600000   30.852934   -45.244721
 0.605000   30.630020   -43.963251
 0.610000   30.413302   -42.623173
 0.615000   30.203788   -41.294144
 0.620000   30.000360   -40.001671
 0.625000   29.803771   -38.666879
 0.630000   29.613691   -37.548415
 0.635000   29.428287   -36.791621
 0.640000   29.245775   -36.282282
 0.645000   29.065464   -36.329902
 0.650000   28.882476   -37.426422
 0.655000   28.691200   -39.633592
 0.660000   28.486140   -43.091260
 0.665000   28.260288   -47.676152
 0.670000   28.009379   -50.672107
 0.675000   27.753567   -52.115254
 0.680000   27.488226   -53.675383
 0.685000   27.216813   -54.613803
 0.690000   26.942088   -55.300288
 0.695000   26.663810   -56.018716
 0.700000   26.381901   -54.478108
 0.705000   26.119029   -51.822842
 0.710000   25.863673   -50.217436
 0.715000   25.616854   -48.482907
 0.720000   25.378843   -46.714931
 0.725000   25.149705   -44.351880
 0.730000   24.935325   -42.759297
 0.735000   24.722112   -43.070904
 0.740000   24.504616   -44.769775
 0.745000   24.274414   -48.193546
 0.750000   24.022680   -53.057850
 0.755000   23.743836   -58.029930
 0.760000   23.442381   -65.258264
 0.765000   23.091253   -74.583078
 0.770000   22.696550   -83.827148
 0.775000   22.252982   -93.907585
 0.780000   21.757474   -104.201975
 0.785000   21.210962   -114.655699
 0.790000   20.610917   -125.701980
 0.795000   19.953942   -136.068404
 0.800000   19.250233   -145.062471
 0.805000   18.503317   -153.321318
 0.810000   17.717020   -159.968087
 0.815000   16.903637   -164.302260
 0.820000   16.073997   -165.122002
 0.825000   15.252417   -162.140349
 0.830000   14.452594   -156.683104
 0.835000   13.685586   -149.645808
 0.840000   12.956136   -141.746670
 0.845000   12.268119   -134.770351
 0.850000   11.608432   -128.749784
 0.855000   10.980621   -124.105984
 0.860000   10.367372   -124.257965
 0.865000   9.738041   -132.163365
 0.870000   9.045739   -149.148478
 0.875000   8.246557   -178.952537
 0.880000   7.256213   -225.824710
 0.885000   5.988309   -293.178485
 0.890000   4.324429   -388.172335
 0.895000   2.106586   -517.915184
 0.900000   -0.854723   -686.562137
 0.905000   -4.759035   -902.354153
 0.910000   -9.878265   -1174.549875
 0.915000   -16.504534   -1502.400465
 0.920000   -24.902269   -1886.417680
 0.925000   -35.368711   -2317.364376
 0.930000   -48.075913   -2766.552851
 0.935000   -63.034239   -3177.897179
 0.940000   -79.854885   -3453.529794
 0.945000   -97.569537   -3450.080476
 0.950000   -114.355690   -3058.072576
 0.955000   -128.150263   -2230.936993
 0.960000   -136.665060   -984.745392
 0.965000   -137.997717   537.944208
 0.970000   -131.285618   2098.119485
 0.975000   -117.016522   3402.092709
 0.980000   -97.264690   4142.793476
 0.985000   -75.588587   4205.531784
 0.990000   -55.209373   3733.529103
 0.995000   -38.253296   2973.696979
 1.000000   -25.472403   2138.660415
201 psinorm omepp() domepp/dpsiN
 0.000000   7.343719   16.977490
 0.005000   7.444808   23.458177
 0.010000   7.578301   26.619376
 0.015000   7.711002   26.458942
 0.020000   7.842890   26.294241
 0.025000   7.973944   26.125313
 0.030000   8.104143   25.952199
 0.035000   8.233466   25.774942
 0.040000   8.361893   25.593585
 0.045000   8.489402   25.408173
 0.050000   8.615974   25.218753
 0.055000   8.741589   25.025370
 0.060000   8.866228   24.828072
 0.065000   8.989870   24.626909
 0.070000   9.112497   24.421931
 0.075000   9.234089   24.213188
 0.080000   9.354629   24.000732
 0.085000   9.474097   23.784615
 0.090000   9.592475   23.564893
 0.095000   9.709746   23.341619
 0.100000   9.825891   23.114848
 0.105000   9.940894   22.884638
 0.110000   10.054738   22.651044
 0.115000   10.167405   22.414127
 0.120000   10.278879   22.173943
 0.125000   10.389144   21.930553
 0.130000   10.498184   21.684017
 0.135000   10.605984   21.434397
 0.140000   10.712528   21.181753
 0.145000   10.817802   20.926149
 0.150000   10.921790   20.667648
 0.155000   11.024478   20.406313
 0.160000   11.125853   20.142210
 0.165000   11.225900   19.875402
 0.170000   11.324607   19.605956
 0.175000   11.421960   19.333939
 0.180000   11.517946   19.059415
 0.185000   11.612554   18.782454
 0.190000   11.705771   18.503122
 0.195000   11.797585   18.221488
 0.200000   11.887986   17.937621
 0.205000   11.976962   17.651589
 0.210000   12.064502   17.363462
 0.215000   12.150596   17.073309
 0.220000   12.235235   16.781201
 0.225000   12.318408   16.487208
 0.230000   12.400107   16.191401
 0.235000   12.480322   15.893851
 0.240000   12.559045   15.594629
 0.245000   12.636268   15.293806
 0.250000   12.711983   14.991455
 0.255000   12.786183   14.687646
 0.260000   12.858860   14.382453
 0.265000   12.930008   14.075946
 0.270000   12.999619   13.768198
 0.275000   13.067690   13.459282
 0.280000   13.134212   13.149269
 0.285000   13.199182   12.838233
 0.290000   13.262595   12.526244
 0.295000   13.324445   12.213376
 0.300000   13.384728   11.899700
 0.305000   13.443442   11.585289
 0.310000   13.500581   11.270215
 0.315000   13.556144   10.954550
 0.320000   13.610127   10.638365
 0.325000   13.662527   10.321732
 0.330000   13.713344   10.004723
 0.335000   13.762575   9.687408
 0.340000   13.810218   9.369860
 0.345000   13.856273   9.052147
 0.350000   13.900740   8.734342
 0.355000   13.943617   8.416513
 0.360000   13.984905   8.098731
 0.365000   14.024604   7.781065
 0.370000   14.062715   7.463584
 0.375000   14.099240   7.146357
 0.380000   14.134179   6.829453
 0.385000   14.167534   6.512938
 0.390000   14.199308   6.196881
 0.395000   14.229503   5.881348
 0.400000   14.258122   5.566406
 0.405000   14.285167   5.252121
 0.410000   14.310643   4.938557
 0.415000   14.334553   4.625781
 0.420000   14.356901   4.313856
 0.425000   14.377691   4.002846
 0.430000   14.396929   3.692814
 0.435000   14.414619   3.383822
 0.440000   14.430767   3.075933
 0.445000   14.445379   2.769207
 0.450000   14.458460   2.463705
 0.455000   14.470016   2.159486
 0.460000   14.480054   1.856611
 0.465000   14.488582   1.555137
 0.470000   14.495606   1.255122
 0.475000   14.501133   0.956623
 0.480000   14.505172   0.659696
 0.485000   14.507730   0.364397
 0.490000   14.508816   0.070779
 0.495000   14.508438   -0.221102
 0.500000   14.506605   -0.511195
 0.505000   14.503326   -0.799447
 0.510000   14.498610   -1.085807
 0.515000   14.492468   -1.370225
 0.520000   14.484908   -1.652650
 0.525000   14.475941   -1.933034
 0.530000   14.465578   -2.211330
 0.535000   14.453828   -2.487490
 0.540000   14.440703   -2.761469
 0.545000   14.426213   -3.033222
 0.550000   14.410371   -3.302705
 0.555000   14.393186   -3.569874
 0.560000   14.374672   -3.834689
 0.565000   14.354840   -4.097107
 0.570000   14.333701   -4.357090
 0.575000   14.311269   -4.614599
 0.580000   14.287555   -4.869597
 0.585000   14.262573   -5.122047
 0.590000   14.236334   -5.371915
 0.595000   14.208853   -5.619169
 0.600000   14.180143   -5.863777
 0.605000   14.150216   -6.105711
 0.610000   14.119086   -6.344943
 0.615000   14.086766   -6.581450
 0.620000   14.053271   -6.815211
 0.625000   14.018614   -7.046210
 0.630000   13.982809   -7.274433
 0.635000   13.945870   -7.499875
 0.640000   13.907810   -7.722536
 0.645000   13.868644   -7.942424
 0.650000   13.828386   -8.159558
 0.655000   13.787049   -8.373972
 0.660000   13.744646   -8.585715
 0.665000   13.701192   -8.794855
 0.670000   13.656698   -9.001489
 0.675000   13.611177   -9.205743
 0.680000   13.564640   -9.407786
 0.685000   13.517099   -9.607836
 0.690000   13.468562   -9.806177
 0.695000   13.419037   -10.003170
 0.700000   13.368530   -10.199279
 0.705000   13.317044   -10.395090
 0.710000   13.264579   -10.591346
 0.715000   13.211131   -10.788983
 0.720000   13.156690   -10.989181
 0.725000   13.101239   -11.193415
 0.730000   13.044755   -11.403532
 0.735000   12.987204   -11.621832
 0.740000   12.928537   -11.851174
 0.745000   12.868692   -12.095101
 0.750000   12.807586   -12.357984
 0.755000   12.745112   -12.645199
 0.760000   12.681134   -12.963329
 0.765000   12.615479   -13.320392
 0.770000   12.547930   -13.726105
 0.775000   12.478218   -14.192157
 0.780000   12.406009   -14.732510
 0.785000   12.330893   -15.363673
 0.790000   12.252372   -16.104945
 0.795000   12.169843   -16.978549
 0.800000   12.082586   -18.009587
 0.805000   11.989748   -19.225670
 0.810000   11.890330   -20.656035
 0.815000   11.783187   -22.329857
 0.820000   11.667031   -24.273327
 0.825000   11.540454   -26.504886
 0.830000   11.401982   -29.027730
 0.835000   11.250177   -31.818318
 0.840000   11.083799   -34.809122
 0.845000   10.902085   -37.863090
 0.850000   10.705168   -40.736391
 0.855000   10.494722   -43.024676
 0.860000   10.274921   -44.086540
 0.865000   10.053856   -42.935988
 0.870000   9.845562   -38.093827
 0.875000   9.672918   -27.386793
 0.880000   9.571694   -7.684408
 0.885000   9.596074   25.429457
 0.890000   9.825988   78.034233
 0.895000   10.376416   158.240834
 0.900000   11.408397   276.407838
 0.905000   13.140494   444.914981
 0.910000   15.857546   676.973930
 0.915000   19.910234   983.670641
 0.920000   25.694253   1368.239100
 0.925000   33.592625   1816.857840
 0.930000   43.862831   2286.750218
 0.935000   56.460127   2695.772440
 0.940000   70.820556   2922.515965
 0.945000   85.685287   2828.656302
 0.950000   99.107119   2309.005739
 0.955000   108.775344   1355.348848
 0.960000   112.660607   97.316712
 0.965000   109.748511   -1218.220846
 0.970000   100.478399   -2313.267857
 0.975000   86.615833   -2985.943635
 0.980000   70.618962   -3177.339116
 0.985000   54.842441   -2966.694175
 0.990000   40.952021   -2510.954353
 0.995000   29.732898   -1971.338010
 1.000000   21.238640   -1426.364960
201 psinorm kpol(km/s/T) dkpol/dpsiN
 0.000000   -0.007414   128.068891
 0.005000   0.504334   76.630361
 0.010000   0.758890   48.282496
 0.015000   0.987159   44.996958
 0.020000   1.208859   43.975789
 0.025000   1.426917   43.254041
 0.030000   1.641400   42.313828
 0.035000   1.850056   41.355537
 0.040000   2.054955   40.467965
 0.045000   2.254735   39.383586
 0.050000   2.448791   38.338481
 0.055000   2.638120   37.511801
 0.060000   2.823909   36.805866
 0.065000   3.006179   36.126427
 0.070000   3.185173   35.512413
 0.075000   3.361303   34.880825
 0.080000   3.533982   34.065430
 0.085000   3.701957   33.163631
 0.090000   3.865618   32.180701
 0.095000   4.023764   31.226180
 0.100000   4.177880   30.540028
 0.105000   4.329164   30.067221
 0.110000   4.478552   29.827707
 0.115000   4.627441   29.734015
 0.120000   4.775892   29.775927
 0.125000   4.925201   29.847832
 0.130000   5.074370   29.852395
 0.135000   5.223725   29.661343
 0.140000   5.370984   29.256469
 0.145000   5.516289   28.610389
 0.150000   5.657088   27.555709
 0.155000   5.791846   26.212462
 0.160000   5.919212   24.578132
 0.165000   6.037628   22.672312
 0.170000   6.145935   20.441066
 0.175000   6.242038   17.877486
 0.180000   6.324710   15.077970
 0.185000   6.392818   12.306278
 0.190000   6.447773   9.623602
 0.195000   6.489054   7.066607
 0.200000   6.518439   4.806769
 0.205000   6.537122   2.687055
 0.210000   6.545310   0.853247
 0.215000   6.545654   -0.911527
 0.220000   6.536194   -2.847888
 0.225000   6.517175   -4.849425
 0.230000   6.487700   -7.075309
 0.235000   6.446422   -9.369933
 0.240000   6.394001   -11.766910
 0.245000   6.328753   -14.297202
 0.250000   6.251029   -16.684763
 0.255000   6.161906   -19.146111
 0.260000   6.059568   -21.719768
 0.265000   5.944708   -24.301974
 0.270000   5.816548   -27.056549
 0.275000   5.674142   -29.877164
 0.280000   5.517776   -32.724924
 0.285000   5.346893   -35.720794
 0.290000   5.160568   -38.771655
 0.295000   4.959177   -41.842314
 0.300000   4.742145   -45.011073
 0.305000   4.509066   -48.116390
 0.310000   4.260981   -51.195718
 0.315000   3.997109   -54.176170
 0.320000   3.719220   -56.617353
 0.325000   3.430935   -58.346127
 0.330000   3.135758   -59.572761
 0.335000   2.835208   -60.426839
 0.340000   2.531490   -61.098223
 0.345000   2.224225   -61.923307
 0.350000   1.912257   -63.041334
 0.355000   1.593812   -64.862241
 0.360000   1.263635   -67.549580
 0.365000   0.918316   -70.921480
 0.370000   0.554420   -74.928751
 0.375000   0.169029   -79.386634
 0.380000   -0.239447   -84.058456
 0.385000   -0.671556   -88.289297
 0.390000   -1.122340   -92.020764
 0.395000   -1.591763   -96.204984
 0.400000   -2.084389   -101.532088
 0.405000   -2.607084   -108.562400
 0.410000   -3.170013   -118.753747
 0.415000   -3.794622   -131.053556
 0.420000   -4.480549   -143.593210
 0.425000   -5.230554   -156.353289
 0.430000   -6.044082   -168.782109
 0.435000   -6.918375   -180.145742
 0.440000   -7.845539   -189.542426
 0.445000   -8.813799   -194.816041
 0.450000   -9.793700   -194.766459
 0.455000   -10.761464   -189.809531
 0.460000   -11.691795   -180.043025
 0.465000   -12.561894   -165.570850
 0.470000   -13.347503   -146.427928
 0.475000   -14.026173   -125.480889
 0.480000   -14.602312   -105.615356
 0.485000   -15.082327   -87.087467
 0.490000   -15.473187   -70.407693
 0.495000   -15.786404   -56.007264
 0.500000   -16.033260   -44.685748
 0.505000   -16.233261   -37.140291
 0.510000   -16.404663   -32.443558
 0.515000   -16.557697   -29.548426
 0.520000   -16.700147   -27.476293
 0.525000   -16.832460   -25.544187
 0.530000   -16.955589   -23.557411
 0.535000   -17.068034   -20.984727
 0.540000   -17.165436   -17.627805
 0.545000   -17.244312   -13.658926
 0.550000   -17.302025   -9.292116
 0.555000   -17.337233   -4.466363
 0.560000   -17.346689   0.758349
 0.565000   -17.329650   5.871243
 0.570000   -17.287976   10.609041
 0.575000   -17.223559   14.956413
 0.580000   -17.138412   18.712453
 0.585000   -17.036435   21.469586
 0.590000   -16.923716   23.425633
 0.595000   -16.802178   24.920716
 0.600000   -16.674509   25.802818
 0.605000   -16.544150   26.219152
 0.610000   -16.412318   26.497828
 0.615000   -16.279172   26.715029
 0.620000   -16.145167   26.967286
 0.625000   -16.009499   27.376725
 0.630000   -15.871400   27.844654
 0.635000   -15.731053   28.212849
 0.640000   -15.589272   28.381487
 0.645000   -15.447238   28.424413
 0.650000   -15.305028   28.418194
 0.655000   -15.163056   28.231467
 0.660000   -15.022713   27.912061
 0.665000   -14.883935   27.558636
 0.670000   -14.747127   27.176440
 0.675000   -14.612171   26.778078
 0.680000   -14.479346   26.333581
 0.685000   -14.348835   25.775371
 0.690000   -14.221592   25.045498
 0.695000   -14.098380   24.110956
 0.700000   -13.980483   22.948455
 0.705000   -13.868895   21.515867
 0.710000   -13.765324   19.731892
 0.715000   -13.671577   17.624892
 0.720000   -13.589075   15.245862
 0.725000   -13.519118   12.661035
 0.730000   -13.462465   9.900713
 0.735000   -13.420111   7.048533
 0.740000   -13.391979   4.191615
 0.745000   -13.378195   1.374238
 0.750000   -13.378237   -1.353653
 0.755000   -13.391731   -4.094540
 0.760000   -13.419182   -7.157349
 0.765000   -13.463305   -10.989592
 0.770000   -13.529078   -15.919497
 0.775000   -13.622500   -22.227894
 0.780000   -13.751357   -30.135173
 0.785000   -13.923851   -39.795373
 0.790000   -14.149311   -51.615951
 0.795000   -14.440011   -64.489367
 0.800000   -14.794205   -77.068244
 0.805000   -15.210693   -89.104422
 0.810000   -15.685249   -99.766679
 0.815000   -16.208360   -108.098583
 0.820000   -16.766235   -113.073601
 0.825000   -17.339096   -114.345663
 0.830000   -17.909691   -112.105947
 0.835000   -18.460156   -106.657453
 0.840000   -18.976266   -98.771593
 0.845000   -19.447871   -89.556916
 0.850000   -19.871835   -79.476082
 0.855000   -20.242632   -69.638344
 0.860000   -20.568218   -60.985866
 0.865000   -20.852491   -53.490603
 0.870000   -21.103124   -46.398849
 0.875000   -21.316479   -38.860358
 0.880000   -21.491728   -31.086275
 0.885000   -21.627342   -23.098293
 0.890000   -21.722711   -14.601754
 0.895000   -21.773360   -5.075958
 0.900000   -21.773470   6.906764
 0.905000   -21.704292   24.038562
 0.910000   -21.533085   45.171644
 0.915000   -21.252576   70.975102
 0.920000   -20.823334   108.855641
 0.925000   -20.164019   160.772738
 0.930000   -19.215606   211.448635
 0.935000   -18.049533   246.120437
 0.940000   -16.754402   242.477517
 0.945000   -15.624758   167.456747
 0.950000   -15.079835   17.888136
 0.955000   -15.445876   -148.702677
 0.960000   -16.566861   -212.786728
 0.965000   -17.573744   -48.839706
 0.970000   -17.055258   375.333546
 0.975000   -13.820408   907.501639
 0.980000   -7.980242   1281.922461
 0.985000   -1.001184   1314.145285
 0.990000   5.161211   1013.692783
 0.995000   9.135744   546.331320
 1.000000   10.624524   49.180585
201 psinorm omghb() domghb/dpsiN
 0.000000   -0.000039   0.002450
 0.005000   -0.000084   -0.020261
 0.010000   -0.000242   -0.004752
 0.015000   -0.000132   0.029633
 0.020000   0.000054   0.041743
 0.025000   0.000286   0.048718
 0.030000   0.000541   0.058844
 0.035000   0.000874   0.064386
 0.040000   0.001185   0.069792
 0.045000   0.001572   0.071019
 0.050000   0.001895   0.061013
 0.055000   0.002182   0.049225
 0.060000   0.002388   0.033741
 0.065000   0.002520   0.013369
 0.070000   0.002521   0.030456
 0.075000   0.002824   0.050939
 0.080000   0.003031   0.039681
 0.085000   0.003221   0.043218
 0.090000   0.003463   0.049956
 0.095000   0.003721   0.040113
 0.100000   0.003864   0.036207
 0.105000   0.004083   0.032334
 0.110000   0.004187   0.008779
 0.115000   0.004171   -0.002916
 0.120000   0.004158   -0.007782
 0.125000   0.004093   -0.023775
 0.130000   0.003921   -0.039040
 0.135000   0.003702   -0.017859
 0.140000   0.003742   0.010955
 0.145000   0.003812   0.030733
 0.150000   0.004049   0.052772
 0.155000   0.004340   0.070842
 0.160000   0.004758   0.094716
 0.165000   0.005287   0.157194
 0.170000   0.006330   0.206989
 0.175000   0.007357   0.242523
 0.180000   0.008755   0.299934
 0.185000   0.010356   0.344878
 0.190000   0.012204   0.406366
 0.195000   0.014420   0.397087
 0.200000   0.016175   0.363350
 0.205000   0.018053   0.356567
 0.210000   0.019740   0.338224
 0.215000   0.021435   0.363780
 0.220000   0.023378   0.391289
 0.225000   0.025348   0.317068
 0.230000   0.026549   0.275072
 0.235000   0.028099   0.287273
 0.240000   0.029421   0.264067
 0.245000   0.030740   0.245316
 0.250000   0.031875   0.226411
 0.255000   0.033004   0.134539
 0.260000   0.033220   0.087236
 0.265000   0.033876   0.155353
 0.270000   0.034773   0.192892
 0.275000   0.035805   0.214862
 0.280000   0.036922   0.207537
 0.285000   0.037880   0.318414
 0.290000   0.040106   0.466341
 0.295000   0.042544   0.540882
 0.300000   0.045515   0.627462
 0.305000   0.048819   0.682634
 0.310000   0.052341   0.688808
 0.315000   0.055707   0.750970
 0.320000   0.059851   0.747169
 0.325000   0.063178   0.637674
 0.330000   0.066228   0.574581
 0.335000   0.068924   0.503361
 0.340000   0.071261   0.548457
 0.345000   0.074409   0.620833
 0.350000   0.077470   0.648528
 0.355000   0.080894   0.728137
 0.360000   0.084751   0.818138
 0.365000   0.089075   0.919087
 0.370000   0.093942   0.948952
 0.375000   0.098565   0.901104
 0.380000   0.102953   0.886669
 0.385000   0.107432   0.877087
 0.390000   0.111724   0.895684
 0.395000   0.116388   1.149872
 0.400000   0.123223   1.519657
 0.405000   0.131585   1.914246
 0.410000   0.142365   2.323074
 0.415000   0.154816   2.606023
 0.420000   0.168425   2.992317
 0.425000   0.184739   3.188456
 0.430000   0.200310   2.891121
 0.435000   0.213650   2.514755
 0.440000   0.225457   2.107163
 0.445000   0.234722   1.520832
 0.450000   0.240666   0.767036
 0.455000   0.242392   -0.275029
 0.460000   0.237916   -1.255695
 0.465000   0.229835   -1.950955
 0.470000   0.218406   -2.542736
 0.475000   0.204408   -2.870940
 0.480000   0.189697   -3.152786
 0.485000   0.172880   -2.992956
 0.490000   0.159767   -2.374800
 0.495000   0.149132   -1.867283
 0.500000   0.141094   -1.426086
 0.505000   0.134871   -1.035425
 0.510000   0.130740   -0.602841
 0.515000   0.128843   -0.333319
 0.520000   0.127407   -0.335015
 0.525000   0.125492   -0.413593
 0.530000   0.123271   -0.443001
 0.535000   0.121062   -0.543102
 0.540000   0.117840   -0.691559
 0.545000   0.114147   -0.788981
 0.550000   0.109950   -0.896847
 0.555000   0.105178   -0.994384
 0.560000   0.100006   -1.051849
 0.565000   0.094660   -1.023716
 0.570000   0.089769   -0.959460
 0.575000   0.085065   -0.890835
 0.580000   0.080861   -0.756524
 0.585000   0.077500   -0.590146
 0.590000   0.074959   -0.494889
 0.595000   0.072551   -0.403472
 0.600000   0.070924   -0.270692
 0.605000   0.069844   -0.242240
 0.610000   0.068502   -0.257543
 0.615000   0.067269   -0.180815
 0.620000   0.066694   -0.222753
 0.625000   0.065041   -0.284470
 0.630000   0.063849   -0.197097
 0.635000   0.063070   -0.088581
 0.640000   0.062963   0.045177
 0.645000   0.063522   0.370602
 0.650000   0.066669   0.716128
 0.655000   0.070683   0.918007
 0.660000   0.075849   1.059225
 0.665000   0.081276   1.056198
 0.670000   0.086411   0.931664
 0.675000   0.090592   1.116123
 0.680000   0.097573   0.676204
 0.685000   0.097354   -0.067777
 0.690000   0.096895   -0.033465
 0.695000   0.097020   -0.048774
 0.700000   0.096407   -0.169930
 0.705000   0.095320   -0.177902
 0.710000   0.094628   -0.503173
 0.715000   0.090289   -0.735490
 0.720000   0.087273   -0.473919
 0.725000   0.085549   -0.255674
 0.730000   0.084716   -0.003400
 0.735000   0.085515   0.189900
 0.740000   0.086615   0.652178
 0.745000   0.092037   1.523620
 0.750000   0.101852   2.022609
 0.755000   0.112263   2.400152
 0.760000   0.125853   2.733857
 0.765000   0.139602   2.813979
 0.770000   0.153993   3.200136
 0.775000   0.171603   3.749656
 0.780000   0.191490   3.861547
 0.785000   0.210219   3.827622
 0.790000   0.229766   3.788663
 0.795000   0.248105   3.638962
 0.800000   0.266155   3.536436
 0.805000   0.283470   3.075175
 0.810000   0.296907   2.340301
 0.815000   0.306873   1.648883
 0.820000   0.313396   0.734992
 0.825000   0.314223   -0.272308
 0.830000   0.310673   -0.981252
 0.835000   0.304410   -1.553889
 0.840000   0.295134   -1.664008
 0.845000   0.287770   -1.141783
 0.850000   0.283716   -0.564181
 0.855000   0.282128   0.197184
 0.860000   0.285688   1.917236
 0.865000   0.301301   3.110531
 0.870000   0.316793   4.629037
 0.875000   0.347591   7.745678
 0.880000   0.394250   10.871516
 0.885000   0.456306   13.756021
 0.890000   0.531810   17.329704
 0.895000   0.629603   17.800766
 0.900000   0.709818   16.048131
 0.905000   0.790084   15.066306
 0.910000   0.860481   11.434778
 0.915000   0.904432   5.297903
 0.920000   0.913460   0.409437
 0.925000   0.908527   -4.709504
 0.930000   0.866365   -4.098271
 0.935000   0.867544   7.271733
 0.940000   0.939082   24.893181
 0.945000   1.116476   47.837026
 0.950000   1.417453   70.536077
 0.955000   1.821836   40.326014
 0.960000   1.820713   -43.653963
 0.965000   1.385297   -140.396485
 0.970000   0.416748   -225.071984
 0.975000   -0.865423   -243.598309
 0.980000   -2.019235   -176.036087
 0.985000   -2.625784   -58.730209
 0.990000   -2.606537   52.542094
 0.995000   -2.100363   114.335046
 1.000000   -1.463187   140.535406
201 psinorm nz1(10^20/m^3) dnz1/dpsiN
 0.000000   0.047112   0.000011
 0.005000   0.047109   -0.001029
 0.010000   0.047101   -0.002084
 0.015000   0.047088   -0.003167
 0.020000   0.047070   -0.004272
 0.025000   0.047045   -0.005392
 0.030000   0.047016   -0.006517
 0.035000   0.046980   -0.007639
 0.040000   0.046939   -0.008744
 0.045000   0.046893   -0.009825
 0.050000   0.046841   -0.010880
 0.055000   0.046784   -0.011900
 0.060000   0.046722   -0.012881
 0.065000   0.046655   -0.013820
 0.070000   0.046584   -0.014710
 0.075000   0.046508   -0.015558
 0.080000   0.046428   -0.016371
 0.085000   0.046344   -0.017145
 0.090000   0.046257   -0.017878
 0.095000   0.046166   -0.018572
 0.100000   0.046071   -0.019228
 0.105000   0.045973   -0.019846
 0.110000   0.045873   -0.020425
 0.115000   0.045769   -0.020959
 0.120000   0.045663   -0.021445
 0.125000   0.045555   -0.021884
 0.130000   0.045444   -0.022273
 0.135000   0.045332   -0.022613
 0.140000   0.045218   -0.022901
 0.145000   0.045103   -0.023136
 0.150000   0.044987   -0.023319
 0.155000   0.044870   -0.023447
 0.160000   0.044752   -0.023521
 0.165000   0.044634   -0.023540
 0.170000   0.044517   -0.023506
 0.175000   0.044399   -0.023418
 0.180000   0.044283   -0.023278
 0.185000   0.044167   -0.023084
 0.190000   0.044052   -0.022837
 0.195000   0.043938   -0.022539
 0.200000   0.043826   -0.022202
 0.205000   0.043716   -0.021838
 0.210000   0.043608   -0.021451
 0.215000   0.043502   -0.021047
 0.220000   0.043398   -0.020629
 0.225000   0.043295   -0.020203
 0.230000   0.043196   -0.019748
 0.235000   0.043098   -0.019247
 0.240000   0.043003   -0.018704
 0.245000   0.042911   -0.018113
 0.250000   0.042822   -0.017473
 0.255000   0.042736   -0.016785
 0.260000   0.042654   -0.016037
 0.265000   0.042576   -0.015225
 0.270000   0.042502   -0.014361
 0.275000   0.042432   -0.013449
 0.280000   0.042367   -0.012493
 0.285000   0.042307   -0.011495
 0.290000   0.042252   -0.010465
 0.295000   0.042203   -0.009421
 0.300000   0.042158   -0.008371
 0.305000   0.042119   -0.007325
 0.310000   0.042085   -0.006291
 0.315000   0.042056   -0.005276
 0.320000   0.042032   -0.004291
 0.325000   0.042013   -0.003338
 0.330000   0.041999   -0.002410
 0.335000   0.041989   -0.001502
 0.340000   0.041984   -0.000610
 0.345000   0.041983   0.000270
 0.350000   0.041986   0.001140
 0.355000   0.041994   0.001997
 0.360000   0.042006   0.002834
 0.365000   0.042023   0.003645
 0.370000   0.042043   0.004422
 0.375000   0.042067   0.005155
 0.380000   0.042094   0.005836
 0.385000   0.042125   0.006455
 0.390000   0.042159   0.007007
 0.395000   0.042195   0.007484
 0.400000   0.042234   0.007884
 0.405000   0.042274   0.008196
 0.410000   0.042316   0.008423
 0.415000   0.042358   0.008581
 0.420000   0.042402   0.008677
 0.425000   0.042445   0.008712
 0.430000   0.042489   0.008689
 0.435000   0.042532   0.008611
 0.440000   0.042575   0.008480
 0.445000   0.042617   0.008287
 0.450000   0.042658   0.008019
 0.455000   0.042697   0.007667
 0.460000   0.042734   0.007218
 0.465000   0.042769   0.006664
 0.470000   0.042801   0.005993
 0.475000   0.042829   0.005200
 0.480000   0.042853   0.004289
 0.485000   0.042872   0.003270
 0.490000   0.042886   0.002152
 0.495000   0.042894   0.000946
 0.500000   0.042895   -0.000332
 0.505000   0.042890   -0.001665
 0.510000   0.042878   -0.003040
 0.515000   0.042860   -0.004446
 0.520000   0.042834   -0.005871
 0.525000   0.042801   -0.007306
 0.530000   0.042761   -0.008742
 0.535000   0.042714   -0.010193
 0.540000   0.042659   -0.011670
 0.545000   0.042597   -0.013173
 0.550000   0.042527   -0.014707
 0.555000   0.042450   -0.016277
 0.560000   0.042365   -0.017878
 0.565000   0.042271   -0.019496
 0.570000   0.042170   -0.021118
 0.575000   0.042060   -0.022737
 0.580000   0.041942   -0.024347
 0.585000   0.041816   -0.025941
 0.590000   0.041683   -0.027515
 0.595000   0.041541   -0.029068
 0.600000   0.041392   -0.030602
 0.605000   0.041235   -0.032112
 0.610000   0.041071   -0.033596
 0.615000   0.040899   -0.035050
 0.620000   0.040720   -0.036475
 0.625000   0.040535   -0.037863
 0.630000   0.040342   -0.039198
 0.635000   0.040143   -0.040478
 0.640000   0.039937   -0.041698
 0.645000   0.039726   -0.042860
 0.650000   0.039508   -0.044044
 0.655000   0.039285   -0.045403
 0.660000   0.039054   -0.047036
 0.665000   0.038815   -0.048972
 0.670000   0.038565   -0.051204
 0.675000   0.038303   -0.053692
 0.680000   0.038028   -0.056578
 0.685000   0.037737   -0.059639
 0.690000   0.037431   -0.062448
 0.695000   0.037113   -0.064978
 0.700000   0.036782   -0.067185
 0.705000   0.036441   -0.068968
 0.710000   0.036092   -0.070300
 0.715000   0.035738   -0.070971
 0.720000   0.035382   -0.070794
 0.725000   0.035030   -0.069873
 0.730000   0.034684   -0.068287
 0.735000   0.034347   -0.066085
 0.740000   0.034023   -0.063236
 0.745000   0.033714   -0.059810
 0.750000   0.033425   -0.056148
 0.755000   0.033153   -0.052457
 0.760000   0.032900   -0.048788
 0.765000   0.032665   -0.045239
 0.770000   0.032448   -0.041830
 0.775000   0.032247   -0.038662
 0.780000   0.032061   -0.035927
 0.785000   0.031888   -0.033592
 0.790000   0.031725   -0.031526
 0.795000   0.031572   -0.029664
 0.800000   0.031428   -0.027922
 0.805000   0.031293   -0.026213
 0.810000   0.031166   -0.024506
 0.815000   0.031048   -0.022825
 0.820000   0.030938   -0.021189
 0.825000   0.030836   -0.019614
 0.830000   0.030742   -0.018110
 0.835000   0.030655   -0.016686
 0.840000   0.030575   -0.015352
 0.845000   0.030502   -0.014117
 0.850000   0.030434   -0.012996
 0.855000   0.030372   -0.012008
 0.860000   0.030314   -0.011173
 0.865000   0.030260   -0.010527
 0.870000   0.030209   -0.010053
 0.875000   0.030159   -0.009738
 0.880000   0.030111   -0.009639
 0.885000   0.030063   -0.009822
 0.890000   0.030013   -0.010377
 0.895000   0.029959   -0.011549
 0.900000   0.029897   -0.013538
 0.905000   0.029824   -0.016693
 0.910000   0.029731   -0.021759
 0.915000   0.029606   -0.029777
 0.920000   0.029433   -0.042343
 0.925000   0.029183   -0.063222
 0.930000   0.028801   -0.095994
 0.935000   0.028223   -0.144091
 0.940000   0.027360   -0.212068
 0.945000   0.026102   -0.301696
 0.950000   0.024343   -0.408776
 0.955000   0.022014   -0.523805
 0.960000   0.019105   -0.618191
 0.965000   0.015832   -0.658722
 0.970000   0.012517   -0.634579
 0.975000   0.009487   -0.554669
 0.980000   0.006971   -0.443877
 0.985000   0.005048   -0.330023
 0.990000   0.003670   -0.232130
 0.995000   0.002727   -0.158033
 1.000000   0.002090   -0.096545
201 psinorm vtor1(km/s) dvtor1/dpsiN
 0.000000   146.450458   724.319507
 0.005000   149.261444   400.075117
 0.010000   150.451209   209.557618
 0.015000   151.357021   165.728540
 0.020000   152.108494   140.286048
 0.025000   152.759881   123.788678
 0.030000   153.346381   112.236704
 0.035000   153.882248   102.459410
 0.040000   154.370975   94.297382
 0.045000   154.825222   87.875439
 0.050000   155.249730   82.146212
 0.055000   155.646684   76.799889
 0.060000   156.017729   72.091234
 0.065000   156.367596   68.028737
 0.070000   156.698016   64.101508
 0.075000   157.008611   60.351648
 0.080000   157.301532   56.984439
 0.085000   157.578456   53.831169
 0.090000   157.839844   50.688428
 0.095000   158.085340   47.700917
 0.100000   158.316853   44.969098
 0.105000   158.535031   42.217268
 0.110000   158.739026   39.468645
 0.115000   158.929718   36.811556
 0.120000   159.107141   34.169994
 0.125000   159.271417   31.406190
 0.130000   159.421203   28.548990
 0.135000   159.556907   25.734110
 0.140000   159.678544   22.849489
 0.145000   159.785402   19.830945
 0.150000   159.876854   16.787529
 0.155000   159.953278   13.741634
 0.160000   160.014270   10.548966
 0.165000   160.058767   7.252174
 0.170000   160.086792   3.962849
 0.175000   160.098396   0.654227
 0.180000   160.093334   -2.716922
 0.185000   160.071227   -6.105047
 0.190000   160.032284   -9.484813
 0.195000   159.976378   -12.869653
 0.200000   159.903587   -16.155851
 0.205000   159.814820   -19.260450
 0.210000   159.710983   -22.185372
 0.215000   159.592966   -24.938309
 0.220000   159.461600   -27.419722
 0.225000   159.318769   -29.502972
 0.230000   159.166570   -31.361655
 0.235000   159.005152   -33.100197
 0.240000   158.835568   -34.623880
 0.245000   158.658914   -35.943252
 0.250000   158.476135   -37.063442
 0.255000   158.288279   -37.842958
 0.260000   158.097706   -38.492570
 0.265000   157.903353   -39.237891
 0.270000   157.705327   -39.980871
 0.275000   157.503545   -40.756246
 0.280000   157.297765   -41.616528
 0.285000   157.087379   -42.632233
 0.290000   156.871442   -43.916531
 0.295000   156.648214   -45.433292
 0.300000   156.417109   -47.060503
 0.305000   156.177609   -48.784550
 0.310000   155.929264   -50.583341
 0.315000   155.671776   -52.505261
 0.320000   155.404211   -54.533884
 0.325000   155.126437   -56.599854
 0.330000   154.838213   -58.714146
 0.335000   154.539295   -60.883174
 0.340000   154.229381   -63.117302
 0.345000   153.908122   -65.450053
 0.350000   153.574880   -67.773403
 0.355000   153.230388   -69.993252
 0.360000   152.874948   -72.133620
 0.365000   152.509052   -74.127997
 0.370000   152.133668   -75.897827
 0.375000   151.750074   -77.362299
 0.380000   151.360045   -78.431590
 0.385000   150.965758   -79.142974
 0.390000   150.568615   -79.652149
 0.395000   150.169237   -80.150211
 0.400000   149.767113   -80.870286
 0.405000   149.360534   -82.147535
 0.410000   148.945638   -84.209520
 0.415000   148.518438   -86.900148
 0.420000   148.076636   -90.058657
 0.425000   147.617852   -93.657140
 0.430000   147.140065   -97.634651
 0.435000   146.641505   -102.200234
 0.440000   146.118062   -107.232521
 0.445000   145.569180   -112.121407
 0.450000   144.996848   -116.756530
 0.455000   144.401615   -121.230384
 0.460000   143.784545   -125.428177
 0.465000   143.147333   -129.389632
 0.470000   142.490648   -132.862412
 0.475000   141.818709   -135.248873
 0.480000   141.138160   -136.562387
 0.485000   140.453085   -137.155081
 0.490000   139.766609   -137.212699
 0.495000   139.080958   -136.930298
 0.500000   138.397306   -136.454722
 0.505000   137.716411   -135.788517
 0.510000   137.039421   -134.925997
 0.515000   136.367151   -133.921244
 0.520000   135.700208   -132.787189
 0.525000   135.039279   -131.529719
 0.530000   134.384911   -130.192737
 0.535000   133.737352   -128.779818
 0.540000   133.097113   -127.287163
 0.545000   132.464480   -125.754866
 0.550000   131.839564   -124.202721
 0.555000   131.222453   -122.653540
 0.560000   130.613029   -121.165546
 0.565000   130.010797   -119.700630
 0.570000   129.416022   -118.199106
 0.575000   128.828806   -116.659327
 0.580000   128.249429   -115.049440
 0.585000   127.678312   -113.373552
 0.590000   127.115694   -111.598370
 0.595000   126.562328   -109.787346
 0.600000   126.017820   -108.062385
 0.605000   125.481704   -106.441738
 0.610000   124.953403   -104.955839
 0.615000   124.432146   -103.641959
 0.620000   123.916983   -102.431338
 0.625000   123.407833   -101.476543
 0.630000   122.902218   -100.963170
 0.635000   122.398201   -100.883422
 0.640000   121.893384   -101.339613
 0.645000   121.384805   -102.413029
 0.650000   120.869253   -104.307856
 0.655000   120.341726   -107.033270
 0.660000   119.798921   -110.277880
 0.665000   119.238947   -113.778950
 0.670000   118.661131   -117.291221
 0.675000   118.066035   -120.591741
 0.680000   117.455214   -123.454584
 0.685000   116.831489   -125.887363
 0.690000   116.196340   -128.216108
 0.695000   115.549328   -130.628498
 0.700000   114.890055   -133.129510
 0.705000   114.218033   -135.732103
 0.710000   113.532734   -138.381276
 0.715000   112.834220   -141.160928
 0.720000   112.121125   -144.195685
 0.725000   111.392264   -147.479283
 0.730000   110.646332   -151.149558
 0.735000   109.880768   -155.499661
 0.740000   109.091335   -161.291588
 0.745000   108.267852   -169.283435
 0.750000   107.398501   -178.931613
 0.755000   106.478536   -189.435153
 0.760000   105.504149   -200.460623
 0.765000   104.473930   -211.545963
 0.770000   103.388690   -222.649918
 0.775000   102.247431   -233.337801
 0.780000   101.055312   -242.181442
 0.785000   99.825616   -248.825706
 0.790000   98.567055   -253.787859
 0.795000   97.287738   -257.258023
 0.800000   95.994474   -259.880755
 0.805000   94.688930   -262.402888
 0.810000   93.370446   -263.910009
 0.815000   92.049830   -263.541013
 0.820000   90.735035   -261.488381
 0.825000   89.434946   -257.708610
 0.830000   88.157949   -252.646509
 0.835000   86.908481   -247.749749
 0.840000   85.680452   -243.597907
 0.845000   84.472502   -240.647205
 0.850000   83.273980   -240.346139
 0.855000   82.069041   -244.011229
 0.860000   80.833867   -253.770677
 0.865000   79.531334   -273.453638
 0.870000   78.099331   -304.504310
 0.875000   76.486291   -348.721515
 0.880000   74.612116   -409.956553
 0.885000   72.386725   -489.188246
 0.890000   69.720233   -584.947403
 0.895000   66.537251   -694.106404
 0.900000   62.779169   -805.410622
 0.905000   58.483145   -904.813682
 0.910000   53.731033   -980.761225
 0.915000   48.675533   -1020.136212
 0.920000   43.529671   -1013.445556
 0.925000   38.541077   -955.272543
 0.930000   33.976945   -852.531656
 0.935000   30.015761   -721.332235
 0.940000   26.763623   -577.021320
 0.945000   24.245547   -435.172325
 0.950000   22.411899   -308.726550
 0.955000   21.158282   -205.432514
 0.960000   20.357574   -130.011730
 0.965000   19.858165   -82.289282
 0.970000   19.534682   -57.236035
 0.975000   19.285804   -50.050512
 0.980000   19.034176   -55.978939
 0.985000   18.726015   -70.134107
 0.990000   18.332835   -88.865708
 0.995000   17.837358   -110.060026
 1.000000   17.232235   -131.989018
201 psinorm vpol1(km/s) dvpol1/dpsiN
 0.000000   -0.000039   4.321484
 0.005000   0.023098   4.933203
 0.010000   0.049293   5.540234
 0.015000   0.078500   6.142969
 0.020000   0.110723   6.713281
 0.025000   0.145633   7.229688
 0.030000   0.183020   7.665625
 0.035000   0.222289   8.017969
 0.040000   0.263199   8.321094
 0.045000   0.305500   8.568750
 0.050000   0.348887   8.773437
 0.055000   0.393234   8.958984
 0.060000   0.438477   9.138281
 0.065000   0.484617   9.311328
 0.070000   0.531590   9.457422
 0.075000   0.579191   9.573437
 0.080000   0.627324   9.654688
 0.085000   0.675738   9.690625
 0.090000   0.724230   9.683594
 0.095000   0.772574   9.669922
 0.100000   0.820930   9.691406
 0.105000   0.869488   9.742188
 0.110000   0.918352   9.821484
 0.115000   0.967703   9.933594
 0.120000   1.017688   10.066797
 0.125000   1.068371   10.200391
 0.130000   1.119691   10.311328
 0.135000   1.171484   10.382031
 0.140000   1.223512   10.396875
 0.145000   1.275453   10.339453
 0.150000   1.326906   10.182422
 0.155000   1.377277   9.942188
 0.160000   1.426328   9.619141
 0.165000   1.473469   9.200391
 0.170000   1.518332   8.696875
 0.175000   1.560437   8.075000
 0.180000   1.599082   7.379297
 0.185000   1.634230   6.661328
 0.190000   1.665695   5.940234
 0.195000   1.693633   5.249219
 0.200000   1.718187   4.595313
 0.205000   1.739586   3.989844
 0.210000   1.758086   3.422266
 0.215000   1.773809   2.859375
 0.220000   1.786680   2.266797
 0.225000   1.796477   1.618750
 0.230000   1.802867   0.920312
 0.235000   1.805680   0.171484
 0.240000   1.804582   -0.624219
 0.245000   1.799438   -1.434766
 0.250000   1.790234   -2.252344
 0.255000   1.776914   -3.092187
 0.260000   1.759313   -3.958203
 0.265000   1.737332   -4.863672
 0.270000   1.710676   -5.808594
 0.275000   1.679246   -6.791797
 0.280000   1.642758   -7.807031
 0.285000   1.601176   -8.847656
 0.290000   1.554281   -9.938281
 0.295000   1.501793   -11.050000
 0.300000   1.443781   -12.168750
 0.305000   1.380105   -13.308203
 0.310000   1.310699   -14.450000
 0.315000   1.235605   -15.538281
 0.320000   1.155316   -16.494531
 0.325000   1.070660   -17.232031
 0.330000   0.982996   -17.788281
 0.335000   0.892777   -18.248828
 0.340000   0.800508   -18.649219
 0.345000   0.706285   -19.076953
 0.350000   0.609738   -19.610938
 0.355000   0.510176   -20.369531
 0.360000   0.406043   -21.396875
 0.365000   0.296207   -22.657031
 0.370000   0.179473   -24.129687
 0.375000   0.054910   -25.753125
 0.380000   -0.078059   -27.456250
 0.385000   -0.219652   -29.022656
 0.390000   -0.368285   -30.435156
 0.395000   -0.524004   -32.000781
 0.400000   -0.688293   -33.944922
 0.405000   -0.863453   -36.469922
 0.410000   -1.052992   -40.063672
 0.415000   -1.264090   -44.366016
 0.420000   -1.496652   -48.781250
 0.425000   -1.751902   -53.315234
 0.430000   -2.029805   -57.729687
 0.435000   -2.329199   -61.807031
 0.440000   -2.647875   -65.277344
 0.445000   -2.981973   -67.329687
 0.450000   -3.321172   -67.561328
 0.455000   -3.657586   -66.152734
 0.460000   -3.982699   -63.077734
 0.465000   -4.288363   -58.321875
 0.470000   -4.565918   -51.952344
 0.475000   -4.807887   -44.963281
 0.480000   -5.015551   -38.222266
 0.485000   -5.190109   -31.896484
 0.490000   -5.334516   -26.246875
 0.495000   -5.452578   -21.305469
 0.500000   -5.547570   -17.368359
 0.505000   -5.626262   -14.766406
 0.510000   -5.695234   -13.161719
 0.515000   -5.757879   -12.108594
 0.520000   -5.816320   -11.347656
 0.525000   -5.871355   -10.698437
 0.530000   -5.923305   -9.976172
 0.535000   -5.971117   -9.020703
 0.540000   -6.013512   -7.836719
 0.545000   -6.049484   -6.444531
 0.550000   -6.077957   -4.849609
 0.555000   -6.097980   -3.099219
 0.560000   -6.108949   -1.258594
 0.565000   -6.110566   0.589453
 0.570000   -6.103055   2.333203
 0.575000   -6.087234   3.904297
 0.580000   -6.064012   5.253516
 0.585000   -6.034699   6.302344
 0.590000   -6.000988   7.064844
 0.595000   -5.964051   7.615234
 0.600000   -5.924836   7.972656
 0.605000   -5.884324   8.187500
 0.610000   -5.842961   8.329297
 0.615000   -5.801031   8.426562
 0.620000   -5.758695   8.570312
 0.625000   -5.715328   8.773438
 0.630000   -5.670961   8.963281
 0.635000   -5.625695   9.121875
 0.640000   -5.579742   9.230469
 0.645000   -5.533391   9.285547
 0.650000   -5.486887   9.301172
 0.655000   -5.440379   9.265234
 0.660000   -5.394234   9.189063
 0.665000   -5.348488   9.086719
 0.670000   -5.303367   8.965625
 0.675000   -5.258832   8.850781
 0.680000   -5.214859   8.719531
 0.685000   -5.171637   8.533984
 0.690000   -5.129520   8.286719
 0.695000   -5.088770   7.969141
 0.700000   -5.049828   7.566797
 0.705000   -5.013102   7.061719
 0.710000   -4.979211   6.427734
 0.715000   -4.948824   5.675000
 0.720000   -4.922461   4.822656
 0.725000   -4.900598   3.894141
 0.730000   -4.883520   2.896484
 0.735000   -4.871633   1.862500
 0.740000   -4.864895   0.828125
 0.745000   -4.863352   -0.193359
 0.750000   -4.866828   -1.187109
 0.755000   -4.875223   -2.187500
 0.760000   -4.888703   -3.304883
 0.765000   -4.908271   -4.703906
 0.770000   -4.935742   -6.502930
 0.775000   -4.973301   -8.810547
 0.780000   -5.023848   -11.710742
 0.785000   -5.090408   -15.249023
 0.790000   -5.176338   -19.574414
 0.795000   -5.286152   -24.302344
 0.800000   -5.419361   -28.941602
 0.805000   -5.575568   -33.362109
 0.810000   -5.752982   -37.269141
 0.815000   -5.948260   -40.353516
 0.820000   -6.156518   -42.225195
 0.825000   -6.370512   -42.670898
 0.830000   -6.583227   -41.804883
 0.835000   -6.788561   -39.820313
 0.840000   -6.981430   -36.952148
 0.845000   -7.158082   -33.458301
 0.850000   -7.316013   -29.627832
 0.855000   -7.454360   -26.010742
 0.860000   -7.576120   -22.822461
 0.865000   -7.682585   -19.862256
 0.870000   -7.774743   -17.057764
 0.875000   -7.853163   -14.279785
 0.880000   -7.917541   -11.403784
 0.885000   -7.967200   -8.393408
 0.890000   -8.001475   -5.207068
 0.895000   -8.019271   -1.697791
 0.900000   -8.018453   2.409485
 0.905000   -7.995176   7.595032
 0.910000   -7.942502   14.589160
 0.915000   -7.849285   24.172632
 0.920000   -7.700776   37.075732
 0.925000   -7.478527   53.317236
 0.930000   -7.167604   70.772461
 0.935000   -6.770803   84.749609
 0.940000   -6.320107   83.913281
 0.945000   -5.931670   55.149805
 0.950000   -5.768609   -2.138477
 0.955000   -5.953055   -66.370703
 0.960000   -6.432316   -91.278516
 0.965000   -6.865840   -25.369141
 0.970000   -6.686008   142.964062
 0.975000   -5.436199   353.647266
 0.980000   -3.149535   503.980078
 0.985000   -0.396398   519.076953
 0.990000   2.041234   400.557031
 0.995000   3.609172   215.147656
 1.000000   4.192711   18.267969
3 N Z A of ION SPECIES
 6.000000   6.000000   12.010700
 1.000000   1.000000   2.000000
 1.000000   1.000000   2.000000
