201 psinorm ne(10^20/m^3) dne/dpsiN
 0.000000   0.653538   -0.644146
 0.005000   0.650330   -0.638901
 0.010000   0.647149   -0.633679
 0.015000   0.643993   -0.628503
 0.020000   0.640864   -0.623373
 0.025000   0.637760   -0.618288
 0.030000   0.634681   -0.613247
 0.035000   0.631627   -0.608250
 0.040000   0.628598   -0.603297
 0.045000   0.625594   -0.598387
 0.050000   0.622614   -0.593520
 0.055000   0.619659   -0.588695
 0.060000   0.616727   -0.583913
 0.065000   0.613820   -0.579171
 0.070000   0.610936   -0.574471
 0.075000   0.608075   -0.569811
 0.080000   0.605238   -0.565192
 0.085000   0.602423   -0.560612
 0.090000   0.599631   -0.556072
 0.095000   0.596862   -0.551570
 0.100000   0.594116   -0.547107
 0.105000   0.591391   -0.542683
 0.110000   0.588689   -0.538296
 0.115000   0.586008   -0.533946
 0.120000   0.583349   -0.529634
 0.125000   0.580712   -0.525358
 0.130000   0.578096   -0.521119
 0.135000   0.575501   -0.516915
 0.140000   0.572927   -0.512747
 0.145000   0.570373   -0.508614
 0.150000   0.567841   -0.504516
 0.155000   0.565328   -0.500453
 0.160000   0.562836   -0.496423
 0.165000   0.560364   -0.492428
 0.170000   0.557912   -0.488466
 0.175000   0.555479   -0.484536
 0.180000   0.553066   -0.480640
 0.185000   0.550673   -0.476776
 0.190000   0.548299   -0.472944
 0.195000   0.545943   -0.469144
 0.200000   0.543607   -0.465376
 0.205000   0.541290   -0.461638
 0.210000   0.538991   -0.457932
 0.215000   0.536710   -0.454255
 0.220000   0.534448   -0.450610
 0.225000   0.532204   -0.446994
 0.230000   0.529978   -0.443407
 0.235000   0.527770   -0.439850
 0.240000   0.525580   -0.436322
 0.245000   0.523407   -0.432823
 0.250000   0.521252   -0.429352
 0.255000   0.519114   -0.425909
 0.260000   0.516993   -0.422494
 0.265000   0.514889   -0.419107
 0.270000   0.512801   -0.415747
 0.275000   0.510731   -0.412414
 0.280000   0.508677   -0.409107
 0.285000   0.506640   -0.405828
 0.290000   0.504619   -0.402574
 0.295000   0.502614   -0.399347
 0.300000   0.500626   -0.396145
 0.305000   0.498653   -0.392968
 0.310000   0.496696   -0.389817
 0.315000   0.494755   -0.386691
 0.320000   0.492829   -0.383589
 0.325000   0.490919   -0.380512
 0.330000   0.489024   -0.377459
 0.335000   0.487144   -0.374431
 0.340000   0.485280   -0.371425
 0.345000   0.483430   -0.368444
 0.350000   0.481595   -0.365485
 0.355000   0.479775   -0.362550
 0.360000   0.477970   -0.359637
 0.365000   0.476179   -0.356747
 0.370000   0.474402   -0.353879
 0.375000   0.472640   -0.351034
 0.380000   0.470892   -0.348210
 0.385000   0.469158   -0.345408
 0.390000   0.467438   -0.342627
 0.395000   0.465732   -0.339868
 0.400000   0.464039   -0.337130
 0.405000   0.462360   -0.334412
 0.410000   0.460695   -0.331715
 0.415000   0.459043   -0.329039
 0.420000   0.457405   -0.326383
 0.425000   0.455779   -0.323746
 0.430000   0.454167   -0.321130
 0.435000   0.452568   -0.318533
 0.440000   0.450982   -0.315956
 0.445000   0.449408   -0.313398
 0.450000   0.447848   -0.310859
 0.455000   0.446300   -0.308339
 0.460000   0.444764   -0.305837
 0.465000   0.443241   -0.303354
 0.470000   0.441731   -0.300889
 0.475000   0.440233   -0.298442
 0.480000   0.438746   -0.296014
 0.485000   0.437272   -0.293603
 0.490000   0.435810   -0.291209
 0.495000   0.434360   -0.288833
 0.500000   0.432922   -0.286474
 0.505000   0.431496   -0.284133
 0.510000   0.430081   -0.281808
 0.515000   0.428678   -0.279500
 0.520000   0.427286   -0.277208
 0.525000   0.425905   -0.274933
 0.530000   0.424536   -0.272674
 0.535000   0.423179   -0.270431
 0.540000   0.421832   -0.268204
 0.545000   0.420497   -0.265992
 0.550000   0.419172   -0.263797
 0.555000   0.417859   -0.261616
 0.560000   0.416556   -0.259451
 0.565000   0.415264   -0.257301
 0.570000   0.413983   -0.255166
 0.575000   0.412713   -0.253046
 0.580000   0.411453   -0.250940
 0.585000   0.410203   -0.248848
 0.590000   0.408964   -0.246771
 0.595000   0.407735   -0.244708
 0.600000   0.406517   -0.242659
 0.605000   0.405309   -0.240624
 0.610000   0.404111   -0.238603
 0.615000   0.402923   -0.236594
 0.620000   0.401745   -0.234599
 0.625000   0.400577   -0.232617
 0.630000   0.399419   -0.230647
 0.635000   0.398270   -0.228690
 0.640000   0.397132   -0.226745
 0.645000   0.396003   -0.224812
 0.650000   0.394884   -0.222890
 0.655000   0.393774   -0.220979
 0.660000   0.392674   -0.219078
 0.665000   0.391583   -0.217188
 0.670000   0.390502   -0.215306
 0.675000   0.389430   -0.213433
 0.680000   0.388368   -0.211567
 0.685000   0.387314   -0.209707
 0.690000   0.386271   -0.207852
 0.695000   0.385236   -0.206000
 0.700000   0.384211   -0.204149
 0.705000   0.383194   -0.202296
 0.710000   0.382188   -0.200438
 0.715000   0.381190   -0.198571
 0.720000   0.380202   -0.196691
 0.725000   0.379223   -0.194793
 0.730000   0.378254   -0.192870
 0.735000   0.377294   -0.190913
 0.740000   0.376345   -0.188912
 0.745000   0.375405   -0.186856
 0.750000   0.374476   -0.184731
 0.755000   0.373558   -0.182518
 0.760000   0.372651   -0.180197
 0.765000   0.371756   -0.177742
 0.770000   0.370874   -0.175123
 0.775000   0.370005   -0.172303
 0.780000   0.369151   -0.169239
 0.785000   0.368312   -0.165879
 0.790000   0.367492   -0.162162
 0.795000   0.366691   -0.158015
 0.800000   0.365912   -0.153353
 0.805000   0.365157   -0.148078
 0.810000   0.364431   -0.142076
 0.815000   0.363737   -0.135217
 0.820000   0.363079   -0.127355
 0.825000   0.362463   -0.118326
 0.830000   0.361895   -0.107956
 0.835000   0.361383   -0.096060
 0.840000   0.360935   -0.082455
 0.845000   0.360559   -0.066973
 0.850000   0.360265   -0.049486
 0.855000   0.360064   -0.029940
 0.860000   0.359966   -0.008410
 0.865000   0.359980   0.014820
 0.870000   0.360114   0.039149
 0.875000   0.360371   0.063498
 0.880000   0.360749   0.086089
 0.885000   0.361232   0.104155
 0.890000   0.361790   0.113551
 0.895000   0.362368   0.108294
 0.900000   0.362873   0.080032
 0.905000   0.363168   0.017560
 0.910000   0.363049   -0.093430
 0.915000   0.362234   -0.270003
 0.920000   0.360349   -0.530480
 0.925000   0.356929   -0.891139
 0.930000   0.351438   -1.360605
 0.935000   0.343323   -1.932302
 0.940000   0.332115   -2.576960
 0.945000   0.317553   -3.239164
 0.950000   0.299723   -3.842675
 0.955000   0.279127   -4.306564
 0.960000   0.256657   -4.567966
 0.965000   0.233447   -4.601377
 0.970000   0.210644   -4.424533
 0.975000   0.189202   -4.088419
 0.980000   0.169759   -3.658049
 0.985000   0.152621   -3.194107
 0.990000   0.137818   -2.742069
 0.995000   0.125200   -2.329600
 1.000000   0.114522   -1.941669
201 psinorm te(KeV) dte/dpsiN
 0.000000   3.752979   -2.965408
 0.005000   3.738127   -2.975453
 0.010000   3.723224   -2.985391
 0.015000   3.708273   -2.995114
 0.020000   3.693273   -3.004624
 0.025000   3.678227   -3.013919
 0.030000   3.663134   -3.023000
 0.035000   3.647997   -3.031867
 0.040000   3.632815   -3.040520
 0.045000   3.617591   -3.048960
 0.050000   3.602326   -3.057186
 0.055000   3.587020   -3.065198
 0.060000   3.571674   -3.072997
 0.065000   3.556290   -3.080583
 0.070000   3.540868   -3.087956
 0.075000   3.525410   -3.095117
 0.080000   3.509917   -3.102066
 0.085000   3.494389   -3.108802
 0.090000   3.478829   -3.115328
 0.095000   3.463236   -3.121642
 0.100000   3.447612   -3.127745
 0.105000   3.431959   -3.133638
 0.110000   3.416276   -3.139321
 0.115000   3.400565   -3.144795
 0.120000   3.384828   -3.150059
 0.125000   3.369065   -3.155116
 0.130000   3.353277   -3.159964
 0.135000   3.337465   -3.164605
 0.140000   3.321631   -3.169039
 0.145000   3.305775   -3.173267
 0.150000   3.289898   -3.177289
 0.155000   3.274002   -3.181107
 0.160000   3.258087   -3.184720
 0.165000   3.242155   -3.188129
 0.170000   3.226206   -3.191336
 0.175000   3.210241   -3.194340
 0.180000   3.194262   -3.197143
 0.185000   3.178270   -3.199745
 0.190000   3.162265   -3.202148
 0.195000   3.146248   -3.204351
 0.200000   3.130221   -3.206355
 0.205000   3.114185   -3.208163
 0.210000   3.098140   -3.209773
 0.215000   3.082087   -3.211188
 0.220000   3.066028   -3.212408
 0.225000   3.049963   -3.213434
 0.230000   3.033894   -3.214267
 0.235000   3.017820   -3.214908
 0.240000   3.001745   -3.215358
 0.245000   2.985667   -3.215617
 0.250000   2.969588   -3.215688
 0.255000   2.953510   -3.215570
 0.260000   2.937433   -3.215265
 0.265000   2.921357   -3.214774
 0.270000   2.905285   -3.214098
 0.275000   2.889216   -3.213238
 0.280000   2.873153   -3.212195
 0.285000   2.857094   -3.210971
 0.290000   2.841043   -3.209566
 0.295000   2.824999   -3.207981
 0.300000   2.808963   -3.206218
 0.305000   2.792937   -3.204278
 0.310000   2.776920   -3.202162
 0.315000   2.760915   -3.199872
 0.320000   2.744922   -3.197407
 0.325000   2.728941   -3.194770
 0.330000   2.712974   -3.191963
 0.335000   2.697021   -3.188985
 0.340000   2.681084   -3.185839
 0.345000   2.665163   -3.182525
 0.350000   2.649259   -3.179045
 0.355000   2.633372   -3.175401
 0.360000   2.617505   -3.171593
 0.365000   2.601656   -3.167623
 0.370000   2.585828   -3.163492
 0.375000   2.570022   -3.159201
 0.380000   2.554236   -3.154753
 0.385000   2.538474   -3.150148
 0.390000   2.522735   -3.145387
 0.395000   2.507020   -3.140473
 0.400000   2.491330   -3.135405
 0.405000   2.475666   -3.130187
 0.410000   2.460028   -3.124819
 0.415000   2.444418   -3.119302
 0.420000   2.428835   -3.113638
 0.425000   2.413282   -3.107829
 0.430000   2.397757   -3.101876
 0.435000   2.382263   -3.095780
 0.440000   2.366799   -3.089543
 0.445000   2.351367   -3.083166
 0.450000   2.335968   -3.076651
 0.455000   2.320601   -3.070000
 0.460000   2.305268   -3.063212
 0.465000   2.289969   -3.056291
 0.470000   2.274705   -3.049238
 0.475000   2.259476   -3.042054
 0.480000   2.244284   -3.034741
 0.485000   2.229129   -3.027300
 0.490000   2.214011   -3.019732
 0.495000   2.198932   -3.012040
 0.500000   2.183891   -3.004224
 0.505000   2.168889   -2.996287
 0.510000   2.153928   -2.988230
 0.515000   2.139007   -2.980053
 0.520000   2.124127   -2.971760
 0.525000   2.109289   -2.963351
 0.530000   2.094494   -2.954829
 0.535000   2.079741   -2.946193
 0.540000   2.065032   -2.937447
 0.545000   2.050367   -2.928591
 0.550000   2.035746   -2.919628
 0.555000   2.021170   -2.910558
 0.560000   2.006640   -2.901383
 0.565000   1.992157   -2.892105
 0.570000   1.977719   -2.882726
 0.575000   1.963329   -2.873246
 0.580000   1.948987   -2.863668
 0.585000   1.934693   -2.853993
 0.590000   1.920447   -2.844222
 0.595000   1.906250   -2.834357
 0.600000   1.892103   -2.824400
 0.605000   1.878006   -2.814352
 0.610000   1.863960   -2.804215
 0.615000   1.849964   -2.793990
 0.620000   1.836020   -2.783678
 0.625000   1.822127   -2.773282
 0.630000   1.808287   -2.762802
 0.635000   1.794499   -2.752241
 0.640000   1.780765   -2.741598
 0.645000   1.767083   -2.730877
 0.650000   1.753456   -2.720078
 0.655000   1.739883   -2.709203
 0.660000   1.726364   -2.698253
 0.665000   1.712900   -2.687229
 0.670000   1.699492   -2.676132
 0.675000   1.686139   -2.664964
 0.680000   1.672842   -2.653725
 0.685000   1.659602   -2.642417
 0.690000   1.646418   -2.631040
 0.695000   1.633291   -2.619595
 0.700000   1.620222   -2.608083
 0.705000   1.607210   -2.596504
 0.710000   1.594257   -2.584858
 0.715000   1.581362   -2.573145
 0.720000   1.568525   -2.561364
 0.725000   1.555748   -2.549516
 0.730000   1.543030   -2.537599
 0.735000   1.530372   -2.525612
 0.740000   1.517774   -2.513553
 0.745000   1.505237   -2.501420
 0.750000   1.492760   -2.489211
 0.755000   1.480345   -2.476923
 0.760000   1.467991   -2.464554
 0.765000   1.455699   -2.452101
 0.770000   1.443470   -2.439562
 0.775000   1.431303   -2.426936
 0.780000   1.419200   -2.414224
 0.785000   1.407161   -2.401430
 0.790000   1.395186   -2.388562
 0.795000   1.383276   -2.375637
 0.800000   1.371430   -2.362681
 0.805000   1.359649   -2.349737
 0.810000   1.347932   -2.336869
 0.815000   1.336280   -2.324171
 0.820000   1.324691   -2.311784
 0.825000   1.313162   -2.299906
 0.830000   1.301692   -2.288824
 0.835000   1.290274   -2.278935
 0.840000   1.278902   -2.270801
 0.845000   1.267566   -2.265195
 0.850000   1.256250   -2.263189
 0.855000   1.244934   -2.266250
 0.860000   1.233588   -2.276383
 0.865000   1.222170   -2.296316
 0.870000   1.210625   -2.329735
 0.875000   1.198873   -2.381605
 0.880000   1.186809   -2.458568
 0.885000   1.174287   -2.569449
 0.890000   1.161114   -2.725874
 0.895000   1.147028   -2.942983
 0.900000   1.131684   -3.240193
 0.905000   1.114627   -3.641885
 0.910000   1.095265   -4.177754
 0.915000   1.072849   -4.882356
 0.920000   1.046442   -5.793064
 0.925000   1.014918   -6.945265
 0.930000   0.976989   -8.363301
 0.935000   0.931285   -10.045780
 0.940000   0.876531   -11.945171
 0.945000   0.811834   -13.945024
 0.950000   0.737081   -15.844226
 0.955000   0.653391   -17.364440
 0.960000   0.563437   -18.197804
 0.965000   0.471413   -18.097640
 0.970000   0.382460   -16.983200
 0.975000   0.301581   -14.999909
 0.980000   0.232461   -12.485034
 0.985000   0.176731   -9.846602
 0.990000   0.133995   -7.425509
 0.995000   0.102476   -5.416119
 1.000000   0.079834   -3.640623
201 psinorm ni(10^20/m^3) dni/dpsiN
 0.000000   0.381901   -0.753107
 0.005000   0.378290   -0.691383
 0.010000   0.374988   -0.633895
 0.015000   0.371951   -0.583125
 0.020000   0.369156   -0.536031
 0.025000   0.366591   -0.491742
 0.030000   0.364239   -0.450654
 0.035000   0.362084   -0.412675
 0.040000   0.360112   -0.377253
 0.045000   0.358312   -0.344860
 0.050000   0.356663   -0.314877
 0.055000   0.355163   -0.287151
 0.060000   0.353792   -0.261560
 0.065000   0.352547   -0.238026
 0.070000   0.351412   -0.216810
 0.075000   0.350379   -0.196974
 0.080000   0.349442   -0.178965
 0.085000   0.348590   -0.162603
 0.090000   0.347816   -0.147540
 0.095000   0.347114   -0.133702
 0.100000   0.346479   -0.120981
 0.105000   0.345904   -0.109250
 0.110000   0.345386   -0.098456
 0.115000   0.344920   -0.088637
 0.120000   0.344500   -0.079754
 0.125000   0.344122   -0.071730
 0.130000   0.343783   -0.064522
 0.135000   0.343477   -0.058197
 0.140000   0.343201   -0.052798
 0.145000   0.342949   -0.048247
 0.150000   0.342718   -0.044476
 0.155000   0.342504   -0.041471
 0.160000   0.342304   -0.039241
 0.165000   0.342112   -0.037810
 0.170000   0.341925   -0.037139
 0.175000   0.341741   -0.037221
 0.180000   0.341553   -0.038253
 0.185000   0.341358   -0.039923
 0.190000   0.341154   -0.042080
 0.195000   0.340937   -0.045022
 0.200000   0.340704   -0.048549
 0.205000   0.340452   -0.052503
 0.210000   0.340179   -0.056870
 0.215000   0.339883   -0.061732
 0.220000   0.339562   -0.067090
 0.225000   0.339212   -0.072096
 0.230000   0.338841   -0.076152
 0.235000   0.338451   -0.079563
 0.240000   0.338045   -0.082584
 0.245000   0.337625   -0.085565
 0.250000   0.337189   -0.088654
 0.255000   0.336738   -0.091220
 0.260000   0.336277   -0.093598
 0.265000   0.335802   -0.096472
 0.270000   0.335312   -0.099783
 0.275000   0.334804   -0.103887
 0.280000   0.334273   -0.108399
 0.285000   0.333720   -0.113127
 0.290000   0.333142   -0.118718
 0.295000   0.332533   -0.125289
 0.300000   0.331889   -0.132771
 0.305000   0.331206   -0.140648
 0.310000   0.330483   -0.148631
 0.315000   0.329719   -0.157170
 0.320000   0.328911   -0.166048
 0.325000   0.328059   -0.174703
 0.330000   0.327164   -0.182880
 0.335000   0.326230   -0.190548
 0.340000   0.325259   -0.197751
 0.345000   0.324252   -0.204668
 0.350000   0.323212   -0.210855
 0.355000   0.322144   -0.216060
 0.360000   0.321051   -0.220759
 0.365000   0.319936   -0.225183
 0.370000   0.318800   -0.229370
 0.375000   0.317643   -0.233245
 0.380000   0.316467   -0.236965
 0.385000   0.315273   -0.240652
 0.390000   0.314061   -0.244305
 0.395000   0.312830   -0.247764
 0.400000   0.311583   -0.250973
 0.405000   0.310320   -0.254005
 0.410000   0.309043   -0.256910
 0.415000   0.307751   -0.259570
 0.420000   0.306447   -0.261887
 0.425000   0.305132   -0.263928
 0.430000   0.303808   -0.265721
 0.435000   0.302475   -0.267228
 0.440000   0.301136   -0.268386
 0.445000   0.299791   -0.269245
 0.450000   0.298443   -0.269871
 0.455000   0.297092   -0.270273
 0.460000   0.295740   -0.270397
 0.465000   0.294389   -0.270240
 0.470000   0.293038   -0.269811
 0.475000   0.291690   -0.269098
 0.480000   0.290347   -0.267985
 0.485000   0.289011   -0.266379
 0.490000   0.287683   -0.264284
 0.495000   0.286368   -0.261692
 0.500000   0.285066   -0.258559
 0.505000   0.283782   -0.254825
 0.510000   0.282518   -0.250529
 0.515000   0.281277   -0.245735
 0.520000   0.280061   -0.240525
 0.525000   0.278872   -0.234914
 0.530000   0.277712   -0.228953
 0.535000   0.276582   -0.222751
 0.540000   0.275484   -0.216384
 0.545000   0.274418   -0.209888
 0.550000   0.273385   -0.203249
 0.555000   0.272386   -0.196495
 0.560000   0.271420   -0.189652
 0.565000   0.270489   -0.182673
 0.570000   0.269594   -0.175475
 0.575000   0.268734   -0.168044
 0.580000   0.267913   -0.160428
 0.585000   0.267130   -0.152675
 0.590000   0.266386   -0.144861
 0.595000   0.265682   -0.136994
 0.600000   0.265016   -0.129077
 0.605000   0.264391   -0.121163
 0.610000   0.263805   -0.113264
 0.615000   0.263258   -0.105403
 0.620000   0.262751   -0.097536
 0.625000   0.262283   -0.089636
 0.630000   0.261854   -0.081756
 0.635000   0.261465   -0.073917
 0.640000   0.261115   -0.066147
 0.645000   0.260804   -0.058469
 0.650000   0.260530   -0.050859
 0.655000   0.260295   -0.043412
 0.660000   0.260096   -0.036254
 0.665000   0.259933   -0.029306
 0.670000   0.259803   -0.022318
 0.675000   0.259709   -0.014864
 0.680000   0.259655   -0.005797
 0.685000   0.259651   0.005399
 0.690000   0.259709   0.017991
 0.695000   0.259831   0.031596
 0.700000   0.260025   0.045994
 0.705000   0.260291   0.060725
 0.710000   0.260632   0.075985
 0.715000   0.261051   0.090554
 0.720000   0.261537   0.102393
 0.725000   0.262075   0.111376
 0.730000   0.262651   0.117536
 0.735000   0.263250   0.120543
 0.740000   0.263857   0.120141
 0.745000   0.264452   0.115849
 0.750000   0.265015   0.107840
 0.755000   0.265530   0.097006
 0.760000   0.265985   0.084011
 0.765000   0.266370   0.069503
 0.770000   0.266680   0.053810
 0.775000   0.266908   0.037642
 0.780000   0.267057   0.022706
 0.785000   0.267136   0.009689
 0.790000   0.267153   -0.001603
 0.795000   0.267120   -0.010986
 0.800000   0.267044   -0.018416
 0.805000   0.266935   -0.023725
 0.810000   0.266806   -0.026782
 0.815000   0.266668   -0.028024
 0.820000   0.266526   -0.027866
 0.825000   0.266389   -0.026319
 0.830000   0.266263   -0.023253
 0.835000   0.266156   -0.018459
 0.840000   0.266078   -0.011708
 0.845000   0.266039   -0.002790
 0.850000   0.266050   0.008473
 0.855000   0.266124   0.022179
 0.860000   0.266272   0.038301
 0.865000   0.266507   0.056606
 0.870000   0.266838   0.076540
 0.875000   0.267272   0.097065
 0.880000   0.267809   0.116414
 0.885000   0.268437   0.131826
 0.890000   0.269127   0.139205
 0.895000   0.269829   0.132586
 0.900000   0.270453   0.104018
 0.905000   0.270869   0.043232
 0.910000   0.270885   -0.062566
 0.915000   0.270243   -0.227733
 0.920000   0.268608   -0.466045
 0.925000   0.265583   -0.784638
 0.930000   0.260762   -1.180731
 0.935000   0.253775   -1.635123
 0.940000   0.244410   -2.104731
 0.945000   0.232728   -2.526845
 0.950000   0.219142   -2.833675
 0.955000   0.204391   -2.966928
 0.960000   0.189473   -2.931780
 0.965000   0.175073   -2.787286
 0.970000   0.161600   -2.591792
 0.975000   0.149156   -2.392884
 0.980000   0.137671   -2.208579
 0.985000   0.127070   -2.034035
 0.990000   0.117331   -1.858352
 0.995000   0.108486   -1.674437
 1.000000   0.100586   -1.485552
201 psinorm ti(KeV) dti/dpsiN
 0.000000   4.780479   0.001790
 0.005000   4.779974   -0.203760
 0.010000   4.778441   -0.411906
 0.015000   4.775855   -0.624945
 0.020000   4.772192   -0.842211
 0.025000   4.767433   -1.062904
 0.030000   4.761563   -1.286108
 0.035000   4.754571   -1.510839
 0.040000   4.746454   -1.735668
 0.045000   4.737215   -1.959732
 0.050000   4.726857   -2.182537
 0.055000   4.715389   -2.403113
 0.060000   4.702826   -2.620750
 0.065000   4.689182   -2.834925
 0.070000   4.674476   -3.044719
 0.075000   4.658735   -3.250472
 0.080000   4.641972   -3.452877
 0.085000   4.624206   -3.651480
 0.090000   4.605457   -3.846222
 0.095000   4.585744   -4.037229
 0.100000   4.565085   -4.224694
 0.105000   4.543497   -4.408851
 0.110000   4.520996   -4.589460
 0.115000   4.497602   -4.766068
 0.120000   4.473335   -4.938384
 0.125000   4.448218   -5.105938
 0.130000   4.422276   -5.268319
 0.135000   4.395535   -5.424462
 0.140000   4.368031   -5.573131
 0.145000   4.339804   -5.714012
 0.150000   4.310891   -5.846848
 0.155000   4.281335   -5.971163
 0.160000   4.251180   -6.086233
 0.165000   4.220473   -6.191088
 0.170000   4.189269   -6.285554
 0.175000   4.157617   -6.369725
 0.180000   4.125572   -6.443344
 0.185000   4.093184   -6.506402
 0.190000   4.060508   -6.558279
 0.195000   4.027601   -6.598711
 0.200000   3.994520   -6.630766
 0.205000   3.961294   -6.657308
 0.210000   3.927947   -6.679599
 0.215000   3.894498   -6.699646
 0.220000   3.860951   -6.719536
 0.225000   3.827302   -6.742462
 0.230000   3.793526   -6.767627
 0.235000   3.759626   -6.792704
 0.240000   3.725599   -6.818025
 0.245000   3.691446   -6.843089
 0.250000   3.657168   -6.868125
 0.255000   3.622764   -6.895313
 0.260000   3.588215   -6.916350
 0.265000   3.553601   -6.925206
 0.270000   3.518963   -6.925219
 0.275000   3.484349   -6.915300
 0.280000   3.449810   -6.894647
 0.285000   3.415402   -6.863137
 0.290000   3.381179   -6.816440
 0.295000   3.347238   -6.753127
 0.300000   3.313647   -6.675977
 0.305000   3.280478   -6.584696
 0.310000   3.247801   -6.479592
 0.315000   3.215682   -6.358926
 0.320000   3.184211   -6.232090
 0.325000   3.153361   -6.108336
 0.330000   3.123128   -5.985858
 0.335000   3.093503   -5.865473
 0.340000   3.064473   -5.747979
 0.345000   3.036023   -5.634072
 0.350000   3.008132   -5.525889
 0.355000   2.980764   -5.423750
 0.360000   2.953895   -5.326004
 0.365000   2.927504   -5.232385
 0.370000   2.901571   -5.142626
 0.375000   2.876078   -5.058806
 0.380000   2.850983   -4.977475
 0.385000   2.826303   -4.891158
 0.390000   2.802071   -4.797790
 0.395000   2.778325   -4.696755
 0.400000   2.755104   -4.587841
 0.405000   2.732447   -4.469370
 0.410000   2.710410   -4.342309
 0.415000   2.689024   -4.213048
 0.420000   2.668280   -4.085689
 0.425000   2.648167   -3.961418
 0.430000   2.628666   -3.841359
 0.435000   2.609753   -3.724246
 0.440000   2.591423   -3.610988
 0.445000   2.573643   -3.505181
 0.450000   2.556371   -3.406620
 0.455000   2.539577   -3.314248
 0.460000   2.523229   -3.228365
 0.465000   2.507293   -3.148883
 0.470000   2.491740   -3.076829
 0.475000   2.476525   -3.013308
 0.480000   2.461607   -2.957388
 0.485000   2.446951   -2.907922
 0.490000   2.432528   -2.863924
 0.495000   2.418312   -2.823777
 0.500000   2.404290   -2.784263
 0.505000   2.390469   -2.743400
 0.510000   2.376856   -2.702514
 0.515000   2.363444   -2.662869
 0.520000   2.350227   -2.624741
 0.525000   2.337197   -2.587994
 0.530000   2.324347   -2.552060
 0.535000   2.311676   -2.517984
 0.540000   2.299167   -2.486568
 0.545000   2.286811   -2.457262
 0.550000   2.274595   -2.430131
 0.555000   2.262509   -2.405075
 0.560000   2.250544   -2.381598
 0.565000   2.238693   -2.360980
 0.570000   2.226934   -2.343928
 0.575000   2.215254   -2.329516
 0.580000   2.203639   -2.317736
 0.585000   2.192077   -2.308551
 0.590000   2.180554   -2.302083
 0.595000   2.169056   -2.298672
 0.600000   2.157567   -2.298275
 0.605000   2.146073   -2.300625
 0.610000   2.134561   -2.305608
 0.615000   2.123017   -2.313038
 0.620000   2.111430   -2.324102
 0.625000   2.099776   -2.337398
 0.630000   2.088056   -2.350914
 0.635000   2.076267   -2.365197
 0.640000   2.064404   -2.379906
 0.645000   2.052468   -2.394633
 0.650000   2.040458   -2.410551
 0.655000   2.028362   -2.427268
 0.660000   2.016185   -2.444178
 0.665000   2.003920   -2.462592
 0.670000   1.991559   -2.482460
 0.675000   1.979096   -2.503283
 0.680000   1.966527   -2.526158
 0.685000   1.953834   -2.547514
 0.690000   1.941051   -2.562327
 0.695000   1.928211   -2.570967
 0.700000   1.915342   -2.573690
 0.705000   1.902474   -2.570292
 0.710000   1.889639   -2.559895
 0.715000   1.876875   -2.541883
 0.720000   1.864220   -2.517791
 0.725000   1.851697   -2.488951
 0.730000   1.839330   -2.455683
 0.735000   1.827140   -2.418605
 0.740000   1.815144   -2.376455
 0.745000   1.803376   -2.330355
 0.750000   1.791841   -2.285914
 0.755000   1.780517   -2.245706
 0.760000   1.769384   -2.210368
 0.765000   1.758413   -2.181494
 0.770000   1.747569   -2.160082
 0.775000   1.736812   -2.146233
 0.780000   1.726107   -2.137509
 0.785000   1.715437   -2.131411
 0.790000   1.704792   -2.127566
 0.795000   1.694161   -2.125986
 0.800000   1.683533   -2.127711
 0.805000   1.672884   -2.136051
 0.810000   1.662172   -2.152020
 0.815000   1.651364   -2.175276
 0.820000   1.640419   -2.206645
 0.825000   1.629298   -2.245684
 0.830000   1.617962   -2.293102
 0.835000   1.606367   -2.350335
 0.840000   1.594459   -2.408437
 0.845000   1.582282   -2.462898
 0.850000   1.569830   -2.520059
 0.855000   1.557082   -2.583355
 0.860000   1.543997   -2.658293
 0.865000   1.530499   -2.756688
 0.870000   1.516430   -2.875841
 0.875000   1.501740   -3.012215
 0.880000   1.486308   -3.174958
 0.885000   1.469991   -3.367734
 0.890000   1.452630   -3.595340
 0.895000   1.434037   -3.890902
 0.900000   1.413721   -4.253441
 0.905000   1.391503   -4.671262
 0.910000   1.367009   -5.168775
 0.915000   1.339815   -5.756288
 0.920000   1.309446   -6.444984
 0.925000   1.275365   -7.300566
 0.930000   1.236440   -8.279757
 0.935000   1.192568   -9.305248
 0.940000   1.143388   -10.390741
 0.945000   1.088660   -11.498307
 0.950000   1.028404   -12.567300
 0.955000   0.962987   -13.560784
 0.960000   0.892797   -14.334483
 0.965000   0.819643   -14.745184
 0.970000   0.745345   -14.780412
 0.975000   0.671838   -14.425442
 0.980000   0.601090   -13.694963
 0.985000   0.534889   -12.625202
 0.990000   0.474838   -11.294065
 0.995000   0.421948   -9.832614
 1.000000   0.376512   -8.341786
201 psinorm nb(10^20/m^3) dnb/dpsiN
 0.000000   0.072702   0.108886
 0.005000   0.073131   0.062567
 0.010000   0.073328   0.020554
 0.015000   0.073337   -0.014616
 0.020000   0.073182   -0.046025
 0.025000   0.072876   -0.074597
 0.030000   0.072436   -0.099989
 0.035000   0.071877   -0.122355
 0.040000   0.071212   -0.142330
 0.045000   0.070453   -0.159476
 0.050000   0.069618   -0.174422
 0.055000   0.068709   -0.187360
 0.060000   0.067744   -0.198441
 0.065000   0.066725   -0.207767
 0.070000   0.065666   -0.215112
 0.075000   0.064573   -0.221393
 0.080000   0.063453   -0.226137
 0.085000   0.062312   -0.229543
 0.090000   0.061157   -0.231954
 0.095000   0.059993   -0.233408
 0.100000   0.058823   -0.233920
 0.105000   0.057653   -0.233567
 0.110000   0.056487   -0.232484
 0.115000   0.055329   -0.230699
 0.120000   0.054180   -0.228276
 0.125000   0.053046   -0.225331
 0.130000   0.051927   -0.221921
 0.135000   0.050827   -0.218064
 0.140000   0.049746   -0.213833
 0.145000   0.048688   -0.209306
 0.150000   0.047653   -0.204551
 0.155000   0.046643   -0.199612
 0.160000   0.045657   -0.194527
 0.165000   0.044697   -0.189331
 0.170000   0.043764   -0.184057
 0.175000   0.042857   -0.178684
 0.180000   0.041977   -0.173026
 0.185000   0.041127   -0.167406
 0.190000   0.040303   -0.162055
 0.195000   0.039506   -0.156761
 0.200000   0.038735   -0.151551
 0.205000   0.037991   -0.146441
 0.210000   0.037271   -0.141438
 0.215000   0.036576   -0.136362
 0.220000   0.035907   -0.131086
 0.225000   0.035265   -0.126098
 0.230000   0.034646   -0.121578
 0.235000   0.034050   -0.117264
 0.240000   0.033474   -0.113117
 0.245000   0.032918   -0.108913
 0.250000   0.032385   -0.104561
 0.255000   0.031873   -0.100604
 0.260000   0.031379   -0.097131
 0.265000   0.030901   -0.093812
 0.270000   0.030440   -0.090573
 0.275000   0.029996   -0.087141
 0.280000   0.029569   -0.083963
 0.285000   0.029156   -0.081300
 0.290000   0.028756   -0.078760
 0.295000   0.028368   -0.076246
 0.300000   0.027994   -0.073584
 0.305000   0.027633   -0.071185
 0.310000   0.027282   -0.069217
 0.315000   0.026940   -0.067358
 0.320000   0.026608   -0.065427
 0.325000   0.026286   -0.063507
 0.330000   0.025973   -0.061895
 0.335000   0.025667   -0.060500
 0.340000   0.025368   -0.059178
 0.345000   0.025075   -0.057753
 0.350000   0.024791   -0.056461
 0.355000   0.024511   -0.055466
 0.360000   0.024236   -0.054533
 0.365000   0.023966   -0.053555
 0.370000   0.023700   -0.052605
 0.375000   0.023439   -0.051840
 0.380000   0.023182   -0.051176
 0.385000   0.022928   -0.050516
 0.390000   0.022677   -0.049822
 0.395000   0.022429   -0.049222
 0.400000   0.022185   -0.048750
 0.405000   0.021942   -0.048307
 0.410000   0.021702   -0.047818
 0.415000   0.021464   -0.047365
 0.420000   0.021228   -0.047015
 0.425000   0.020994   -0.046679
 0.430000   0.020761   -0.046309
 0.435000   0.020531   -0.045932
 0.440000   0.020302   -0.045613
 0.445000   0.020074   -0.045323
 0.450000   0.019849   -0.045014
 0.455000   0.019624   -0.044686
 0.460000   0.019402   -0.044389
 0.465000   0.019180   -0.044122
 0.470000   0.018960   -0.043855
 0.475000   0.018742   -0.043540
 0.480000   0.018525   -0.043231
 0.485000   0.018310   -0.042979
 0.490000   0.018095   -0.042732
 0.495000   0.017882   -0.042459
 0.500000   0.017671   -0.042172
 0.505000   0.017460   -0.041921
 0.510000   0.017251   -0.041690
 0.515000   0.017044   -0.041453
 0.520000   0.016837   -0.041179
 0.525000   0.016632   -0.040913
 0.530000   0.016428   -0.040687
 0.535000   0.016225   -0.040460
 0.540000   0.016023   -0.040210
 0.545000   0.015823   -0.039941
 0.550000   0.015624   -0.039700
 0.555000   0.015426   -0.039479
 0.560000   0.015229   -0.039260
 0.565000   0.015033   -0.039012
 0.570000   0.014839   -0.038765
 0.575000   0.014646   -0.038556
 0.580000   0.014453   -0.038357
 0.585000   0.014262   -0.038164
 0.590000   0.014072   -0.037947
 0.595000   0.013883   -0.037741
 0.600000   0.013694   -0.037571
 0.605000   0.013507   -0.037407
 0.610000   0.013320   -0.037258
 0.615000   0.013134   -0.037106
 0.620000   0.012949   -0.036970
 0.625000   0.012765   -0.036866
 0.630000   0.012580   -0.036773
 0.635000   0.012397   -0.036693
 0.640000   0.012214   -0.036619
 0.645000   0.012031   -0.036559
 0.650000   0.011848   -0.036520
 0.655000   0.011665   -0.036494
 0.660000   0.011483   -0.036480
 0.665000   0.011301   -0.036475
 0.670000   0.011118   -0.036485
 0.675000   0.010936   -0.036508
 0.680000   0.010753   -0.036544
 0.685000   0.010570   -0.036592
 0.690000   0.010387   -0.036648
 0.695000   0.010204   -0.036715
 0.700000   0.010020   -0.036803
 0.705000   0.009836   -0.036902
 0.710000   0.009651   -0.036998
 0.715000   0.009466   -0.037098
 0.720000   0.009280   -0.037201
 0.725000   0.009094   -0.037305
 0.730000   0.008907   -0.037412
 0.735000   0.008720   -0.037522
 0.740000   0.008532   -0.037624
 0.745000   0.008343   -0.037715
 0.750000   0.008155   -0.037799
 0.755000   0.007966   -0.037876
 0.760000   0.007776   -0.037944
 0.765000   0.007586   -0.038002
 0.770000   0.007396   -0.038052
 0.775000   0.007206   -0.038088
 0.780000   0.007015   -0.038112
 0.785000   0.006824   -0.038126
 0.790000   0.006634   -0.038131
 0.795000   0.006443   -0.038126
 0.800000   0.006253   -0.038110
 0.805000   0.006062   -0.038084
 0.810000   0.005872   -0.038044
 0.815000   0.005682   -0.037988
 0.820000   0.005492   -0.037915
 0.825000   0.005302   -0.037830
 0.830000   0.005114   -0.037733
 0.835000   0.004925   -0.037620
 0.840000   0.004737   -0.037487
 0.845000   0.004550   -0.037332
 0.850000   0.004364   -0.037152
 0.855000   0.004179   -0.036941
 0.860000   0.003995   -0.036696
 0.865000   0.003812   -0.036413
 0.870000   0.003630   -0.036093
 0.875000   0.003451   -0.035756
 0.880000   0.003273   -0.035417
 0.885000   0.003097   -0.035067
 0.890000   0.002922   -0.034694
 0.895000   0.002750   -0.034284
 0.900000   0.002579   -0.033827
 0.905000   0.002411   -0.033318
 0.910000   0.002246   -0.032758
 0.915000   0.002084   -0.032159
 0.920000   0.001925   -0.031525
 0.925000   0.001769   -0.030862
 0.930000   0.001616   -0.030215
 0.935000   0.001466   -0.029654
 0.940000   0.001319   -0.029225
 0.945000   0.001174   -0.028907
 0.950000   0.001030   -0.028565
 0.955000   0.000889   -0.027910
 0.960000   0.000751   -0.026572
 0.965000   0.000623   -0.024364
 0.970000   0.000508   -0.021420
 0.975000   0.000409   -0.018092
 0.980000   0.000327   -0.014875
 0.985000   0.000260   -0.012326
 0.990000   0.000203   -0.010812
 0.995000   0.000152   -0.010643
 1.000000   0.000097   -0.011254
201 psinorm pb(KPa) dpb/dpsiN
 0.000000   29.491018   27.271444
 0.005000   29.591634   12.975021
 0.010000   29.620769   -1.500553
 0.015000   29.576629   -15.324666
 0.020000   29.467522   -27.685098
 0.025000   29.299778   -38.706301
 0.030000   29.080459   -48.325874
 0.035000   28.816519   -56.739979
 0.040000   28.513059   -64.293056
 0.045000   28.173589   -70.754472
 0.050000   27.805514   -76.387740
 0.055000   27.409711   -81.241524
 0.060000   26.993099   -85.321360
 0.065000   26.556498   -88.703780
 0.070000   26.106061   -91.319321
 0.075000   25.643304   -93.494495
 0.080000   25.171116   -95.072411
 0.085000   24.692580   -96.161229
 0.090000   24.209504   -96.872444
 0.095000   23.723856   -97.215008
 0.100000   23.237354   -97.196850
 0.105000   22.751887   -96.859003
 0.110000   22.268764   -96.245991
 0.115000   21.789427   -95.353116
 0.120000   21.315233   -94.213392
 0.125000   20.847294   -92.875790
 0.130000   20.386475   -91.362602
 0.135000   19.933668   -89.679518
 0.140000   19.489680   -87.846621
 0.145000   19.055201   -85.901855
 0.150000   18.630661   -83.886928
 0.155000   18.216332   -81.814070
 0.160000   17.812520   -79.689720
 0.165000   17.419435   -77.527413
 0.170000   17.037246   -75.340840
 0.175000   16.666026   -73.121974
 0.180000   16.306027   -70.815604
 0.185000   15.957870   -68.531288
 0.190000   15.620714   -66.338700
 0.195000   15.294483   -64.170487
 0.200000   14.979009   -62.040328
 0.205000   14.674080   -59.953928
 0.210000   14.379470   -57.914590
 0.215000   14.094934   -55.852797
 0.220000   13.820942   -53.720412
 0.225000   13.557730   -51.692183
 0.230000   13.304020   -49.845177
 0.235000   13.059278   -48.093698
 0.240000   12.823083   -46.415584
 0.245000   12.595122   -44.719657
 0.250000   12.375886   -42.973412
 0.255000   12.165388   -41.381158
 0.260000   11.962075   -39.976179
 0.265000   11.765627   -38.633023
 0.270000   11.575744   -37.324081
 0.275000   11.392386   -35.959796
 0.280000   11.216146   -34.695885
 0.285000   11.045427   -33.615397
 0.290000   10.879992   -32.582202
 0.295000   10.719605   -31.560564
 0.300000   10.564387   -30.485997
 0.305000   10.414745   -29.513097
 0.310000   10.269256   -28.704877
 0.315000   10.127696   -27.940301
 0.320000   9.989853   -27.151328
 0.325000   9.856183   -26.367848
 0.330000   9.726174   -25.700821
 0.335000   9.599175   -25.116573
 0.340000   9.475009   -24.562564
 0.345000   9.353549   -23.972920
 0.350000   9.235279   -23.434220
 0.355000   9.119207   -23.007611
 0.360000   9.005203   -22.605880
 0.365000   8.893148   -22.188169
 0.370000   8.783322   -21.781863
 0.375000   8.675329   -21.445774
 0.380000   8.568864   -21.148651
 0.385000   8.463843   -20.853843
 0.390000   8.360325   -20.542671
 0.395000   8.258416   -20.267577
 0.400000   8.157650   -20.046149
 0.405000   8.057955   -19.837952
 0.410000   7.959270   -19.614567
 0.415000   7.861809   -19.405093
 0.420000   7.765219   -19.233397
 0.425000   7.669475   -19.066569
 0.430000   7.574554   -18.887651
 0.435000   7.480599   -18.705647
 0.440000   7.387497   -18.544592
 0.445000   7.295153   -18.394426
 0.450000   7.203553   -18.238261
 0.455000   7.112770   -18.078345
 0.460000   7.022769   -17.931297
 0.465000   6.933457   -17.793741
 0.470000   6.844832   -17.656925
 0.475000   6.756888   -17.504800
 0.480000   6.669784   -17.356993
 0.485000   6.583318   -17.230691
 0.490000   6.497477   -17.106973
 0.495000   6.412248   -16.977403
 0.500000   6.327703   -16.848764
 0.505000   6.243760   -16.733984
 0.510000   6.160363   -16.624738
 0.515000   6.077513   -16.513114
 0.520000   5.995232   -16.391887
 0.525000   5.913594   -16.275775
 0.530000   5.832474   -16.171388
 0.535000   5.751880   -16.065511
 0.540000   5.671819   -15.952476
 0.545000   5.592356   -15.836718
 0.550000   5.513452   -15.728745
 0.555000   5.435068   -15.624117
 0.560000   5.357211   -15.518406
 0.565000   5.279884   -15.405893
 0.570000   5.203152   -15.296200
 0.575000   5.126922   -15.196515
 0.580000   5.051187   -15.097373
 0.585000   4.975948   -14.998033
 0.590000   4.901206   -14.892677
 0.595000   4.827022   -14.790526
 0.600000   4.753301   -14.697192
 0.605000   4.680050   -14.605080
 0.610000   4.607250   -14.518406
 0.615000   4.534866   -14.432849
 0.620000   4.462922   -14.351589
 0.625000   4.391350   -14.279091
 0.630000   4.320131   -14.209980
 0.635000   4.249250   -14.144026
 0.640000   4.178691   -14.080560
 0.645000   4.108444   -14.020946
 0.650000   4.038481   -13.966591
 0.655000   3.968778   -13.915907
 0.660000   3.899322   -13.867909
 0.665000   3.830099   -13.822579
 0.670000   3.761096   -13.781058
 0.675000   3.692289   -13.742838
 0.680000   3.623668   -13.707974
 0.685000   3.555209   -13.676624
 0.690000   3.486902   -13.647156
 0.695000   3.418737   -13.620865
 0.700000   3.350693   -13.601331
 0.705000   3.282724   -13.584709
 0.710000   3.214846   -13.567233
 0.715000   3.147052   -13.550817
 0.720000   3.079338   -13.534877
 0.725000   3.011703   -13.519030
 0.730000   2.944148   -13.503925
 0.735000   2.876664   -13.489183
 0.740000   2.809256   -13.471339
 0.745000   2.741950   -13.449505
 0.750000   2.674761   -13.424955
 0.755000   2.607701   -13.397036
 0.760000   2.540790   -13.364806
 0.765000   2.474053   -13.328059
 0.770000   2.407510   -13.286631
 0.775000   2.341186   -13.239957
 0.780000   2.275110   -13.189460
 0.785000   2.209292   -13.136369
 0.790000   2.143746   -13.080380
 0.795000   2.078488   -13.021607
 0.800000   2.013530   -12.960042
 0.805000   1.948888   -12.895411
 0.810000   1.884576   -12.827030
 0.815000   1.820617   -12.753751
 0.820000   1.757039   -12.674570
 0.825000   1.693872   -12.592397
 0.830000   1.631115   -12.508242
 0.835000   1.568789   -12.419548
 0.840000   1.506919   -12.325803
 0.845000   1.445531   -12.226134
 0.850000   1.384658   -12.119249
 0.855000   1.324339   -12.004122
 0.860000   1.264617   -11.879784
 0.865000   1.205541   -11.744848
 0.870000   1.147168   -11.598608
 0.875000   1.089555   -11.444973
 0.880000   1.032719   -11.286992
 0.885000   0.976685   -11.122487
 0.890000   0.921494   -10.949068
 0.895000   0.867194   -10.764070
 0.900000   0.813853   -10.566558
 0.905000   0.761529   -10.357402
 0.910000   0.710279   -10.138376
 0.915000   0.660145   -9.915330
 0.920000   0.611126   -9.692845
 0.925000   0.563216   -9.476113
 0.930000   0.516365   -9.280538
 0.935000   0.470411   -9.127776
 0.940000   0.425087   -9.033574
 0.945000   0.380075   -8.995910
 0.950000   0.335128   -8.978399
 0.955000   0.290291   -8.897443
 0.960000   0.246153   -8.638629
 0.965000   0.203905   -8.115038
 0.970000   0.165003   -7.318090
 0.975000   0.130724   -6.322217
 0.980000   0.101781   -5.248501
 0.985000   0.078239   -4.223268
 0.990000   0.059548   -3.384295
 0.995000   0.044396   -2.946482
 1.000000   0.030083   -2.778695
201 psinorm ptot(KPa) dptot/dpsiN
 0.000000   100.577738   -100.190006
 0.005000   100.050493   -110.707894
 0.010000   99.470659   -121.734280
 0.015000   98.833151   -132.633235
 0.020000   98.144327   -142.358329
 0.025000   97.409567   -150.964622
 0.030000   96.634681   -158.416621
 0.035000   95.825401   -164.899044
 0.040000   94.985690   -170.706714
 0.045000   94.118334   -175.641152
 0.050000   93.229279   -179.917610
 0.055000   92.319158   -183.568073
 0.060000   91.393598   -186.585755
 0.065000   90.453300   -189.038621
 0.070000   89.503212   -190.871708
 0.075000   88.544583   -192.343953
 0.080000   87.579772   -193.337008
 0.085000   86.611213   -193.942803
 0.090000   85.640344   -194.246571
 0.095000   84.668747   -194.253160
 0.100000   83.697813   -193.964622
 0.105000   82.729101   -193.414691
 0.110000   81.763666   -192.641238
 0.115000   80.802689   -191.638469
 0.120000   79.847281   -190.434113
 0.125000   78.898348   -189.067759
 0.130000   77.956603   -187.555377
 0.135000   77.022794   -185.899488
 0.140000   76.097609   -184.113568
 0.145000   75.181658   -182.227364
 0.150000   74.275335   -180.275403
 0.155000   73.378904   -178.265039
 0.160000   72.492684   -176.197444
 0.165000   71.616930   -174.080468
 0.170000   70.751880   -171.923096
 0.175000   69.897699   -169.716705
 0.180000   69.054713   -167.416356
 0.185000   68.223535   -165.109647
 0.190000   67.403616   -162.850920
 0.195000   66.595026   -160.589036
 0.200000   65.797726   -158.343729
 0.205000   65.011589   -156.128198
 0.210000   64.236444   -153.951838
 0.215000   63.472070   -151.762273
 0.220000   62.718821   -149.524130
 0.225000   61.976829   -147.381873
 0.230000   61.245002   -145.376309
 0.235000   60.523066   -143.427684
 0.240000   59.810726   -141.530093
 0.245000   59.107765   -139.609422
 0.250000   58.414631   -137.642672
 0.255000   57.731338   -135.810951
 0.260000   57.056522   -134.115412
 0.265000   56.390184   -132.432040
 0.270000   55.732201   -130.750100
 0.275000   55.082683   -128.992224
 0.280000   54.442279   -127.286982
 0.285000   53.809813   -125.705135
 0.290000   53.185228   -124.118901
 0.295000   52.568624   -122.489791
 0.300000   51.960330   -120.766736
 0.305000   51.360957   -119.076053
 0.310000   50.769569   -117.468734
 0.315000   50.186270   -115.836981
 0.320000   49.611200   -114.158448
 0.325000   49.044685   -112.490869
 0.330000   48.486291   -110.922589
 0.335000   47.935459   -109.425157
 0.340000   47.392039   -107.954475
 0.345000   46.855915   -106.457974
 0.350000   46.327460   -105.014984
 0.355000   45.805765   -103.677978
 0.360000   45.290680   -102.372407
 0.365000   44.782041   -101.066434
 0.370000   44.280016   -99.787140
 0.375000   43.784169   -98.600608
 0.380000   43.294009   -97.463689
 0.385000   42.809532   -96.304913
 0.390000   42.330960   -95.095209
 0.395000   41.858580   -93.877670
 0.400000   41.392184   -92.667380
 0.405000   40.931907   -91.419487
 0.410000   40.477989   -90.114093
 0.415000   40.030766   -88.810157
 0.420000   39.589887   -87.549641
 0.425000   39.155269   -86.309165
 0.430000   38.726796   -85.079019
 0.435000   38.304479   -83.860168
 0.440000   37.888194   -82.678680
 0.445000   37.477692   -81.544944
 0.450000   37.072744   -80.443268
 0.455000   36.673259   -79.370399
 0.460000   36.279040   -78.341996
 0.465000   35.889840   -77.353777
 0.470000   35.505503   -76.402342
 0.475000   35.125816   -75.476614
 0.480000   34.750737   -74.586930
 0.485000   34.379947   -73.740967
 0.490000   34.013327   -72.915233
 0.495000   33.650794   -72.093143
 0.500000   33.292395   -71.264200
 0.505000   32.938152   -70.429685
 0.510000   32.588099   -69.589489
 0.515000   32.242258   -68.744398
 0.520000   31.900655   -67.891382
 0.525000   31.563344   -67.044825
 0.530000   31.230206   -66.209998
 0.535000   30.901244   -65.382417
 0.540000   30.576382   -64.562592
 0.545000   30.255618   -63.753237
 0.550000   29.938850   -62.964349
 0.555000   29.625974   -62.191718
 0.560000   29.316933   -61.429362
 0.565000   29.011681   -60.676180
 0.570000   28.710171   -59.942292
 0.575000   28.412258   -59.229845
 0.580000   28.117872   -58.530834
 0.585000   27.826949   -57.845677
 0.590000   27.539416   -57.171404
 0.595000   27.255235   -56.518696
 0.600000   26.974229   -55.892757
 0.605000   26.696308   -55.286371
 0.610000   26.421365   -54.703378
 0.615000   26.149274   -54.139233
 0.620000   25.879973   -53.601059
 0.625000   25.613264   -53.086058
 0.630000   25.349112   -52.581227
 0.635000   25.087451   -52.089444
 0.640000   24.828218   -51.609275
 0.645000   24.571358   -51.140830
 0.650000   24.316809   -50.690040
 0.655000   24.064458   -50.256128
 0.660000   23.814248   -49.838664
 0.665000   23.566071   -49.441292
 0.670000   23.319835   -49.058161
 0.675000   23.075490   -48.675294
 0.680000   22.833082   -48.268046
 0.685000   22.592809   -47.808194
 0.690000   22.355000   -47.292091
 0.695000   22.119888   -46.733538
 0.700000   21.887665   -46.143482
 0.705000   21.658454   -45.529337
 0.710000   21.432371   -44.878671
 0.715000   21.209667   -44.221039
 0.720000   20.990161   -43.612601
 0.725000   20.773541   -43.059914
 0.730000   20.559562   -42.561875
 0.735000   20.347922   -42.126675
 0.740000   20.138295   -41.748935
 0.745000   19.930433   -41.441741
 0.750000   19.723878   -41.224793
 0.755000   19.518185   -41.085336
 0.760000   19.313024   -41.007689
 0.765000   19.108108   -40.982054
 0.770000   18.903204   -41.003692
 0.775000   18.698071   -41.054854
 0.780000   18.492655   -41.085474
 0.785000   18.287216   -41.069333
 0.790000   18.081962   -41.008593
 0.795000   17.877130   -40.898725
 0.800000   17.672975   -40.742791
 0.805000   17.469703   -40.550903
 0.810000   17.267466   -40.323137
 0.815000   17.066471   -40.065336
 0.820000   16.866812   -39.788054
 0.825000   16.668591   -39.491003
 0.830000   16.471902   -39.174602
 0.835000   16.276845   -38.838000
 0.840000   16.083522   -38.436670
 0.845000   15.892478   -37.948183
 0.850000   15.704040   -37.402377
 0.855000   15.518454   -36.822385
 0.860000   15.335817   -36.249877
 0.865000   15.155955   -35.768114
 0.870000   14.978135   -35.415137
 0.875000   14.801804   -35.257458
 0.880000   14.625561   -35.456554
 0.885000   14.447238   -36.195649
 0.890000   14.263604   -37.729644
 0.895000   14.069942   -40.528297
 0.900000   13.858321   -45.001569
 0.905000   13.619926   -51.609801
 0.910000   13.342223   -61.061365
 0.915000   13.009313   -74.019165
 0.920000   12.602032   -91.027315
 0.925000   12.099039   -112.486044
 0.930000   11.477171   -137.657144
 0.935000   10.722468   -164.688244
 0.940000   9.830289   -190.949248
 0.945000   8.812976   -212.640252
 0.950000   7.703886   -225.725393
 0.955000   6.555722   -227.219275
 0.960000   5.431694   -216.313671
 0.965000   4.392585   -194.954846
 0.970000   3.482145   -167.103790
 0.975000   2.721547   -137.128122
 0.980000   2.110864   -108.605993
 0.985000   1.635487   -83.710050
 0.990000   1.273763   -63.346432
 0.995000   1.002023   -47.650744
 1.000000   0.797256   -34.255972
201 psinorm omeg(kRad/s) domeg/dpsiN
 0.000000   66.476786   0.015632
 0.005000   66.476471   -0.141604
 0.010000   66.475370   -0.324342
 0.015000   66.473228   -0.561828
 0.020000   66.469752   -0.860262
 0.025000   66.464625   -1.223520
 0.030000   66.457517   -1.653100
 0.035000   66.448094   -2.147560
 0.040000   66.436041   -2.697174
 0.045000   66.421122   -3.292815
 0.050000   66.403113   -3.927626
 0.055000   66.381846   -4.589518
 0.060000   66.357218   -5.266875
 0.065000   66.329177   -5.949656
 0.070000   66.297721   -6.615167
 0.075000   66.263026   -7.268671
 0.080000   66.225034   -7.929368
 0.085000   66.183732   -8.591661
 0.090000   66.139118   -9.257062
 0.095000   66.091161   -9.931637
 0.100000   66.039801   -10.610940
 0.105000   65.985052   -11.302248
 0.110000   65.926779   -12.015913
 0.115000   65.864893   -12.744050
 0.120000   65.799338   -13.484118
 0.125000   65.730052   -14.237547
 0.130000   65.656963   -15.000246
 0.135000   65.580049   -15.778465
 0.140000   65.499178   -16.586993
 0.145000   65.414179   -17.429338
 0.150000   65.324885   -18.308828
 0.155000   65.231091   -19.232632
 0.160000   65.132559   -20.212441
 0.165000   65.028967   -21.248899
 0.170000   64.920070   -22.317408
 0.175000   64.805793   -23.402735
 0.180000   64.686042   -24.503999
 0.185000   64.560753   -25.615871
 0.190000   64.429884   -26.733733
 0.195000   64.293415   -27.846315
 0.200000   64.151420   -28.937995
 0.205000   64.004035   -29.999443
 0.210000   63.851426   -31.022226
 0.215000   63.693813   -31.996208
 0.220000   63.531464   -32.904542
 0.225000   63.364768   -33.720396
 0.230000   63.194260   -34.469321
 0.235000   63.020074   -35.175417
 0.240000   62.842506   -35.824497
 0.245000   62.661829   -36.420683
 0.250000   62.478299   -36.959642
 0.255000   62.292233   -37.408941
 0.260000   62.104210   -37.812297
 0.265000   61.914110   -38.205781
 0.270000   61.722152   -38.561106
 0.275000   61.528499   -38.889698
 0.280000   61.333255   -39.201647
 0.285000   61.136483   -39.491030
 0.290000   60.938344   -39.822796
 0.295000   60.738255   -40.230486
 0.300000   60.536040   -40.660358
 0.305000   60.331651   -41.083431
 0.310000   60.125205   -41.463026
 0.315000   59.917021   -41.739814
 0.320000   59.707807   -41.943256
 0.325000   59.497588   -42.127949
 0.330000   59.286528   -42.282359
 0.335000   59.074765   -42.412502
 0.340000   58.862403   -42.525631
 0.345000   58.649508   -42.612207
 0.350000   58.436281   -42.707001
 0.355000   58.222438   -42.841471
 0.360000   58.007866   -42.998707
 0.365000   57.792451   -43.180967
 0.370000   57.576056   -43.392902
 0.375000   57.358522   -43.650466
 0.380000   57.139552   -43.942995
 0.385000   56.919092   -44.218638
 0.390000   56.697365   -44.439630
 0.395000   56.474696   -44.587761
 0.400000   56.251488   -44.651569
 0.405000   56.028180   -44.608054
 0.410000   55.805407   -44.500316
 0.415000   55.583177   -44.480897
 0.420000   55.360598   -44.679888
 0.425000   55.136378   -45.161096
 0.430000   54.908987   -45.956097
 0.435000   54.676817   -47.176578
 0.440000   54.437221   -48.827031
 0.445000   54.188547   -50.672548
 0.450000   53.930496   -52.625280
 0.455000   53.662294   -54.709574
 0.460000   53.383400   -56.876997
 0.465000   53.093524   -59.195359
 0.470000   52.791446   -61.599548
 0.475000   52.477529   -63.736052
 0.480000   52.154086   -65.529448
 0.485000   51.822234   -67.074495
 0.490000   51.483341   -68.320569
 0.495000   51.139028   -69.231108
 0.500000   50.791030   -69.704826
 0.505000   50.441980   -69.710453
 0.510000   50.093925   -69.421348
 0.515000   49.747767   -68.973653
 0.520000   49.404189   -68.403079
 0.525000   49.063736   -67.718098
 0.530000   48.727008   -66.898657
 0.535000   48.394749   -66.016209
 0.540000   48.066846   -65.137413
 0.545000   47.743375   -64.253690
 0.550000   47.424309   -63.386139
 0.555000   47.109514   -62.546031
 0.560000   46.798849   -61.722032
 0.565000   46.492294   -61.007957
 0.570000   46.188769   -60.461654
 0.575000   45.887677   -60.041813
 0.580000   45.588351   -59.760896
 0.585000   45.290068   -59.629270
 0.590000   44.992058   -59.654096
 0.595000   44.693527   -59.791289
 0.600000   44.394145   -59.973967
 0.605000   44.093787   -60.179293
 0.610000   43.792352   -60.404311
 0.615000   43.489744   -60.649731
 0.620000   43.185855   -60.891080
 0.625000   42.880833   -61.149904
 0.630000   42.574356   -61.461718
 0.635000   42.266216   -61.815415
 0.640000   41.956202   -62.213322
 0.645000   41.644083   -62.659215
 0.650000   41.329610   -63.144316
 0.655000   41.012640   -63.731047
 0.660000   40.692299   -64.485041
 0.665000   40.367790   -65.399017
 0.670000   40.038309   -66.475594
 0.675000   39.703034   -67.714101
 0.680000   39.361168   -69.127171
 0.685000   39.011762   -70.528822
 0.690000   38.655880   -71.653839
 0.695000   38.295223   -72.435798
 0.700000   37.931522   -72.873376
 0.705000   37.566490   -72.986755
 0.710000   37.201654   -72.737223
 0.715000   36.839117   -72.221664
 0.720000   36.479438   -71.643670
 0.725000   36.122681   -71.019093
 0.730000   35.769247   -70.329569
 0.735000   35.419385   -69.605942
 0.740000   35.073187   -68.827507
 0.745000   34.731110   -68.091296
 0.750000   34.392274   -67.634117
 0.755000   34.054769   -67.604165
 0.760000   33.716233   -68.115329
 0.765000   33.373616   -69.273386
 0.770000   33.023499   -71.261806
 0.775000   32.660997   -74.066624
 0.780000   32.282833   -77.042800
 0.785000   31.890569   -79.811591
 0.790000   31.484717   -82.422617
 0.795000   31.066343   -84.778268
 0.800000   30.636934   -86.938876
 0.805000   30.196955   -89.099786
 0.810000   29.745936   -91.038159
 0.815000   29.286573   -92.648175
 0.820000   28.819454   -94.100682
 0.825000   28.345566   -95.323889
 0.830000   27.866216   -96.366185
 0.835000   27.381904   -97.369976
 0.840000   26.892516   -97.886396
 0.845000   26.403040   -97.875228
 0.850000   25.913763   -98.017079
 0.855000   25.422870   -98.769813
 0.860000   24.926065   -100.723635
 0.865000   24.415633   -104.837024
 0.870000   23.877695   -111.319263
 0.875000   23.302441   -120.326271
 0.880000   22.674432   -132.703436
 0.885000   21.975406   -148.985670
 0.890000   21.184576   -169.601250
 0.895000   20.279394   -195.531966
 0.900000   19.229256   -225.825193
 0.905000   18.021142   -258.849614
 0.910000   16.640760   -293.755713
 0.915000   15.083585   -328.198486
 0.920000   13.358775   -359.115126
 0.925000   11.492433   -383.365506
 0.930000   9.525120   -396.181324
 0.935000   7.530620   -393.465641
 0.940000   5.590464   -373.925467
 0.945000   3.791365   -337.582077
 0.950000   2.214643   -286.630594
 0.955000   0.925060   -224.744515
 0.960000   -0.032802   -158.146461
 0.965000   -0.656405   -93.595285
 0.970000   -0.968755   -35.657375
 0.975000   -1.012979   12.314632
 0.980000   -0.845609   48.433379
 0.985000   -0.528645   71.791078
 0.990000   -0.127698   83.251827
 0.995000   0.303873   85.307895
 1.000000   0.725381   83.295154
201 psinorm omegp(kRad/s) domegp/dpsiN
 0.000000   -0.012166   133.089299
 0.005000   0.512073   76.606250
 0.010000   0.753897   45.249619
 0.015000   0.964569   40.926742
 0.020000   1.163164   38.962005
 0.025000   1.354189   37.375815
 0.030000   1.536922   35.668139
 0.035000   1.710871   34.167987
 0.040000   1.878602   32.821058
 0.045000   2.039081   31.435953
 0.050000   2.192962   30.217352
 0.055000   2.341255   29.209697
 0.060000   2.485059   28.331827
 0.065000   2.624573   27.528149
 0.070000   2.760340   26.722117
 0.075000   2.891794   25.840451
 0.080000   3.018745   24.822360
 0.085000   3.140018   23.574939
 0.090000   3.254494   22.233418
 0.095000   3.362352   20.836153
 0.100000   3.462856   19.510590
 0.105000   3.557458   18.387019
 0.110000   3.646726   17.547837
 0.115000   3.732936   17.102249
 0.120000   3.817748   17.115181
 0.125000   3.904088   17.444140
 0.130000   3.992190   17.928057
 0.135000   4.083369   18.453496
 0.140000   4.176725   18.966132
 0.145000   4.273030   19.384241
 0.150000   4.370567   19.554870
 0.155000   4.468579   19.280002
 0.160000   4.563367   18.634472
 0.165000   4.654924   17.738973
 0.170000   4.740757   16.515443
 0.175000   4.820078   15.091229
 0.180000   4.891669   13.380260
 0.185000   4.953881   11.660649
 0.190000   5.008276   9.898924
 0.195000   5.052870   8.054039
 0.200000   5.088816   6.354023
 0.205000   5.116410   4.655599
 0.210000   5.135372   3.286664
 0.215000   5.149277   2.131490
 0.220000   5.156687   0.934127
 0.225000   5.158618   -0.164416
 0.230000   5.155043   -1.449783
 0.235000   5.144120   -2.859492
 0.240000   5.126448   -4.407615
 0.245000   5.100044   -6.245939
 0.250000   5.063988   -8.030774
 0.255000   5.019736   -9.846565
 0.260000   4.965523   -11.763550
 0.265000   4.902101   -13.454218
 0.270000   4.830981   -15.056105
 0.275000   4.751540   -16.617447
 0.280000   4.664806   -18.048497
 0.285000   4.571055   -19.553812
 0.290000   4.469268   -21.123843
 0.295000   4.359816   -22.757161
 0.300000   4.241696   -24.617921
 0.305000   4.113637   -26.624458
 0.310000   3.975452   -28.764209
 0.315000   3.825995   -31.176066
 0.320000   3.663691   -33.804283
 0.325000   3.487952   -36.470177
 0.330000   3.298989   -39.008924
 0.335000   3.097863   -41.201932
 0.340000   2.886970   -42.939630
 0.345000   2.668467   -44.205525
 0.350000   2.444915   -44.738227
 0.355000   2.221084   -44.667773
 0.360000   1.998237   -44.489343
 0.365000   1.776191   -44.319146
 0.370000   1.555046   -44.221204
 0.375000   1.333979   -44.360372
 0.380000   1.111442   -44.932213
 0.385000   0.884657   -46.131738
 0.390000   0.650125   -47.856611
 0.395000   0.406091   -49.833015
 0.400000   0.151794   -51.854157
 0.405000   -0.112451   -53.716087
 0.410000   -0.385366   -55.521784
 0.415000   -0.667669   -57.809681
 0.420000   -0.963463   -61.232866
 0.425000   -1.279997   -66.142636
 0.430000   -1.624890   -72.572237
 0.435000   -2.005720   -80.613301
 0.440000   -2.431023   -90.661741
 0.445000   -2.912337   -101.034888
 0.450000   -3.441371   -110.226140
 0.455000   -4.014599   -118.290730
 0.460000   -4.624279   -124.504117
 0.465000   -5.259640   -128.433715
 0.470000   -5.908616   -129.037851
 0.475000   -6.550018   -125.283453
 0.480000   -7.161450   -117.713080
 0.485000   -7.727149   -107.302488
 0.490000   -8.234475   -94.770085
 0.495000   -8.674850   -80.568478
 0.500000   -9.040160   -65.866802
 0.505000   -9.333518   -52.654620
 0.510000   -9.566706   -41.538384
 0.515000   -9.748902   -32.396894
 0.520000   -9.890675   -25.210559
 0.525000   -10.001007   -19.719170
 0.530000   -10.087867   -16.109415
 0.535000   -10.162102   -14.099609
 0.540000   -10.228863   -12.678559
 0.545000   -10.288887   -11.403650
 0.550000   -10.342900   -10.286880
 0.555000   -10.391756   -9.211650
 0.560000   -10.435016   -7.936808
 0.565000   -10.471124   -6.415743
 0.570000   -10.499173   -4.720199
 0.575000   -10.518326   -2.767211
 0.580000   -10.526846   -0.556341
 0.585000   -10.523889   1.718286
 0.590000   -10.509663   4.038987
 0.595000   -10.483500   6.386699
 0.600000   -10.445796   8.574069
 0.605000   -10.397759   10.468908
 0.610000   -10.341107   12.090514
 0.615000   -10.276854   13.398473
 0.620000   -10.207122   14.316769
 0.625000   -10.133686   14.956728
 0.630000   -10.057555   15.417007
 0.635000   -9.979516   15.719092
 0.640000   -9.900364   15.858563
 0.645000   -9.820930   15.966196
 0.650000   -9.740702   16.182590
 0.655000   -9.659104   16.416912
 0.660000   -9.576533   16.609680
 0.665000   -9.493008   16.792543
 0.670000   -9.408607   16.939651
 0.675000   -9.323611   16.994528
 0.680000   -9.238662   17.023973
 0.685000   -9.153371   17.116773
 0.690000   -9.067494   17.264694
 0.695000   -8.980724   17.464089
 0.700000   -8.892853   17.785721
 0.705000   -8.802867   18.212901
 0.710000   -8.710724   18.544955
 0.715000   -8.617418   18.704256
 0.720000   -8.523682   18.689017
 0.725000   -8.430527   18.446685
 0.730000   -8.339215   17.926146
 0.735000   -8.251266   17.080253
 0.740000   -8.168412   15.902979
 0.745000   -8.092236   14.458548
 0.750000   -8.023827   12.825860
 0.755000   -7.963978   11.088204
 0.760000   -7.912945   9.311343
 0.765000   -7.870864   7.579958
 0.770000   -7.837145   5.996631
 0.775000   -7.810898   4.578585
 0.780000   -7.791359   3.283613
 0.785000   -7.778062   2.010835
 0.790000   -7.771251   0.660842
 0.795000   -7.771453   -0.868080
 0.800000   -7.779932   -2.688155
 0.805000   -7.798335   -4.848669
 0.810000   -7.828419   -7.304667
 0.815000   -7.871382   -9.988685
 0.820000   -7.928305   -12.909090
 0.825000   -8.000472   -15.790005
 0.830000   -8.086205   -18.323169
 0.835000   -8.183704   -20.435102
 0.840000   -8.290556   -22.081445
 0.845000   -8.404519   -23.080765
 0.850000   -8.521364   -23.177391
 0.855000   -8.636293   -22.595936
 0.860000   -8.747323   -21.724615
 0.865000   -8.853539   -20.556437
 0.870000   -8.952888   -19.173252
 0.875000   -9.045271   -17.812249
 0.880000   -9.131010   -16.659805
 0.885000   -9.211869   -15.895288
 0.890000   -9.289963   -15.514460
 0.895000   -9.367014   -15.121794
 0.900000   -9.441181   -14.719645
 0.905000   -9.514210   -14.938792
 0.910000   -9.590569   -15.451322
 0.915000   -9.668724   -13.714020
 0.920000   -9.727709   -10.293449
 0.925000   -9.771658   -6.933047
 0.930000   -9.797040   -2.203907
 0.935000   -9.793697   6.936467
 0.940000   -9.727675   19.378690
 0.945000   -9.599910   33.813311
 0.950000   -9.389542   52.254051
 0.955000   -9.077370   72.904297
 0.960000   -8.660499   93.866439
 0.965000   -8.138705   114.067050
 0.970000   -7.519829   132.073513
 0.975000   -6.817970   157.041869
 0.980000   -5.949410   220.997132
 0.985000   -4.607999   355.609086
 0.990000   -2.393319   550.821778
 0.995000   0.900219   724.040321
 1.000000   4.847084   854.705805
201 psinorm omgvb(kRad/s) domgvb/dpsiN
 0.000000   66.464620   133.104931
 0.005000   66.988544   76.464645
 0.010000   67.229267   44.925277
 0.015000   67.437797   40.364914
 0.020000   67.632916   38.101743
 0.025000   67.818815   36.152295
 0.030000   67.994439   34.015039
 0.035000   68.158965   32.020427
 0.040000   68.314643   30.123884
 0.045000   68.460204   28.143138
 0.050000   68.596075   26.289727
 0.055000   68.723101   24.620179
 0.060000   68.842276   23.064952
 0.065000   68.953751   21.578493
 0.070000   69.058061   20.106950
 0.075000   69.154820   18.571780
 0.080000   69.243779   16.892992
 0.085000   69.323750   14.983278
 0.090000   69.393612   12.976356
 0.095000   69.453514   10.904516
 0.100000   69.502657   8.899650
 0.105000   69.542510   7.084772
 0.110000   69.573505   5.531924
 0.115000   69.597829   4.358198
 0.120000   69.617087   3.631063
 0.125000   69.634140   3.206593
 0.130000   69.649153   2.927810
 0.135000   69.663418   2.675031
 0.140000   69.675903   2.379139
 0.145000   69.687209   1.954902
 0.150000   69.695452   1.246042
 0.155000   69.699670   0.047370
 0.160000   69.695926   -1.577969
 0.165000   69.683890   -3.509926
 0.170000   69.660827   -5.801965
 0.175000   69.625871   -8.311505
 0.180000   69.577711   -11.123738
 0.185000   69.514633   -13.955222
 0.190000   69.438159   -16.834809
 0.195000   69.346285   -19.792276
 0.200000   69.240236   -22.583971
 0.205000   69.120445   -25.343844
 0.210000   68.986798   -27.735562
 0.215000   68.843090   -29.864719
 0.220000   68.688151   -31.970415
 0.225000   68.523386   -33.884813
 0.230000   68.349303   -35.919104
 0.235000   68.164195   -38.034909
 0.240000   67.968954   -40.232112
 0.245000   67.761873   -42.666622
 0.250000   67.542287   -44.990416
 0.255000   67.311969   -47.255505
 0.260000   67.069732   -49.575848
 0.265000   66.816211   -51.659999
 0.270000   66.553132   -53.617211
 0.275000   66.280039   -55.507144
 0.280000   65.998061   -57.250144
 0.285000   65.707537   -59.044842
 0.290000   65.407613   -60.946638
 0.295000   65.098071   -62.987646
 0.300000   64.777736   -65.278279
 0.305000   64.445288   -67.707889
 0.310000   64.100657   -70.227235
 0.315000   63.743016   -72.915880
 0.320000   63.371498   -75.747539
 0.325000   62.985540   -78.598125
 0.330000   62.585517   -81.291283
 0.335000   62.172627   -83.614434
 0.340000   61.749373   -85.465261
 0.345000   61.317975   -86.817731
 0.350000   60.881195   -87.445228
 0.355000   60.443523   -87.509244
 0.360000   60.006103   -87.488050
 0.365000   59.568642   -87.500113
 0.370000   59.131102   -87.614107
 0.375000   58.692501   -88.010838
 0.380000   58.250994   -88.875208
 0.385000   57.803749   -90.350377
 0.390000   57.347490   -92.296241
 0.395000   56.880787   -94.420776
 0.400000   56.403282   -96.505727
 0.405000   55.915729   -98.324140
 0.410000   55.420041   -100.022099
 0.415000   54.915508   -102.290577
 0.420000   54.397135   -105.912754
 0.425000   53.856381   -111.303732
 0.430000   53.284097   -118.528334
 0.435000   52.671097   -127.789879
 0.440000   52.006199   -139.488771
 0.445000   51.276210   -151.707435
 0.450000   50.489124   -162.851420
 0.455000   49.647695   -173.000304
 0.460000   48.759121   -181.381114
 0.465000   47.833884   -187.629074
 0.470000   46.882831   -190.637399
 0.475000   45.927510   -189.019505
 0.480000   44.992636   -183.242528
 0.485000   44.095085   -174.376983
 0.490000   43.248866   -163.090654
 0.495000   42.464179   -149.799586
 0.500000   41.750870   -135.571628
 0.505000   41.108462   -122.365073
 0.510000   40.527219   -110.959732
 0.515000   39.998865   -101.370548
 0.520000   39.513514   -93.613638
 0.525000   39.062729   -87.437268
 0.530000   38.639141   -83.008072
 0.535000   38.232648   -80.115818
 0.540000   37.837983   -77.815972
 0.545000   37.454488   -75.657339
 0.550000   37.081409   -73.673018
 0.555000   36.717758   -71.757681
 0.560000   36.363833   -69.658840
 0.565000   36.021170   -67.423701
 0.570000   35.689596   -65.181853
 0.575000   35.369351   -62.809024
 0.580000   35.061505   -60.317237
 0.585000   34.766179   -57.910985
 0.590000   34.482395   -55.615109
 0.595000   34.210028   -53.404590
 0.600000   33.948350   -51.399898
 0.605000   33.696029   -49.710385
 0.610000   33.451246   -48.313798
 0.615000   33.212891   -47.251258
 0.620000   32.978733   -46.574311
 0.625000   32.747147   -46.193176
 0.630000   32.516801   -46.044711
 0.635000   32.286700   -46.096323
 0.640000   32.055838   -46.354759
 0.645000   31.823153   -46.693019
 0.650000   31.588908   -46.961725
 0.655000   31.353536   -47.314135
 0.660000   31.115767   -47.875362
 0.665000   30.874782   -48.606474
 0.670000   30.629702   -49.535943
 0.675000   30.379422   -50.719573
 0.680000   30.122506   -52.103197
 0.685000   29.858391   -53.412048
 0.690000   29.588386   -54.389145
 0.695000   29.314499   -54.971709
 0.700000   29.038669   -55.087656
 0.705000   28.763622   -54.773854
 0.710000   28.490930   -54.192268
 0.715000   28.221700   -53.517408
 0.720000   27.955756   -52.954653
 0.725000   27.692153   -52.572408
 0.730000   27.430032   -52.403423
 0.735000   27.168119   -52.525689
 0.740000   26.904775   -52.924528
 0.745000   26.638874   -53.632747
 0.750000   26.368447   -54.808257
 0.755000   26.090791   -56.515961
 0.760000   25.803288   -58.803986
 0.765000   25.502751   -61.693428
 0.770000   25.186354   -65.265175
 0.775000   24.850100   -69.488040
 0.780000   24.491473   -73.759187
 0.785000   24.112508   -77.800755
 0.790000   23.713466   -81.761776
 0.795000   23.294890   -85.646348
 0.800000   22.857002   -89.627031
 0.805000   22.398620   -93.948455
 0.810000   21.917518   -98.342826
 0.815000   21.415191   -102.636861
 0.820000   20.891149   -107.009772
 0.825000   20.345094   -111.113894
 0.830000   19.780010   -114.689354
 0.835000   19.198200   -117.805078
 0.840000   18.601959   -119.967841
 0.845000   17.998522   -120.955993
 0.850000   17.392399   -121.194470
 0.855000   16.786577   -121.365749
 0.860000   16.178742   -122.448250
 0.865000   15.562095   -125.393461
 0.870000   14.924807   -130.492515
 0.875000   14.257169   -138.138520
 0.880000   13.543422   -149.363242
 0.885000   12.763537   -164.880958
 0.890000   11.894612   -185.115710
 0.895000   10.912380   -210.653761
 0.900000   9.788075   -240.544838
 0.905000   8.506931   -273.788406
 0.910000   7.050191   -309.207035
 0.915000   5.414861   -341.912506
 0.920000   3.631066   -369.408575
 0.925000   1.720775   -390.298553
 0.930000   -0.271920   -398.385231
 0.935000   -2.263077   -386.529174
 0.940000   -4.137212   -354.546777
 0.945000   -5.808545   -303.768766
 0.950000   -7.174899   -234.376544
 0.955000   -8.152310   -151.840218
 0.960000   -8.693301   -64.280023
 0.965000   -8.795110   20.471765
 0.970000   -8.488584   96.416138
 0.975000   -7.830949   169.356501
 0.980000   -6.795019   269.430511
 0.985000   -5.136644   427.400164
 0.990000   -2.521017   634.073606
 0.995000   1.204092   809.348216
 1.000000   5.572465   938.000959
201 psinorm omgpp(kRad/s) domgpp/dpsiN
 0.000000   -0.064512   -32.199533
 0.005000   -0.260648   -46.255056
 0.010000   -0.527062   -53.821639
 0.015000   -0.798865   -54.805773
 0.020000   -1.075120   -55.563883
 0.025000   -1.354503   -56.035478
 0.030000   -1.635475   -56.241509
 0.035000   -1.916918   -56.188758
 0.040000   -2.197362   -55.860520
 0.045000   -2.475524   -55.296402
 0.050000   -2.750326   -54.481606
 0.055000   -3.020340   -53.443247
 0.060000   -3.284759   -52.433400
 0.065000   -3.544674   -51.396577
 0.070000   -3.798725   -50.200068
 0.075000   -4.046674   -48.965653
 0.080000   -4.288381   -47.689884
 0.085000   -4.523573   -46.450084
 0.090000   -4.752882   -45.467378
 0.095000   -4.978247   -44.643698
 0.100000   -5.199319   -43.802495
 0.105000   -5.416272   -42.956596
 0.110000   -5.628885   -42.059723
 0.115000   -5.836869   -41.227657
 0.120000   -6.041161   -39.920321
 0.125000   -6.236072   -38.135137
 0.130000   -6.422513   -36.338707
 0.135000   -6.599459   -34.342138
 0.140000   -6.765934   -32.169842
 0.145000   -6.921158   -29.867584
 0.150000   -7.064610   -27.235662
 0.155000   -7.193514   -24.405925
 0.160000   -7.308669   -21.591369
 0.165000   -7.409428   -18.659463
 0.170000   -7.495264   -15.637982
 0.175000   -7.565808   -12.159364
 0.180000   -7.616858   -8.846408
 0.185000   -7.654272   -5.900670
 0.190000   -7.675864   -2.733396
 0.195000   -7.681606   0.356279
 0.200000   -7.672301   3.222265
 0.205000   -7.649383   6.157646
 0.210000   -7.610725   7.846247
 0.215000   -7.570921   8.130046
 0.220000   -7.529425   8.193205
 0.225000   -7.488989   7.693258
 0.230000   -7.452492   6.727062
 0.235000   -7.421718   4.755395
 0.240000   -7.404938   3.338481
 0.245000   -7.388333   3.791307
 0.250000   -7.367025   4.695166
 0.255000   -7.341382   5.793098
 0.260000   -7.309094   7.357943
 0.265000   -7.267802   8.641231
 0.270000   -7.222682   11.058607
 0.275000   -7.157216   15.270707
 0.280000   -7.069975   19.240146
 0.285000   -6.964815   22.894606
 0.290000   -6.841029   26.638520
 0.295000   -6.698430   30.656083
 0.300000   -6.534468   35.066161
 0.305000   -6.347768   38.660767
 0.310000   -6.147860   40.927396
 0.315000   -5.938494   42.359839
 0.320000   -5.724262   42.905299
 0.325000   -5.509441   43.085896
 0.330000   -5.293403   42.516483
 0.335000   -5.084276   40.272590
 0.340000   -4.890677   37.720928
 0.345000   -4.707067   35.685847
 0.350000   -4.533818   33.621061
 0.355000   -4.370856   31.528329
 0.360000   -4.218535   29.315183
 0.365000   -4.077705   27.689996
 0.370000   -3.941635   26.843758
 0.375000   -3.809267   26.228453
 0.380000   -3.679351   25.873017
 0.385000   -3.550537   25.794778
 0.390000   -3.421403   26.204279
 0.395000   -3.288494   27.020410
 0.400000   -3.151199   27.562726
 0.405000   -3.012867   27.638117
 0.410000   -2.874817   27.419836
 0.415000   -2.738668   26.907929
 0.420000   -2.605738   26.339060
 0.425000   -2.475278   24.970084
 0.430000   -2.356037   23.126708
 0.435000   -2.244011   21.696169
 0.440000   -2.139076   20.292682
 0.445000   -2.041084   18.914046
 0.450000   -1.949935   17.766465
 0.455000   -1.863419   16.243603
 0.460000   -1.787499   14.429034
 0.465000   -1.719129   12.891921
 0.470000   -1.658580   11.288726
 0.475000   -1.606242   9.606906
 0.480000   -1.562511   7.748713
 0.485000   -1.528754   5.819951
 0.490000   -1.504311   4.168878
 0.495000   -1.487066   2.819800
 0.500000   -1.476113   1.604636
 0.505000   -1.471019   0.439982
 0.510000   -1.471714   -0.682651
 0.515000   -1.477846   -1.774709
 0.520000   -1.489461   -2.812528
 0.525000   -1.505971   -3.714837
 0.530000   -1.526609   -4.471727
 0.535000   -1.550688   -5.098129
 0.540000   -1.577590   -5.472740
 0.545000   -1.605416   -5.843427
 0.550000   -1.636025   -6.405641
 0.555000   -1.669472   -6.932148
 0.560000   -1.705346   -7.443600
 0.565000   -1.743908   -8.021028
 0.570000   -1.785556   -8.638549
 0.575000   -1.830294   -9.347603
 0.580000   -1.879032   -10.044555
 0.585000   -1.930739   -10.562037
 0.590000   -1.984653   -10.974564
 0.595000   -2.040485   -11.334970
 0.600000   -2.098002   -11.694873
 0.605000   -2.157434   -12.069835
 0.610000   -2.218701   -12.349794
 0.615000   -2.280932   -12.561761
 0.620000   -2.344318   -12.770536
 0.625000   -2.408637   -12.932833
 0.630000   -2.473647   -13.150339
 0.635000   -2.540140   -13.370350
 0.640000   -2.607350   -13.187714
 0.645000   -2.672017   -12.806609
 0.650000   -2.735416   -12.547676
 0.655000   -2.797494   -12.278204
 0.660000   -2.858198   -12.111387
 0.665000   -2.918608   -12.436079
 0.670000   -2.982559   -13.381719
 0.675000   -3.052425   -15.248019
 0.680000   -3.135039   -17.917728
 0.685000   -3.231603   -20.659769
 0.690000   -3.341637   -23.584828
 0.695000   -3.467451   -27.554160
 0.700000   -3.617179   -28.125214
 0.705000   -3.748703   -25.700022
 0.710000   -3.874179   -23.936475
 0.715000   -3.988068   -21.029759
 0.720000   -4.084476   -17.075434
 0.725000   -4.158822   -12.478111
 0.730000   -4.209258   -4.998112
 0.735000   -4.208803   3.758245
 0.740000   -4.171675   11.115720
 0.745000   -4.097646   18.337967
 0.750000   -3.988295   25.042585
 0.755000   -3.847220   32.583078
 0.760000   -3.662465   37.307587
 0.765000   -3.474144   38.315428
 0.770000   -3.279310   38.967045
 0.775000   -3.084474   38.394984
 0.780000   -2.895361   36.789997
 0.785000   -2.716574   35.207151
 0.790000   -2.543289   31.670750
 0.795000   -2.399866   26.781710
 0.800000   -2.275472   23.111721
 0.805000   -2.168749   19.695059
 0.810000   -2.078521   16.593519
 0.815000   -2.002814   13.552801
 0.820000   -1.942993   11.467552
 0.825000   -1.888138   10.532316
 0.830000   -1.837670   9.572219
 0.835000   -1.792416   8.559668
 0.840000   -1.752073   7.594562
 0.845000   -1.716471   6.244302
 0.850000   -1.689630   4.717299
 0.855000   -1.669298   2.915233
 0.860000   -1.660478   0.226113
 0.865000   -1.667036   -3.040135
 0.870000   -1.690879   -6.675806
 0.875000   -1.733795   -11.658286
 0.880000   -1.807462   -17.289591
 0.885000   -1.906690   -21.991883
 0.890000   -2.027381   -27.577997
 0.895000   -2.182470   -35.435788
 0.900000   -2.381739   -45.603074
 0.905000   -2.638501   -61.020623
 0.910000   -2.991945   -82.624719
 0.915000   -3.464748   -107.627242
 0.920000   -4.068218   -141.578214
 0.925000   -4.880530   -190.686894
 0.930000   -5.975087   -255.572227
 0.935000   -7.436253   -344.091901
 0.940000   -9.416006   -454.856159
 0.945000   -11.984814   -547.580581
 0.950000   -14.891811   -605.156846
 0.955000   -18.036383   -620.115723
 0.960000   -21.092969   -558.119388
 0.965000   -23.617577   -409.171204
 0.970000   -25.184681   -175.909612
 0.975000   -25.376673   116.498237
 0.980000   -24.019698   379.997296
 0.985000   -21.576700   550.263881
 0.990000   -18.517060   625.130970
 0.995000   -15.325390   615.785967
 1.000000   -12.359200   570.690133
201 psinorm omgeb(kRad/s) domgeb/dpsiN
 0.000000   66.400109   100.905398
 0.005000   66.727896   30.209589
 0.010000   66.702205   -8.896362
 0.015000   66.638933   -14.440859
 0.020000   66.557796   -17.462139
 0.025000   66.464311   -19.883183
 0.030000   66.358964   -22.226470
 0.035000   66.242047   -24.168331
 0.040000   66.117281   -25.736636
 0.045000   65.984680   -27.153265
 0.050000   65.845748   -28.191879
 0.055000   65.702761   -28.823068
 0.060000   65.557518   -29.368448
 0.065000   65.409077   -29.818084
 0.070000   65.259337   -30.093118
 0.075000   65.108146   -30.393872
 0.080000   64.955398   -30.796893
 0.085000   64.800177   -31.466807
 0.090000   64.640730   -32.491021
 0.095000   64.475267   -33.739182
 0.100000   64.303338   -34.902845
 0.105000   64.126238   -35.871824
 0.110000   63.944620   -36.527799
 0.115000   63.760960   -36.869459
 0.120000   63.575925   -36.289258
 0.125000   63.398068   -34.928544
 0.130000   63.226640   -33.410897
 0.135000   63.063959   -31.667107
 0.140000   62.909969   -29.790704
 0.145000   62.766052   -27.912682
 0.150000   62.630842   -25.989620
 0.155000   62.506155   -24.358555
 0.160000   62.387256   -23.169338
 0.165000   62.274462   -22.169389
 0.170000   62.165563   -21.439947
 0.175000   62.060063   -20.470869
 0.180000   61.960854   -19.970146
 0.185000   61.860361   -19.855891
 0.190000   61.762295   -19.568205
 0.195000   61.664679   -19.435997
 0.200000   61.567935   -19.361706
 0.205000   61.471062   -19.186198
 0.210000   61.376073   -19.889315
 0.215000   61.272169   -21.734672
 0.220000   61.158726   -23.777209
 0.225000   61.034397   -26.191555
 0.230000   60.896811   -29.192042
 0.235000   60.742476   -33.279515
 0.240000   60.564016   -36.893631
 0.245000   60.373540   -38.875315
 0.250000   60.175262   -40.295250
 0.255000   59.970587   -41.462408
 0.260000   59.760638   -42.217905
 0.265000   59.548408   -43.018768
 0.270000   59.330451   -42.558604
 0.275000   59.122822   -40.236437
 0.280000   58.928086   -38.009998
 0.285000   58.742722   -36.150236
 0.290000   58.566584   -34.308119
 0.295000   58.399641   -32.331563
 0.300000   58.243268   -30.212119
 0.305000   58.097520   -29.047122
 0.310000   57.952797   -29.299838
 0.315000   57.804522   -30.556041
 0.320000   57.647237   -32.842240
 0.325000   57.476099   -35.512230
 0.330000   57.292114   -38.774800
 0.335000   57.088351   -43.341845
 0.340000   56.858696   -47.744333
 0.345000   56.610908   -51.131884
 0.350000   56.347377   -53.824167
 0.355000   56.072666   -55.980914
 0.360000   55.787568   -58.172867
 0.365000   55.490938   -59.810117
 0.370000   55.189467   -60.770349
 0.375000   54.883234   -61.782385
 0.380000   54.571643   -63.002191
 0.385000   54.253212   -64.555598
 0.390000   53.926087   -66.091962
 0.395000   53.592293   -67.400366
 0.400000   53.252083   -68.943000
 0.405000   52.902863   -70.686023
 0.410000   52.545223   -72.602263
 0.415000   52.176840   -75.382648
 0.420000   51.791397   -79.573694
 0.425000   51.381103   -86.333648
 0.430000   50.928060   -95.401626
 0.435000   50.427087   -106.093709
 0.440000   49.867123   -119.196089
 0.445000   49.235126   -132.793389
 0.450000   48.539189   -145.084954
 0.455000   47.784276   -156.756701
 0.460000   46.971622   -166.952080
 0.465000   46.114756   -174.737152
 0.470000   45.224251   -179.348673
 0.475000   44.321269   -179.412599
 0.480000   43.430125   -175.493815
 0.485000   42.566331   -168.557032
 0.490000   41.744554   -158.921777
 0.495000   40.977113   -146.979787
 0.500000   40.274756   -133.966992
 0.505000   39.637443   -121.925091
 0.510000   39.055506   -111.642382
 0.515000   38.521019   -103.145257
 0.520000   38.024053   -96.426166
 0.525000   37.556757   -91.152105
 0.530000   37.112532   -87.479799
 0.535000   36.681959   -85.213948
 0.540000   36.260392   -83.288712
 0.545000   35.849072   -81.500766
 0.550000   35.445385   -80.078659
 0.555000   35.048286   -78.689828
 0.560000   34.658487   -77.102440
 0.565000   34.277261   -75.444729
 0.570000   33.904039   -73.820403
 0.575000   33.539057   -72.156627
 0.580000   33.182473   -70.361792
 0.585000   32.835439   -68.473022
 0.590000   32.497743   -66.589673
 0.595000   32.169543   -64.739560
 0.600000   31.850347   -63.094771
 0.605000   31.538595   -61.780221
 0.610000   31.232545   -60.663592
 0.615000   30.931959   -59.813019
 0.620000   30.634415   -59.344847
 0.625000   30.338511   -59.126009
 0.630000   30.043155   -59.195050
 0.635000   29.746560   -59.466673
 0.640000   29.448488   -59.542473
 0.645000   29.151135   -59.499627
 0.650000   28.853492   -59.509402
 0.655000   28.556041   -59.592339
 0.660000   28.257568   -59.986749
 0.665000   27.956174   -61.042553
 0.670000   27.647143   -62.917662
 0.675000   27.326997   -65.967592
 0.680000   26.987467   -70.020926
 0.685000   26.626788   -74.071817
 0.690000   26.246749   -77.973973
 0.695000   25.847048   -82.525869
 0.700000   25.421490   -83.212870
 0.705000   25.014920   -80.473876
 0.710000   24.616751   -78.128743
 0.715000   24.233632   -74.547168
 0.720000   23.871280   -70.030086
 0.725000   23.533331   -65.050519
 0.730000   23.220774   -57.401536
 0.735000   22.959316   -48.767445
 0.740000   22.733100   -41.808807
 0.745000   22.541228   -35.294780
 0.750000   22.380152   -29.765673
 0.755000   22.243571   -23.932882
 0.760000   22.140823   -21.496399
 0.765000   22.028607   -23.378000
 0.770000   21.907043   -26.298131
 0.775000   21.765626   -31.093055
 0.780000   21.596113   -36.969189
 0.785000   21.395934   -42.593604
 0.790000   21.170177   -50.091025
 0.795000   20.895024   -58.864639
 0.800000   20.581530   -66.515309
 0.805000   20.229871   -74.253396
 0.810000   19.838996   -81.749307
 0.815000   19.412377   -89.084059
 0.820000   18.948156   -95.542220
 0.825000   18.456955   -100.581578
 0.830000   17.942340   -105.117136
 0.835000   17.405784   -109.245410
 0.840000   16.849886   -112.373280
 0.845000   16.282051   -114.711691
 0.850000   15.702769   -116.477171
 0.855000   15.117279   -118.450516
 0.860000   14.518264   -122.222137
 0.865000   13.895058   -128.433596
 0.870000   13.233928   -137.168321
 0.875000   12.523375   -149.796806
 0.880000   11.735960   -166.652833
 0.885000   10.856847   -186.872841
 0.890000   9.867231   -212.693707
 0.895000   8.729909   -246.089549
 0.900000   7.406336   -286.147912
 0.905000   5.868430   -334.809029
 0.910000   4.058246   -391.831754
 0.915000   1.950113   -449.539748
 0.920000   -0.437152   -510.986789
 0.925000   -3.159755   -580.985448
 0.930000   -6.247006   -653.957458
 0.935000   -9.699330   -730.621075
 0.940000   -13.553217   -809.402936
 0.945000   -17.793359   -851.349346
 0.950000   -22.066711   -839.533389
 0.955000   -26.188693   -771.955941
 0.960000   -29.786270   -622.399411
 0.965000   -32.412687   -388.699439
 0.970000   -33.673264   -79.493474
 0.975000   -33.207622   285.854738
 0.980000   -30.814717   649.427807
 0.985000   -26.713344   977.664045
 0.990000   -21.038077   1259.204575
 0.995000   -14.121298   1425.134183
 1.000000   -6.786735   1508.691092
201 psinorm er(kV/m) der/dpsiN
 0.000000   1.053573   1170.391773
 0.005000   5.765242   714.276132
 0.010000   8.196334   429.095459
 0.015000   10.056197   344.790522
 0.020000   11.644239   295.975686
 0.025000   13.015954   260.984716
 0.030000   14.254086   237.097896
 0.035000   15.386933   218.173255
 0.040000   16.435819   201.928575
 0.045000   17.406218   187.806009
 0.050000   18.313879   175.367542
 0.055000   19.159894   166.150498
 0.060000   19.975384   159.031845
 0.065000   20.750212   149.361351
 0.070000   21.468997   141.433333
 0.075000   22.164546   137.347482
 0.080000   22.842472   128.614392
 0.085000   23.450690   123.662443
 0.090000   24.079097   119.526217
 0.095000   24.645952   112.267667
 0.100000   25.201773   108.981636
 0.105000   25.735768   102.474250
 0.110000   26.226516   99.527583
 0.115000   26.731044   94.503066
 0.120000   27.171546   91.612348
 0.125000   27.647167   88.649746
 0.130000   28.058044   85.583217
 0.135000   28.503000   84.210749
 0.140000   28.900151   80.666970
 0.145000   29.309669   80.711277
 0.150000   29.707264   76.555379
 0.155000   30.075223   77.082781
 0.160000   30.478092   72.625385
 0.165000   30.801477   72.885409
 0.170000   31.206946   69.727827
 0.175000   31.498755   66.466016
 0.180000   31.871606   69.675106
 0.185000   32.195506   62.607083
 0.190000   32.497677   65.321442
 0.195000   32.848721   59.070567
 0.200000   33.088383   57.152028
 0.205000   33.420241   60.871031
 0.210000   33.697093   52.973865
 0.215000   33.949980   55.007502
 0.220000   34.247168   48.487255
 0.225000   34.434852   44.040432
 0.230000   34.687572   47.613575
 0.235000   34.910988   37.151716
 0.240000   35.059090   35.314150
 0.245000   35.264129   35.276834
 0.250000   35.411858   28.094211
 0.255000   35.545071   30.278182
 0.260000   35.714640   26.375532
 0.265000   35.808827   21.823521
 0.270000   35.932875   27.202740
 0.275000   36.080854   21.766946
 0.280000   36.150544   20.709067
 0.285000   36.287945   27.823468
 0.290000   36.428779   21.216335
 0.295000   36.500108   21.079689
 0.300000   36.639576   27.523211
 0.305000   36.775340   21.275787
 0.310000   36.852334   20.236469
 0.315000   36.977705   23.482444
 0.320000   37.087158   15.961885
 0.325000   37.137324   13.416066
 0.330000   37.221319   14.750461
 0.335000   37.284828   6.364051
 0.340000   37.284959   2.435353
 0.345000   37.309182   3.437115
 0.350000   37.319331   -3.298217
 0.355000   37.276200   -6.106632
 0.360000   37.258264   -4.583688
 0.365000   37.230363   -9.708475
 0.370000   37.161179   -12.077335
 0.375000   37.109590   -10.597268
 0.380000   37.055207   -14.019097
 0.385000   36.969399   -17.142403
 0.390000   36.883783   -17.063772
 0.395000   36.798761   -19.081135
 0.400000   36.692971   -22.509366
 0.405000   36.573667   -23.552793
 0.410000   36.457443   -24.856058
 0.415000   36.325107   -29.217638
 0.420000   36.165267   -32.688486
 0.425000   35.998222   -36.717642
 0.430000   35.798091   -45.479397
 0.435000   35.543428   -54.119869
 0.440000   35.256892   -62.673732
 0.445000   34.916691   -74.020200
 0.450000   34.516690   -84.327397
 0.455000   34.073417   -92.766481
 0.460000   33.589025   -100.825757
 0.465000   33.065159   -108.248386
 0.470000   32.506541   -112.370574
 0.475000   31.941453   -112.544404
 0.480000   31.381097   -111.532527
 0.485000   30.826128   -107.599704
 0.490000   30.305100   -100.528105
 0.495000   29.820847   -92.989221
 0.500000   29.375208   -84.724709
 0.505000   28.973600   -76.175996
 0.510000   28.613448   -68.913580
 0.515000   28.284464   -63.922367
 0.520000   27.974224   -59.504539
 0.525000   27.689419   -55.382982
 0.530000   27.420395   -53.656389
 0.535000   27.152855   -52.747857
 0.540000   26.892916   -51.173758
 0.545000   26.641117   -50.153896
 0.550000   26.391377   -50.108101
 0.555000   26.140036   -49.342434
 0.560000   25.897953   -47.861066
 0.565000   25.661426   -47.581249
 0.570000   25.422140   -46.960669
 0.575000   25.191819   -45.381936
 0.580000   24.968321   -44.331434
 0.585000   24.748504   -43.839023
 0.590000   24.529931   -42.543843
 0.595000   24.323066   -40.749747
 0.600000   24.122433   -40.408863
 0.605000   23.918977   -39.940141
 0.610000   23.723032   -38.652338
 0.615000   23.532454   -38.171937
 0.620000   23.341312   -38.770962
 0.625000   23.144744   -38.676697
 0.630000   22.954545   -38.179733
 0.635000   22.762947   -39.192749
 0.640000   22.562618   -39.833736
 0.645000   22.364610   -39.363269
 0.650000   22.168985   -39.264590
 0.655000   21.971964   -40.438342
 0.660000   21.764602   -40.881824
 0.665000   21.563146   -40.924017
 0.670000   21.355362   -43.003912
 0.675000   21.133106   -46.123022
 0.680000   20.894131   -48.948187
 0.685000   20.643625   -51.654847
 0.690000   20.377583   -55.876289
 0.695000   20.084862   -59.772765
 0.700000   19.779855   -59.430473
 0.705000   19.490557   -57.583737
 0.710000   19.204018   -56.933152
 0.715000   18.921225   -54.018793
 0.720000   18.663830   -49.614612
 0.725000   18.425079   -46.655745
 0.730000   18.197273   -41.369967
 0.735000   18.011380   -33.898308
 0.740000   17.858290   -27.967214
 0.745000   17.731708   -24.193397
 0.750000   17.616356   -20.018713
 0.755000   17.531520   -14.264583
 0.760000   17.473710   -12.652757
 0.765000   17.404993   -15.070206
 0.770000   17.323008   -17.176784
 0.775000   17.233225   -20.235296
 0.780000   17.120655   -25.499237
 0.785000   16.978233   -30.488108
 0.790000   16.815774   -36.098370
 0.795000   16.617249   -42.823419
 0.800000   16.387539   -49.657418
 0.805000   16.120675   -56.132522
 0.810000   15.826214   -61.719152
 0.815000   15.503483   -67.699004
 0.820000   15.149224   -73.594214
 0.825000   14.767541   -77.828518
 0.830000   14.370939   -81.164497
 0.835000   13.955896   -84.829714
 0.840000   13.522642   -87.938276
 0.845000   13.076513   -89.943765
 0.850000   12.623204   -91.242819
 0.855000   12.164085   -93.267640
 0.860000   11.690528   -96.785773
 0.865000   11.196227   -101.838838
 0.870000   10.672139   -108.877618
 0.875000   10.107451   -119.527354
 0.880000   9.476866   -133.378169
 0.885000   8.773670   -149.613668
 0.890000   7.980729   -170.680746
 0.895000   7.066862   -198.102420
 0.900000   5.999705   -230.370623
 0.905000   4.763156   -269.689188
 0.910000   3.302813   -317.209879
 0.915000   1.591057   -366.021773
 0.920000   -0.357405   -416.446909
 0.925000   -2.573412   -474.065797
 0.930000   -5.098063   -541.386358
 0.935000   -7.987276   -615.736321
 0.940000   -11.255426   -681.279855
 0.945000   -14.800074   -712.550359
 0.950000   -18.380929   -726.504670
 0.955000   -22.065121   -693.650535
 0.960000   -25.317435   -554.533000
 0.965000   -27.610451   -342.552563
 0.970000   -28.742960   -93.269954
 0.975000   -28.543150   214.380728
 0.980000   -26.599153   545.485371
 0.985000   -23.088297   839.277501
 0.990000   -18.206378   1086.725160
 0.995000   -12.221045   1232.381888
 1.000000   -5.882559   1303.012446
201 psinorm ommvb() dommvb/dpsiN
 0.000000   -24.603571   15458.558789
 0.005000   37.878586   9534.304015
 0.010000   70.739470   7524.313230
 0.015000   113.121719   7931.447011
 0.020000   150.053940   7065.002921
 0.025000   183.771748   6298.795072
 0.030000   213.041890   5574.796111
 0.035000   239.519709   5199.744083
 0.040000   265.039331   4720.522400
 0.045000   286.724933   4138.357692
 0.050000   306.422908   3936.228955
 0.055000   326.087223   3558.776527
 0.060000   342.010673   3097.627255
 0.065000   357.063495   2918.277910
 0.070000   371.193452   2573.678522
 0.075000   382.800280   2232.895225
 0.080000   393.522405   2106.567326
 0.085000   403.865954   1902.641135
 0.090000   412.548816   1632.406464
 0.095000   420.190018   1441.460276
 0.100000   426.963419   1275.079982
 0.105000   432.940818   1108.983042
 0.110000   438.053249   926.607973
 0.115000   442.206898   731.878433
 0.120000   445.372034   562.900652
 0.125000   447.835904   415.877947
 0.130000   449.530813   256.385729
 0.135000   450.399762   96.810162
 0.140000   450.498915   -55.163768
 0.145000   449.848124   -169.351475
 0.150000   448.805400   -266.715537
 0.155000   447.180969   -374.092876
 0.160000   445.064471   -473.934873
 0.165000   442.441620   -568.015703
 0.170000   439.384314   -653.690380
 0.175000   435.904716   -715.358858
 0.180000   432.230726   -766.351264
 0.185000   428.241203   -845.730571
 0.190000   423.773420   -925.652519
 0.195000   418.984678   -1054.758960
 0.200000   413.225830   -1233.296384
 0.205000   406.651714   -1204.967150
 0.210000   401.176159   -1106.646087
 0.215000   395.585253   -1129.362507
 0.220000   389.882534   -1162.724032
 0.225000   383.958013   -1215.415444
 0.230000   377.728379   -1408.149034
 0.235000   369.876523   -1431.045969
 0.240000   363.417920   -1224.421233
 0.245000   357.632310   -1153.432677
 0.250000   351.883593   -1145.856116
 0.255000   346.173749   -1189.070136
 0.260000   339.992891   -1374.932334
 0.265000   332.424426   -1281.147226
 0.270000   327.181419   -1008.902237
 0.275000   322.335404   -951.940816
 0.280000   317.662011   -982.105183
 0.285000   312.514352   -1181.386111
 0.290000   305.848150   -1093.922178
 0.295000   301.575130   -836.929300
 0.300000   297.478857   -803.426653
 0.305000   293.540863   -853.310912
 0.310000   288.945748   -927.527928
 0.315000   284.265584   -781.829450
 0.320000   281.127453   -613.903544
 0.325000   278.126549   -586.216015
 0.330000   275.265293   -698.003977
 0.335000   271.146509   -671.419601
 0.340000   268.551097   -470.453398
 0.345000   266.441975   -409.219807
 0.350000   264.458899   -429.976175
 0.355000   262.142213   -467.181085
 0.360000   259.787088   -369.950187
 0.365000   258.442711   -257.593832
 0.370000   257.211150   -234.352526
 0.375000   256.099186   -297.433435
 0.380000   254.236816   -258.082594
 0.385000   253.518360   -139.842587
 0.390000   252.838390   -129.974072
 0.395000   252.218619   -146.984337
 0.400000   251.368546   -126.788724
 0.405000   250.950732   -49.989979
 0.410000   250.868646   -11.014603
 0.415000   250.840586   -19.885683
 0.420000   250.669790   -45.163404
 0.425000   250.388952   -19.831575
 0.430000   250.471474   13.696851
 0.435000   250.525921   5.497895
 0.440000   250.526453   -47.992714
 0.445000   250.045993   -51.925792
 0.450000   250.007195   -4.285420
 0.455000   250.003139   -0.062172
 0.460000   250.006573   -42.107313
 0.465000   249.582066   -66.741866
 0.470000   249.339155   -31.511719
 0.475000   249.266949   -10.484758
 0.480000   249.234307   -13.818973
 0.485000   249.128759   -25.686268
 0.490000   248.977444   9.683792
 0.495000   249.225597   62.296166
 0.500000   249.600406   87.834614
 0.505000   250.103943   78.460642
 0.510000   250.385012   86.187702
 0.515000   250.965820   128.768281
 0.520000   251.672695   147.880399
 0.525000   252.444624   149.897024
 0.530000   253.171665   134.230684
 0.535000   253.786931   147.418613
 0.540000   254.645852   176.762571
 0.545000   255.554557   186.374561
 0.550000   256.509597   167.561650
 0.555000   257.230173   158.056193
 0.560000   258.090159   189.237488
 0.565000   259.122548   212.495485
 0.570000   260.215114   224.506179
 0.575000   261.367610   204.154086
 0.580000   262.256655   207.634227
 0.585000   263.443952   247.111566
 0.590000   264.727770   263.109011
 0.595000   266.075042   275.100113
 0.600000   267.478772   257.146607
 0.605000   268.646508   282.105837
 0.610000   270.299830   340.373087
 0.615000   272.050239   359.753797
 0.620000   273.897368   379.954469
 0.625000   275.849784   393.740638
 0.630000   277.834774   419.735448
 0.635000   280.047138   457.150493
 0.640000   282.406279   484.840159
 0.645000   284.895540   511.566320
 0.650000   287.521942   540.296267
 0.655000   290.298503   572.451966
 0.660000   293.246462   606.209409
 0.665000   296.360597   638.002153
 0.670000   299.626484   669.120263
 0.675000   303.051799   702.173281
 0.680000   306.648216   748.657655
 0.685000   310.538376   791.841243
 0.690000   314.566629   827.496505
 0.695000   318.813341   870.875668
 0.700000   323.275386   919.072110
 0.705000   328.004062   972.178876
 0.710000   332.997174   1030.278697
 0.715000   338.306849   1098.466251
 0.720000   343.981837   1150.927430
 0.725000   349.816123   1196.557370
 0.730000   355.947411   1256.997150
 0.735000   362.386095   1318.351494
 0.740000   369.130925   1381.931121
 0.745000   376.205406   1447.529174
 0.750000   383.606217   1517.046614
 0.755000   391.375872   1572.137142
 0.760000   399.327589   1618.880546
 0.765000   407.564678   1677.365838
 0.770000   416.101247   1739.201991
 0.775000   424.956698   1807.303367
 0.780000   434.174281   1885.690178
 0.785000   443.813599   1971.947988
 0.790000   453.893761   2055.215587
 0.795000   464.365755   2148.571216
 0.800000   475.379473   2259.971317
 0.805000   486.965468   2374.327425
 0.810000   499.122747   2494.267976
 0.815000   511.908148   2626.112295
 0.820000   525.383870   2774.565292
 0.825000   539.653801   2942.516770
 0.830000   554.809038   3123.285131
 0.835000   570.886652   3314.755576
 0.840000   587.956593   3522.754074
 0.845000   606.114193   3719.403056
 0.850000   625.150624   3929.357528
 0.855000   645.407768   4186.274817
 0.860000   667.013372   4450.479273
 0.865000   689.912561   4705.216871
 0.870000   714.065541   5016.318466
 0.875000   740.075746   5419.798448
 0.880000   768.263525   5870.326001
 0.885000   798.779006   6354.456508
 0.890000   831.808090   6868.623322
 0.895000   867.465239   7426.327264
 0.900000   906.071363   8065.632214
 0.905000   948.121561   8821.352724
 0.910000   994.284890   9779.145945
 0.915000   1045.913021   11034.835114
 0.920000   1104.633241   12658.785997
 0.925000   1172.500881   14913.770954
 0.930000   1253.770951   18322.403339
 0.935000   1355.724914   23441.730938
 0.940000   1488.188260   30757.396708
 0.945000   1663.298881   40430.343126
 0.950000   1892.491692   51643.689736
 0.955000   2179.735778   61806.409509
 0.960000   2510.555787   67251.348557
 0.965000   2852.249264   62427.935916
 0.970000   3134.835146   49472.440912
 0.975000   3346.973673   32481.693439
 0.980000   3459.652080   15362.928730
 0.985000   3500.602960   17197.890577
 0.990000   3631.630986   52679.503258
 0.995000   4027.397993   339985.063068
 1.000000   7031.481617   861648.386383
201 psinorm ommpp() dommpp/dpsiN
 0.000000   91.003679   -15357.653391
 0.005000   28.849310   -9504.094426
 0.010000   -4.037265   -7533.209592
 0.015000   -46.482786   -7945.887870
 0.020000   -83.496144   -7082.465060
 0.025000   -117.307437   -6318.678255
 0.030000   -146.682926   -5597.022580
 0.035000   -173.277662   -5223.912413
 0.040000   -198.922050   -4746.259036
 0.045000   -220.740253   -4165.510957
 0.050000   -240.577160   -3964.420834
 0.055000   -260.384461   -3587.599594
 0.060000   -276.453156   -3126.995703
 0.065000   -291.654418   -2948.095994
 0.070000   -305.934116   -2603.771640
 0.075000   -317.692135   -2263.289097
 0.080000   -328.567007   -2137.364218
 0.085000   -339.065777   -1934.107941
 0.090000   -347.908086   -1664.897485
 0.095000   -355.714752   -1475.199458
 0.100000   -362.660081   -1309.982827
 0.105000   -368.814580   -1144.854866
 0.110000   -374.108629   -963.135771
 0.115000   -378.445938   -768.747892
 0.120000   -381.796108   -599.189911
 0.125000   -384.437837   -450.806492
 0.130000   -386.304173   -289.796625
 0.135000   -387.335803   -128.477269
 0.140000   -387.588946   25.373064
 0.145000   -387.082072   141.438793
 0.150000   -386.174558   240.725917
 0.155000   -384.674813   349.734321
 0.160000   -382.677215   450.765535
 0.165000   -380.167158   545.846314
 0.170000   -377.218752   632.250433
 0.175000   -373.844653   694.887989
 0.180000   -370.269872   746.381118
 0.185000   -366.380842   825.874680
 0.190000   -362.011125   906.084313
 0.195000   -357.319999   1035.322963
 0.200000   -351.657895   1213.934677
 0.205000   -345.180652   1185.780952
 0.210000   -339.800086   1086.756772
 0.215000   -334.313085   1107.627834
 0.220000   -328.723807   1138.946823
 0.225000   -322.923616   1189.223889
 0.230000   -316.831568   1378.956992
 0.235000   -309.134046   1397.766454
 0.240000   -302.853904   1187.527603
 0.245000   -297.258770   1114.557362
 0.250000   -291.708330   1105.560866
 0.255000   -286.203162   1147.607728
 0.260000   -280.232253   1332.714430
 0.265000   -272.876018   1238.128458
 0.270000   -267.850968   966.343633
 0.275000   -263.212581   911.704380
 0.280000   -258.733925   944.095185
 0.285000   -253.771629   1145.235875
 0.290000   -247.281566   1059.614060
 0.295000   -243.175489   804.597736
 0.300000   -239.235589   773.214535
 0.305000   -235.443343   824.263790
 0.310000   -230.992951   898.228090
 0.315000   -226.461062   751.273410
 0.320000   -223.480217   581.061304
 0.325000   -220.650449   550.703785
 0.330000   -217.973179   659.229177
 0.335000   -214.058158   628.077756
 0.340000   -211.692401   422.709065
 0.345000   -209.831067   358.087923
 0.350000   -208.111522   376.152008
 0.355000   -206.069547   411.200171
 0.360000   -203.999520   311.777320
 0.365000   -202.951774   197.783715
 0.370000   -202.021683   173.582178
 0.375000   -201.215952   235.651051
 0.380000   -199.665173   195.080403
 0.385000   -199.265148   75.286989
 0.390000   -198.912303   63.882109
 0.395000   -198.626327   79.583971
 0.400000   -198.116463   57.845724
 0.405000   -198.047870   -20.696044
 0.410000   -198.323423   -61.587660
 0.415000   -198.663746   -55.496965
 0.420000   -198.878393   -34.410290
 0.425000   -199.007849   -66.502073
 0.430000   -199.543414   -109.098476
 0.435000   -200.098834   -111.591605
 0.440000   -200.659330   -71.203375
 0.445000   -200.810868   -80.867597
 0.450000   -201.468006   -140.799535
 0.455000   -202.218863   -156.694529
 0.460000   -203.034951   -124.844767
 0.465000   -203.467311   -107.995286
 0.470000   -204.114904   -147.836954
 0.475000   -204.945680   -168.927842
 0.480000   -205.804182   -161.674842
 0.485000   -206.562429   -142.870764
 0.490000   -207.232890   -168.605569
 0.495000   -208.248484   -209.275953
 0.500000   -209.325649   -221.801606
 0.505000   -210.466500   -200.385732
 0.510000   -211.329507   -197.830084
 0.515000   -212.444801   -231.913538
 0.520000   -213.648642   -244.306564
 0.525000   -214.887867   -241.049129
 0.530000   -216.059133   -221.710484
 0.535000   -217.104972   -232.632561
 0.540000   -218.385459   -260.051282
 0.545000   -219.705484   -267.875328
 0.550000   -221.064212   -247.640309
 0.555000   -222.181888   -236.746021
 0.560000   -223.431673   -266.339928
 0.565000   -224.845287   -287.940214
 0.570000   -226.311075   -298.326581
 0.575000   -227.828553   -276.310713
 0.580000   -229.074182   -277.996020
 0.585000   -230.608513   -315.584588
 0.590000   -232.230028   -329.698684
 0.595000   -233.905500   -339.839673
 0.600000   -235.628424   -320.241378
 0.605000   -237.107913   -343.886058
 0.610000   -239.067285   -401.036678
 0.615000   -241.118280   -419.566817
 0.620000   -243.262953   -439.299316
 0.625000   -245.511273   -452.866647
 0.630000   -247.791620   -478.930498
 0.635000   -250.300578   -516.617166
 0.640000   -252.957791   -544.382632
 0.645000   -255.744405   -571.065947
 0.650000   -258.668451   -599.805669
 0.655000   -261.742461   -632.044305
 0.660000   -264.988894   -666.196158
 0.665000   -268.404423   -699.044706
 0.670000   -271.979341   -732.037925
 0.675000   -275.724802   -768.140874
 0.680000   -279.660750   -818.678580
 0.685000   -283.911588   -865.913060
 0.690000   -288.319880   -905.470477
 0.695000   -292.966293   -953.401537
 0.700000   -297.853896   -1002.284980
 0.705000   -302.989143   -1052.652753
 0.710000   -308.380423   -1108.407439
 0.715000   -314.073217   -1173.013419
 0.720000   -320.110557   -1220.957517
 0.725000   -326.282792   -1261.607889
 0.730000   -332.726636   -1314.398686
 0.735000   -339.426779   -1367.118939
 0.740000   -346.397826   -1423.739929
 0.745000   -353.664178   -1482.823954
 0.750000   -361.226065   -1546.812287
 0.755000   -369.132301   -1596.070024
 0.760000   -377.186765   -1640.376945
 0.765000   -385.536071   -1700.743838
 0.770000   -394.194204   -1765.500122
 0.775000   -403.191072   -1838.396423
 0.780000   -412.578168   -1922.659367
 0.785000   -422.417666   -2014.541592
 0.790000   -432.723584   -2105.306612
 0.795000   -443.470732   -2207.435854
 0.800000   -454.797942   -2326.486626
 0.805000   -466.735598   -2448.580822
 0.810000   -479.283751   -2576.017283
 0.815000   -492.495771   -2715.196355
 0.820000   -506.435714   -2870.107513
 0.825000   -521.196846   -3043.098348
 0.830000   -536.866698   -3228.402267
 0.835000   -553.480869   -3424.000986
 0.840000   -571.106708   -3635.127354
 0.845000   -589.832142   -3834.114746
 0.850000   -609.447855   -4045.834699
 0.855000   -630.290489   -4304.725334
 0.860000   -652.495108   -4572.701409
 0.865000   -676.017503   -4833.650467
 0.870000   -700.831613   -5153.486787
 0.875000   -727.552371   -5569.595255
 0.880000   -756.527566   -6036.978834
 0.885000   -787.922159   -6541.329350
 0.890000   -821.940859   -7081.317029
 0.895000   -858.735330   -7672.416813
 0.900000   -898.665027   -8351.780126
 0.905000   -942.253131   -9156.161753
 0.910000   -990.226645   -10170.977699
 0.915000   -1043.962908   -11484.374862
 0.920000   -1105.070393   -13169.772786
 0.925000   -1175.660636   -15494.756402
 0.930000   -1260.017957   -18976.360797
 0.935000   -1365.424244   -24172.352013
 0.940000   -1501.741478   -31566.799644
 0.945000   -1681.092240   -41281.692473
 0.950000   -1914.558402   -52483.223125
 0.955000   -2205.924471   -62578.365450
 0.960000   -2540.342057   -67873.747968
 0.965000   -2884.661951   -62816.635355
 0.970000   -3168.508410   -49551.934386
 0.975000   -3380.181295   -32195.838701
 0.980000   -3490.466797   -14713.500924
 0.985000   -3527.316304   -16220.226533
 0.990000   -3652.669063   -51420.298682
 0.995000   -4041.519291   -338559.928885
 1.000000   -7038.268351   -860139.695292
201 psinorm omevb() domevb/dpsiN
 0.000000   42.988093   107.208586
 0.005000   43.356536   40.168520
 0.010000   43.389778   2.948669
 0.015000   43.386022   -2.479905
 0.020000   43.364979   -5.386342
 0.025000   43.332159   -7.693628
 0.030000   43.288043   -9.924248
 0.035000   43.232916   -11.754544
 0.040000   43.170497   -13.212392
 0.045000   43.100792   -14.519677
 0.050000   43.025301   -15.450071
 0.055000   42.946292   -15.974166
 0.060000   42.865559   -16.413588
 0.065000   42.782156   -16.758407
 0.070000   42.697975   -16.929770
 0.075000   42.612858   -17.128008
 0.080000   42.526695   -17.429671
 0.085000   42.438562   -17.999393
 0.090000   42.346701   -18.924586
 0.095000   42.249316   -20.074901
 0.100000   42.145952   -21.141899
 0.105000   42.037897   -22.015400
 0.110000   41.925798   -22.577088
 0.115000   41.812126   -22.825657
 0.120000   41.697541   -22.153566
 0.125000   41.590590   -20.702167
 0.130000   41.490520   -19.095043
 0.135000   41.399640   -17.262991
 0.140000   41.317890   -15.299542
 0.145000   41.246644   -13.335695
 0.150000   41.184533   -11.328034
 0.155000   41.133364   -9.613597
 0.160000   41.088397   -8.342238
 0.165000   41.049942   -7.261382
 0.170000   41.015783   -6.452271
 0.175000   40.985419   -5.404764
 0.180000   40.961735   -4.826853
 0.185000   40.937150   -4.636656
 0.190000   40.915369   -4.274275
 0.195000   40.894408   -4.068621
 0.200000   40.874682   -3.922137
 0.205000   40.855186   -3.675687
 0.210000   40.837926   -4.309117
 0.215000   40.812095   -6.086043
 0.220000   40.777065   -8.061407
 0.225000   40.731481   -10.409837
 0.230000   40.672967   -13.345669
 0.235000   40.598024   -17.369746
 0.240000   40.499269   -20.921727
 0.245000   40.388807   -22.842538
 0.250000   40.270844   -24.202862
 0.255000   40.146778   -25.311669
 0.260000   40.017727   -26.010078
 0.265000   39.886678   -26.755114
 0.270000   39.750176   -26.240386
 0.275000   39.624274   -23.864914
 0.280000   39.511527   -21.586430
 0.285000   39.408409   -19.675883
 0.290000   39.314768   -17.784240
 0.295000   39.230567   -15.759416
 0.300000   39.157174   -13.592958
 0.305000   39.094637   -12.382203
 0.310000   39.033352   -12.590415
 0.315000   38.968733   -13.803364
 0.320000   38.895318   -16.047560
 0.325000   38.808258   -18.676794
 0.330000   38.708550   -21.899854
 0.335000   38.589259   -26.428632
 0.340000   38.444264   -30.794095
 0.345000   38.281318   -34.145859
 0.350000   38.102805   -36.803590
 0.355000   37.913282   -38.927019
 0.360000   37.713535   -41.086883
 0.365000   37.502413   -42.693272
 0.370000   37.286603   -43.623865
 0.375000   37.066175   -44.607483
 0.380000   36.840528   -45.800088
 0.385000   36.608174   -47.327506
 0.390000   36.367253   -48.839091
 0.395000   36.119783   -50.123921
 0.400000   35.866013   -51.644183
 0.405000   35.603341   -53.366030
 0.410000   35.332353   -55.262288
 0.415000   35.050718   -58.023878
 0.420000   34.752114   -62.197314
 0.425000   34.428745   -68.940837
 0.430000   34.062706   -77.993557
 0.435000   33.648810   -88.671553
 0.440000   33.175990   -101.761009
 0.445000   32.631200   -115.346546
 0.450000   32.022525   -127.627500
 0.455000   31.354925   -139.289785
 0.460000   30.629627   -149.476845
 0.465000   29.860156   -157.254735
 0.470000   29.057080   -161.860205
 0.475000   28.241554   -161.919207
 0.480000   27.437888   -157.996617
 0.485000   26.661588   -151.057141
 0.490000   25.927316   -141.420299
 0.495000   25.247385   -129.477824
 0.500000   24.632538   -116.465637
 0.505000   24.082728   -104.425429
 0.510000   23.588284   -94.145495
 0.515000   23.141274   -85.652214
 0.520000   22.731762   -78.938033
 0.525000   22.351893   -73.669939
 0.530000   21.995062   -70.004649
 0.535000   21.651847   -67.746852
 0.540000   21.317594   -65.830701
 0.545000   20.993540   -64.052862
 0.550000   20.677065   -62.641872
 0.555000   20.367121   -61.265157
 0.560000   20.064414   -59.690874
 0.565000   19.770212   -58.047241
 0.570000   19.483941   -56.437954
 0.575000   19.205833   -54.790161
 0.580000   18.936040   -53.012236
 0.585000   18.675710   -51.141280
 0.590000   18.424627   -49.276628
 0.595000   18.182944   -47.446068
 0.600000   17.950166   -45.821655
 0.605000   17.724728   -44.528269
 0.610000   17.504883   -43.433549
 0.615000   17.290392   -42.605580
 0.620000   17.078828   -42.160644
 0.625000   16.868786   -41.965605
 0.630000   16.659172   -42.058920
 0.635000   16.448196   -42.355189
 0.640000   16.235620   -42.455884
 0.645000   16.023638   -42.438032
 0.650000   15.811239   -42.472716
 0.655000   15.598910   -42.580263
 0.660000   15.385437   -42.998716
 0.665000   15.168923   -44.077679
 0.670000   14.944660   -45.974674
 0.675000   14.709176   -49.044748
 0.680000   14.454212   -53.115917
 0.685000   14.178017   -57.181651
 0.690000   13.882396   -61.094825
 0.695000   13.567069   -65.652917
 0.700000   13.225867   -66.340081
 0.705000   12.903668   -63.593764
 0.710000   12.589929   -61.232069
 0.715000   12.291348   -57.622590
 0.720000   12.013703   -53.063739
 0.725000   11.760710   -48.025518
 0.730000   11.533448   -40.297391
 0.735000   11.357736   -31.559376
 0.740000   11.217854   -24.466941
 0.745000   11.113067   -17.783222
 0.750000   11.040022   -12.041438
 0.755000   10.992652   -5.944681
 0.760000   10.980575   -3.183265
 0.765000   10.960820   -4.667775
 0.770000   10.933897   -7.105820
 0.775000   10.889762   -11.319090
 0.780000   10.820707   -16.497670
 0.785000   10.724785   -21.290639
 0.790000   10.607800   -27.803336
 0.795000   10.446752   -35.418710
 0.800000   10.253613   -41.717476
 0.805000   10.029577   -47.891442
 0.810000   9.774699   -53.596403
 0.815000   9.493613   -58.906208
 0.820000   9.185637   -63.110845
 0.825000   8.862504   -65.693542
 0.830000   8.528701   -67.625354
 0.835000   8.186251   -69.104394
 0.840000   7.837657   -69.705546
 0.845000   7.489195   -69.903055
 0.850000   7.138627   -70.311658
 0.855000   6.786079   -72.299073
 0.860000   6.415636   -78.303511
 0.865000   6.003044   -90.170497
 0.870000   5.513931   -109.666712
 0.875000   4.906377   -140.479385
 0.880000   4.109137   -186.076498
 0.885000   3.045612   -249.748295
 0.890000   1.611654   -339.093073
 0.895000   -0.345319   -462.757852
 0.900000   -3.015924   -627.700953
 0.905000   -6.622329   -844.371257
 0.910000   -11.459637   -1120.315108
 0.915000   -17.825480   -1452.297546
 0.920000   -25.982612   -1840.111907
 0.925000   -36.226599   -2271.392970
 0.930000   -48.696542   -2702.250631
 0.935000   -63.249105   -3068.478026
 0.940000   -79.381322   -3278.406319
 0.945000   -96.033168   -3192.778117
 0.950000   -111.309103   -2716.559892
 0.955000   -123.198767   -1836.127965
 0.960000   -129.670383   -616.338300
 0.965000   -129.362150   751.951102
 0.970000   -122.150872   2020.515604
 0.975000   -109.156994   2976.753956
 0.980000   -92.383333   3494.075767
 0.985000   -74.216237   3607.931295
 0.990000   -56.304020   3458.029107
 0.995000   -39.635946   3129.643879
 1.000000   -25.007581   2721.701998
201 psinorm omepp() domepp/dpsiN
 0.000000   23.412016   -6.303188
 0.005000   23.371361   -9.958931
 0.010000   23.312427   -11.845031
 0.015000   23.252910   -11.960953
 0.020000   23.192817   -12.075797
 0.025000   23.132152   -12.189556
 0.030000   23.070922   -12.302221
 0.035000   23.009130   -12.413787
 0.040000   22.946784   -12.524244
 0.045000   22.883888   -12.633587
 0.050000   22.820448   -12.741809
 0.055000   22.756470   -12.848902
 0.060000   22.691959   -12.954860
 0.065000   22.626921   -13.059678
 0.070000   22.561362   -13.163348
 0.075000   22.495288   -13.265864
 0.080000   22.428703   -13.367222
 0.085000   22.361615   -13.467414
 0.090000   22.294029   -13.566436
 0.095000   22.225951   -13.664281
 0.100000   22.157386   -13.760946
 0.105000   22.088342   -13.856424
 0.110000   22.018822   -13.950711
 0.115000   21.948834   -14.043801
 0.120000   21.878384   -14.135692
 0.125000   21.807477   -14.226377
 0.130000   21.736120   -14.315853
 0.135000   21.664319   -14.404116
 0.140000   21.592079   -14.491162
 0.145000   21.519407   -14.576986
 0.150000   21.446309   -14.661586
 0.155000   21.372791   -14.744959
 0.160000   21.298860   -14.827100
 0.165000   21.224520   -14.908006
 0.170000   21.149780   -14.987676
 0.175000   21.074644   -15.066106
 0.180000   20.999119   -15.143293
 0.185000   20.923211   -15.219235
 0.190000   20.846926   -15.293930
 0.195000   20.770271   -15.367375
 0.200000   20.693253   -15.439570
 0.205000   20.615876   -15.510511
 0.210000   20.538147   -15.580198
 0.215000   20.460074   -15.648629
 0.220000   20.381661   -15.715802
 0.225000   20.302916   -15.781717
 0.230000   20.223844   -15.846373
 0.235000   20.144452   -15.909769
 0.240000   20.064746   -15.971903
 0.245000   19.984733   -16.032777
 0.250000   19.904419   -16.092388
 0.255000   19.823809   -16.150738
 0.260000   19.742911   -16.207827
 0.265000   19.661731   -16.263653
 0.270000   19.580275   -16.318219
 0.275000   19.498549   -16.371523
 0.280000   19.416559   -16.423567
 0.285000   19.334313   -16.474352
 0.290000   19.251816   -16.523879
 0.295000   19.169074   -16.572148
 0.300000   19.086094   -16.619161
 0.305000   19.002883   -16.664919
 0.310000   18.919445   -16.709423
 0.315000   18.835788   -16.752677
 0.320000   18.751918   -16.794680
 0.325000   18.667842   -16.835436
 0.330000   18.583564   -16.874946
 0.335000   18.499092   -16.913212
 0.340000   18.414432   -16.950238
 0.345000   18.329590   -16.986025
 0.350000   18.244572   -17.020577
 0.355000   18.159384   -17.053895
 0.360000   18.074033   -17.085984
 0.365000   17.988524   -17.116846
 0.370000   17.902864   -17.146484
 0.375000   17.817059   -17.174902
 0.380000   17.731115   -17.202103
 0.385000   17.645038   -17.228092
 0.390000   17.558834   -17.252871
 0.395000   17.472510   -17.276445
 0.400000   17.386070   -17.298817
 0.405000   17.299521   -17.319993
 0.410000   17.212870   -17.339975
 0.415000   17.126122   -17.358770
 0.420000   17.039282   -17.376380
 0.425000   16.952358   -17.392812
 0.430000   16.865354   -17.408069
 0.435000   16.778277   -17.422156
 0.440000   16.691133   -17.435080
 0.445000   16.603926   -17.446844
 0.450000   16.516664   -17.457454
 0.455000   16.429352   -17.466916
 0.460000   16.341995   -17.475235
 0.465000   16.254599   -17.482417
 0.470000   16.167171   -17.488467
 0.475000   16.079715   -17.493393
 0.480000   15.992237   -17.497198
 0.485000   15.904743   -17.499891
 0.490000   15.817238   -17.501477
 0.495000   15.729728   -17.501963
 0.500000   15.642218   -17.501355
 0.505000   15.554714   -17.499661
 0.510000   15.467222   -17.496888
 0.515000   15.379746   -17.493042
 0.520000   15.292291   -17.488132
 0.525000   15.204864   -17.482166
 0.530000   15.117470   -17.475151
 0.535000   15.030113   -17.467096
 0.540000   14.942799   -17.458011
 0.545000   14.855533   -17.447904
 0.550000   14.768320   -17.436787
 0.555000   14.681165   -17.424671
 0.560000   14.594073   -17.411567
 0.565000   14.507049   -17.397488
 0.570000   14.420098   -17.382449
 0.575000   14.333225   -17.366466
 0.580000   14.246433   -17.349556
 0.585000   14.159729   -17.331742
 0.590000   14.073116   -17.313045
 0.595000   13.986599   -17.293492
 0.600000   13.900181   -17.273116
 0.605000   13.813867   -17.251951
 0.610000   13.727662   -17.230042
 0.615000   13.641567   -17.207440
 0.620000   13.555587   -17.184203
 0.625000   13.469725   -17.160404
 0.630000   13.383983   -17.136130
 0.635000   13.298364   -17.111484
 0.640000   13.212868   -17.086589
 0.645000   13.127498   -17.061596
 0.650000   13.042252   -17.036685
 0.655000   12.957131   -17.012076
 0.660000   12.872132   -16.988032
 0.665000   12.787251   -16.964874
 0.670000   12.702483   -16.942989
 0.675000   12.617821   -16.922844
 0.680000   12.533254   -16.905008
 0.685000   12.448771   -16.890167
 0.690000   12.364353   -16.879148
 0.695000   12.279979   -16.872953
 0.700000   12.195623   -16.872789
 0.705000   12.111251   -16.880113
 0.710000   12.026822   -16.896674
 0.715000   11.942285   -16.924578
 0.720000   11.857576   -16.966347
 0.725000   11.772621   -17.025001
 0.730000   11.687326   -17.104145
 0.735000   11.601580   -17.208069
 0.740000   11.515246   -17.341866
 0.745000   11.428161   -17.511558
 0.750000   11.340130   -17.724235
 0.755000   11.250919   -17.988201
 0.760000   11.160248   -18.313134
 0.765000   11.067787   -18.710225
 0.770000   10.973146   -19.192311
 0.775000   10.875864   -19.773966
 0.780000   10.775406   -20.471519
 0.785000   10.671149   -21.302965
 0.790000   10.562376   -22.287689
 0.795000   10.448272   -23.445928
 0.800000   10.327917   -24.797833
 0.805000   10.200294   -26.361954
 0.810000   10.064298   -28.152904
 0.815000   9.918765   -30.177852
 0.820000   9.762519   -32.431376
 0.825000   9.594451   -34.888036
 0.830000   9.413639   -37.491782
 0.835000   9.219533   -40.141016
 0.840000   9.012229   -42.667733
 0.845000   8.792856   -44.808635
 0.850000   8.564142   -46.165513
 0.855000   8.331201   -46.151443
 0.860000   8.102628   -43.918626
 0.865000   7.892014   -38.263099
 0.870000   7.719997   -27.501609
 0.875000   7.616998   -9.317421
 0.880000   7.626823   19.423665
 0.885000   7.811235   62.875453
 0.890000   8.255577   126.399366
 0.895000   9.075229   216.668303
 0.900000   10.422260   341.553041
 0.905000   12.490759   509.562228
 0.910000   15.517882   728.483354
 0.915000   19.775593   1002.757797
 0.920000   25.545460   1329.125118
 0.925000   33.066844   1690.407522
 0.930000   42.449536   2048.293173
 0.935000   53.549776   2337.856952
 0.940000   65.828105   2469.003383
 0.945000   78.239809   2341.428770
 0.950000   89.242393   1877.026503
 0.955000   97.010074   1064.172023
 0.960000   99.884113   -6.061111
 0.965000   96.949463   -1140.650541
 0.970000   88.477608   -2100.009078
 0.975000   75.949372   -2690.899218
 0.980000   61.568616   -2844.647960
 0.985000   47.502893   -2630.267250
 0.990000   35.265943   -2198.824532
 0.995000   25.514648   -1704.509696
 1.000000   18.220846   -1213.010906
201 psinorm kpol(km/s/T) dkpol/dpsiN
 0.000000   -0.011897   133.702035
 0.005000   0.519496   78.855275
 0.010000   0.776656   48.581850
 0.015000   1.005315   44.738467
 0.020000   1.224040   43.171991
 0.025000   1.437034   41.928167
 0.030000   1.643322   40.502725
 0.035000   1.842062   39.228958
 0.040000   2.035611   38.070349
 0.045000   2.222765   36.845605
 0.050000   2.404068   35.767449
 0.055000   2.580440   34.886336
 0.060000   2.752931   34.127785
 0.065000   2.921718   33.438001
 0.070000   3.087311   32.725257
 0.075000   3.248970   31.908320
 0.080000   3.406394   30.925418
 0.085000   3.558224   29.668728
 0.090000   3.703081   28.277654
 0.095000   3.841001   26.804942
 0.100000   3.971131   25.401686
 0.105000   4.095018   24.208238
 0.110000   4.213213   23.328117
 0.115000   4.328299   22.898733
 0.120000   4.442201   22.999131
 0.125000   4.558290   23.465293
 0.130000   4.676853   24.117306
 0.135000   4.799463   24.826364
 0.140000   4.925117   25.524826
 0.145000   5.054711   26.116044
 0.150000   5.186278   26.417729
 0.155000   5.318889   26.189956
 0.160000   5.448177   25.514419
 0.165000   5.574033   24.530540
 0.170000   5.693482   23.147856
 0.175000   5.805512   21.507564
 0.180000   5.908558   19.505251
 0.185000   6.000564   17.474342
 0.190000   6.083302   15.376838
 0.195000   6.154332   13.161540
 0.200000   6.214917   11.102021
 0.205000   6.265353   9.033518
 0.210000   6.305252   7.352392
 0.215000   6.338877   5.919259
 0.220000   6.364445   4.427946
 0.225000   6.383156   3.047483
 0.230000   6.394920   1.426115
 0.235000   6.397417   -0.362507
 0.240000   6.391294   -2.336340
 0.245000   6.374054   -4.681628
 0.250000   6.344478   -6.980914
 0.255000   6.304245   -9.334499
 0.260000   6.251133   -11.824852
 0.265000   6.185996   -14.049663
 0.270000   6.110637   -16.175986
 0.275000   6.024236   -18.261732
 0.280000   5.928019   -20.196372
 0.285000   5.822273   -22.235984
 0.290000   5.705659   -24.369593
 0.295000   5.578577   -26.597625
 0.300000   5.439683   -29.128514
 0.305000   5.287291   -31.863108
 0.310000   5.121052   -34.787296
 0.315000   4.939418   -38.076974
 0.320000   4.740282   -41.666739
 0.325000   4.522751   -45.327652
 0.330000   4.287006   -48.841573
 0.335000   4.034335   -51.925576
 0.340000   3.767750   -54.433444
 0.345000   3.490001   -56.334346
 0.350000   3.204407   -57.281742
 0.355000   2.917184   -57.441176
 0.360000   2.629995   -57.456120
 0.365000   2.342622   -57.478573
 0.370000   2.055209   -57.594619
 0.375000   1.766676   -58.022950
 0.380000   1.474980   -59.026003
 0.385000   1.176416   -60.868749
 0.390000   0.866292   -63.420401
 0.395000   0.542212   -66.320741
 0.400000   0.203085   -69.296076
 0.405000   -0.150749   -72.072808
 0.410000   -0.517643   -74.788196
 0.415000   -0.898631   -78.166922
 0.420000   -1.299313   -83.095672
 0.425000   -1.729587   -90.062125
 0.430000   -2.199934   -99.126093
 0.435000   -2.720848   -110.427464
 0.440000   -3.304208   -124.523687
 0.445000   -3.966085   -139.138934
 0.450000   -4.695598   -152.219138
 0.455000   -5.488277   -163.828415
 0.460000   -6.333882   -172.964262
 0.465000   -7.217919   -179.006784
 0.470000   -8.123950   -180.499678
 0.475000   -9.022916   -175.990495
 0.480000   -9.883855   -166.178374
 0.485000   -10.684700   -152.371797
 0.490000   -11.407573   -135.544303
 0.495000   -12.040143   -116.303274
 0.500000   -12.570605   -96.249747
 0.505000   -13.002640   -78.159465
 0.510000   -13.352200   -62.902223
 0.515000   -13.631662   -50.317481
 0.520000   -13.855375   -40.398978
 0.525000   -14.035652   -32.812267
 0.530000   -14.183498   -27.833141
 0.535000   -14.313984   -25.073158
 0.540000   -14.434229   -23.131254
 0.545000   -14.545296   -21.392840
 0.550000   -14.648158   -19.861017
 0.555000   -14.743906   -18.377750
 0.560000   -14.831935   -16.609673
 0.565000   -14.910003   -14.479746
 0.570000   -14.976733   -12.083400
 0.575000   -15.030837   -9.308708
 0.580000   -15.069820   -6.155115
 0.585000   -15.092388   -2.887310
 0.590000   -15.098693   0.465903
 0.595000   -15.087729   3.869537
 0.600000   -15.059997   7.058854
 0.605000   -15.017141   9.848087
 0.610000   -14.961516   12.254659
 0.615000   -14.894594   14.211087
 0.620000   -14.819406   15.617336
 0.625000   -14.738421   16.628402
 0.630000   -14.653122   17.375473
 0.635000   -14.564666   17.894020
 0.640000   -14.474181   18.183534
 0.645000   -14.382831   18.426022
 0.650000   -14.289921   18.822923
 0.655000   -14.194601   19.251339
 0.660000   -14.097408   19.623577
 0.665000   -13.998366   19.978940
 0.670000   -13.897618   20.278509
 0.675000   -13.795581   20.449977
 0.680000   -13.693119   20.584932
 0.685000   -13.589731   20.806330
 0.690000   -13.485055   21.112955
 0.695000   -13.378602   21.502011
 0.700000   -13.270035   22.072570
 0.705000   -13.157876   22.799069
 0.710000   -13.042045   23.390347
 0.715000   -12.923972   23.727205
 0.720000   -12.804772   23.798161
 0.725000   -12.685991   23.524615
 0.730000   -12.569526   22.836217
 0.735000   -12.457629   21.651707
 0.740000   -12.353009   19.952994
 0.745000   -12.258099   17.843218
 0.750000   -12.174577   15.440244
 0.755000   -12.103696   12.863199
 0.760000   -12.045945   10.209416
 0.765000   -12.001602   7.615902
 0.770000   -11.969786   5.238025
 0.775000   -11.949222   3.096511
 0.780000   -11.938821   1.131462
 0.785000   -11.937907   -0.803175
 0.790000   -11.946853   -2.866657
 0.795000   -11.966574   -5.221705
 0.800000   -11.999070   -8.036177
 0.805000   -12.046936   -11.386277
 0.810000   -12.112933   -15.211802
 0.815000   -12.199054   -19.414100
 0.820000   -12.307074   -23.999782
 0.825000   -12.439051   -28.543160
 0.830000   -12.592505   -32.569831
 0.835000   -12.764750   -35.960359
 0.840000   -12.952109   -38.633747
 0.845000   -13.151087   -40.304663
 0.850000   -13.355155   -40.572944
 0.855000   -13.556817   -39.777397
 0.860000   -13.752929   -38.515515
 0.865000   -13.941972   -36.780354
 0.870000   -14.120733   -34.703288
 0.875000   -14.289005   -32.649188
 0.880000   -14.447225   -30.910830
 0.885000   -14.598113   -29.781548
 0.890000   -14.745040   -29.260660
 0.895000   -14.890720   -28.713503
 0.900000   -15.032175   -28.145568
 0.905000   -15.172175   -28.569406
 0.910000   -15.317869   -29.465035
 0.915000   -15.466826   -26.753339
 0.920000   -15.585403   -21.328599
 0.925000   -15.680112   -15.976632
 0.930000   -15.745169   -8.391949
 0.935000   -15.764031   6.346099
 0.940000   -15.681708   26.477203
 0.945000   -15.499259   49.919401
 0.950000   -15.182514   79.950735
 0.955000   -14.699752   113.700373
 0.960000   -14.045510   148.098943
 0.965000   -13.218762   181.398164
 0.970000   -12.231529   211.262256
 0.975000   -11.106140   252.612110
 0.980000   -9.705408   357.807797
 0.985000   -7.528062   578.977778
 0.990000   -3.915630   900.301851
 0.995000   1.474957   1186.879580
 1.000000   7.953166   1404.404157
201 psinorm omghb() domghb/dpsiN
 0.000000   -0.000023   0.055068
 0.005000   0.000190   0.030086
 0.010000   0.000278   0.046474
 0.015000   0.000655   0.082287
 0.020000   0.001101   0.092871
 0.025000   0.001584   0.098247
 0.030000   0.002084   0.108440
 0.035000   0.002668   0.116577
 0.040000   0.003249   0.124400
 0.045000   0.003912   0.128410
 0.050000   0.004533   0.122745
 0.055000   0.005140   0.117779
 0.060000   0.005711   0.108869
 0.065000   0.006228   0.102172
 0.070000   0.006733   0.116670
 0.075000   0.007395   0.132403
 0.080000   0.008057   0.131622
 0.085000   0.008711   0.142143
 0.090000   0.009478   0.162226
 0.095000   0.010333   0.186997
 0.100000   0.011348   0.208144
 0.105000   0.012415   0.176729
 0.110000   0.013116   0.130698
 0.115000   0.013722   0.093391
 0.120000   0.014050   0.056183
 0.125000   0.014284   0.026094
 0.130000   0.014310   -0.041838
 0.135000   0.013865   -0.093256
 0.140000   0.013378   -0.085860
 0.145000   0.013007   -0.076279
 0.150000   0.012615   -0.074676
 0.155000   0.012260   -0.066008
 0.160000   0.011955   -0.067596
 0.165000   0.011584   -0.032430
 0.170000   0.011631   -0.004428
 0.175000   0.011540   0.007374
 0.180000   0.011704   0.026022
 0.185000   0.011800   -0.008405
 0.190000   0.011620   -0.025172
 0.195000   0.011548   0.054011
 0.200000   0.012161   0.124809
 0.205000   0.012796   0.132857
 0.210000   0.013489   0.162142
 0.215000   0.014418   0.233307
 0.220000   0.015822   0.404780
 0.225000   0.018465   0.570303
 0.230000   0.021525   0.567778
 0.235000   0.024143   0.492022
 0.240000   0.026445   0.463706
 0.245000   0.028780   0.476569
 0.250000   0.031211   0.558888
 0.255000   0.034369   0.229523
 0.260000   0.033506   -0.056075
 0.265000   0.033808   0.023795
 0.270000   0.033744   -0.044516
 0.275000   0.033363   -0.125904
 0.280000   0.032485   -0.165152
 0.285000   0.031712   -0.344250
 0.290000   0.029043   -0.391208
 0.295000   0.027800   -0.198416
 0.300000   0.027059   -0.106691
 0.305000   0.026733   -0.018914
 0.310000   0.026869   -0.086291
 0.315000   0.025870   0.354572
 0.320000   0.030415   0.801980
 0.325000   0.033890   0.749047
 0.330000   0.037906   0.818534
 0.335000   0.042075   0.802369
 0.340000   0.045929   0.716337
 0.345000   0.049238   0.793238
 0.350000   0.053862   0.748100
 0.355000   0.056719   0.515742
 0.360000   0.059019   0.407547
 0.365000   0.060795   0.332255
 0.370000   0.062342   0.417786
 0.375000   0.064973   0.408551
 0.380000   0.066427   0.304914
 0.385000   0.068022   0.369986
 0.390000   0.070127   0.473904
 0.395000   0.072761   0.533285
 0.400000   0.075460   0.442433
 0.405000   0.077185   0.410889
 0.410000   0.079569   0.624830
 0.415000   0.083434   0.910353
 0.420000   0.088672   1.400716
 0.425000   0.097441   2.046701
 0.430000   0.109139   2.447246
 0.435000   0.121913   2.758202
 0.440000   0.136721   3.074208
 0.445000   0.152655   3.186527
 0.450000   0.168587   3.340822
 0.455000   0.186063   3.061966
 0.460000   0.199206   2.263774
 0.465000   0.208701   1.562118
 0.470000   0.214827   0.806527
 0.475000   0.216766   -0.071786
 0.480000   0.214110   -1.074820
 0.485000   0.206018   -1.977604
 0.490000   0.194334   -2.510814
 0.495000   0.180910   -2.762411
 0.500000   0.166709   -2.793665
 0.505000   0.152973   -2.619251
 0.510000   0.140517   -2.426476
 0.515000   0.128709   -1.906357
 0.520000   0.121453   -1.282963
 0.525000   0.115879   -0.965625
 0.530000   0.111797   -0.629353
 0.535000   0.109586   -0.402745
 0.540000   0.107770   -0.344329
 0.545000   0.106142   -0.319782
 0.550000   0.104572   -0.312718
 0.555000   0.103015   -0.351126
 0.560000   0.101061   -0.316337
 0.565000   0.099852   -0.269713
 0.570000   0.098363   -0.343425
 0.575000   0.096417   -0.413170
 0.580000   0.094232   -0.437019
 0.585000   0.092047   -0.426543
 0.590000   0.089966   -0.418429
 0.595000   0.087863   -0.406422
 0.600000   0.085902   -0.345134
 0.605000   0.084412   -0.277799
 0.610000   0.083124   -0.219517
 0.615000   0.082216   -0.069403
 0.620000   0.082430   -0.001610
 0.625000   0.082200   0.006988
 0.630000   0.082500   0.068364
 0.635000   0.082884   0.084330
 0.640000   0.083343   0.087758
 0.645000   0.083762   0.149834
 0.650000   0.084842   0.101044
 0.655000   0.084772   0.052704
 0.660000   0.085369   0.182007
 0.665000   0.086592   0.378283
 0.670000   0.089151   0.686537
 0.675000   0.093457   1.436596
 0.680000   0.103517   1.636787
 0.685000   0.109825   1.024287
 0.690000   0.113760   0.744924
 0.695000   0.117275   0.501207
 0.700000   0.118772   0.118568
 0.705000   0.118460   0.159379
 0.710000   0.120366   -0.603087
 0.715000   0.112429   -1.781707
 0.720000   0.102549   -1.818660
 0.725000   0.094243   -1.789663
 0.730000   0.084652   -1.950854
 0.735000   0.074734   -2.104009
 0.740000   0.063612   -2.354611
 0.745000   0.051188   -2.036692
 0.750000   0.043245   -1.366410
 0.755000   0.037524   -0.823644
 0.760000   0.035009   -0.159731
 0.765000   0.035927   0.260016
 0.770000   0.037609   0.833556
 0.775000   0.044262   1.917984
 0.780000   0.056789   2.304873
 0.785000   0.067311   2.275754
 0.790000   0.079547   2.374893
 0.795000   0.091060   2.285877
 0.800000   0.102405   2.499480
 0.805000   0.116055   2.636333
 0.810000   0.128769   2.306560
 0.815000   0.139120   2.108985
 0.820000   0.149858   2.007122
 0.825000   0.159192   1.779920
 0.830000   0.167658   1.617314
 0.835000   0.175365   1.058146
 0.840000   0.178239   0.650613
 0.845000   0.181871   0.739966
 0.850000   0.185639   0.803498
 0.855000   0.189906   1.122418
 0.860000   0.196863   1.893645
 0.865000   0.208842   2.376491
 0.870000   0.220628   3.122725
 0.875000   0.240070   4.660793
 0.880000   0.267236   6.206364
 0.885000   0.302133   7.792600
 0.890000   0.345162   10.605927
 0.895000   0.408192   12.289320
 0.900000   0.468055   13.879280
 0.905000   0.546985   17.011593
 0.910000   0.638171   19.081490
 0.915000   0.737800   20.664266
 0.920000   0.844814   26.268574
 0.925000   1.000486   27.188862
 0.930000   1.116702   24.616813
 0.935000   1.246654   25.610713
 0.940000   1.372809   22.151169
 0.945000   1.468166   12.048475
 0.950000   1.493294   0.856042
 0.955000   1.476726   -33.913892
 0.960000   1.154155   -78.351770
 0.965000   0.693208   -103.673226
 0.970000   0.117423   -121.528508
 0.975000   -0.522077   -129.965151
 0.980000   -1.182229   -132.119222
 0.985000   -1.843269   -123.182856
 0.990000   -2.414057   -89.340478
 0.995000   -2.736674   -21.184019
 1.000000   -2.625897   65.494567
201 psinorm nz1(10^20/m^3) dnz1/dpsiN
 0.000000   0.033156   0.000013
 0.005000   0.033151   -0.001681
 0.010000   0.033139   -0.003390
 0.015000   0.033118   -0.005127
 0.020000   0.033088   -0.006886
 0.025000   0.033049   -0.008658
 0.030000   0.033001   -0.010434
 0.035000   0.032944   -0.012203
 0.040000   0.032879   -0.013952
 0.045000   0.032805   -0.015675
 0.050000   0.032722   -0.017370
 0.055000   0.032631   -0.019031
 0.060000   0.032532   -0.020652
 0.065000   0.032425   -0.022230
 0.070000   0.032310   -0.023758
 0.075000   0.032187   -0.025241
 0.080000   0.032057   -0.026682
 0.085000   0.031920   -0.028078
 0.090000   0.031776   -0.029430
 0.095000   0.031626   -0.030743
 0.100000   0.031469   -0.032034
 0.105000   0.031306   -0.033311
 0.110000   0.031136   -0.034559
 0.115000   0.030960   -0.035768
 0.120000   0.030778   -0.036934
 0.125000   0.030591   -0.038050
 0.130000   0.030398   -0.039113
 0.135000   0.030200   -0.040109
 0.140000   0.029997   -0.041019
 0.145000   0.029789   -0.041844
 0.150000   0.029578   -0.042582
 0.155000   0.029364   -0.043228
 0.160000   0.029146   -0.043776
 0.165000   0.028926   -0.044214
 0.170000   0.028704   -0.044545
 0.175000   0.028480   -0.044772
 0.180000   0.028256   -0.044894
 0.185000   0.028031   -0.044908
 0.190000   0.027807   -0.044802
 0.195000   0.027583   -0.044560
 0.200000   0.027361   -0.044212
 0.205000   0.027141   -0.043782
 0.210000   0.026924   -0.043271
 0.215000   0.026709   -0.042694
 0.220000   0.026497   -0.042072
 0.225000   0.026288   -0.041467
 0.230000   0.026082   -0.040946
 0.235000   0.025878   -0.040504
 0.240000   0.025677   -0.040103
 0.245000   0.025477   -0.039724
 0.250000   0.025280   -0.039356
 0.255000   0.025084   -0.039014
 0.260000   0.024889   -0.038627
 0.265000   0.024697   -0.038137
 0.270000   0.024508   -0.037565
 0.275000   0.024322   -0.036898
 0.280000   0.024139   -0.036124
 0.285000   0.023961   -0.035234
 0.290000   0.023787   -0.034183
 0.295000   0.023619   -0.032969
 0.300000   0.023457   -0.031632
 0.305000   0.023302   -0.030189
 0.310000   0.023155   -0.028661
 0.315000   0.023016   -0.027027
 0.320000   0.022885   -0.025352
 0.325000   0.022762   -0.023717
 0.330000   0.022648   -0.022114
 0.335000   0.022541   -0.020564
 0.340000   0.022442   -0.019083
 0.345000   0.022350   -0.017670
 0.350000   0.022265   -0.016361
 0.355000   0.022187   -0.015171
 0.360000   0.022114   -0.014058
 0.365000   0.022046   -0.013001
 0.370000   0.021984   -0.011984
 0.375000   0.021926   -0.010991
 0.380000   0.021874   -0.010011
 0.385000   0.021826   -0.009040
 0.390000   0.021783   -0.008084
 0.395000   0.021745   -0.007147
 0.400000   0.021712   -0.006234
 0.405000   0.021683   -0.005350
 0.410000   0.021658   -0.004498
 0.415000   0.021638   -0.003684
 0.420000   0.021622   -0.002913
 0.425000   0.021609   -0.002190
 0.430000   0.021600   -0.001517
 0.435000   0.021594   -0.000895
 0.440000   0.021591   -0.000326
 0.445000   0.021590   0.000195
 0.450000   0.021593   0.000671
 0.455000   0.021597   0.001103
 0.460000   0.021604   0.001491
 0.465000   0.021612   0.001835
 0.470000   0.021622   0.002129
 0.475000   0.021633   0.002366
 0.480000   0.021646   0.002534
 0.485000   0.021659   0.002626
 0.490000   0.021672   0.002634
 0.495000   0.021685   0.002553
 0.500000   0.021698   0.002376
 0.505000   0.021709   0.002102
 0.510000   0.021719   0.001735
 0.515000   0.021726   0.001281
 0.520000   0.021731   0.000749
 0.525000   0.021734   0.000149
 0.530000   0.021733   -0.000506
 0.535000   0.021729   -0.001203
 0.540000   0.021721   -0.001935
 0.545000   0.021709   -0.002694
 0.550000   0.021694   -0.003475
 0.555000   0.021675   -0.004274
 0.560000   0.021651   -0.005090
 0.565000   0.021624   -0.005936
 0.570000   0.021592   -0.006821
 0.575000   0.021555   -0.007741
 0.580000   0.021514   -0.008692
 0.585000   0.021468   -0.009668
 0.590000   0.021418   -0.010660
 0.595000   0.021362   -0.011662
 0.600000   0.021301   -0.012669
 0.605000   0.021235   -0.013676
 0.610000   0.021164   -0.014680
 0.615000   0.021088   -0.015681
 0.620000   0.021007   -0.016682
 0.625000   0.020922   -0.017686
 0.630000   0.020831   -0.018686
 0.635000   0.020735   -0.019680
 0.640000   0.020634   -0.020663
 0.645000   0.020528   -0.021631
 0.650000   0.020418   -0.022585
 0.655000   0.020302   -0.023512
 0.660000   0.020182   -0.024391
 0.665000   0.020058   -0.025234
 0.670000   0.019930   -0.026084
 0.675000   0.019797   -0.027010
 0.680000   0.019660   -0.028204
 0.685000   0.019515   -0.029752
 0.690000   0.019362   -0.031532
 0.695000   0.019200   -0.033480
 0.700000   0.019028   -0.035557
 0.705000   0.018845   -0.037686
 0.710000   0.018651   -0.039904
 0.715000   0.018446   -0.042004
 0.720000   0.018231   -0.043647
 0.725000   0.018009   -0.044811
 0.730000   0.017783   -0.045499
 0.735000   0.017554   -0.045656
 0.740000   0.017326   -0.045238
 0.745000   0.017102   -0.044165
 0.750000   0.016884   -0.042462
 0.755000   0.016677   -0.040275
 0.760000   0.016482   -0.037711
 0.765000   0.016300   -0.034874
 0.770000   0.016133   -0.031814
 0.775000   0.015982   -0.028643
 0.780000   0.015847   -0.025639
 0.785000   0.015725   -0.022907
 0.790000   0.015617   -0.020405
 0.795000   0.015521   -0.018150
 0.800000   0.015436   -0.016138
 0.805000   0.015360   -0.014378
 0.810000   0.015292   -0.012875
 0.815000   0.015231   -0.011534
 0.820000   0.015177   -0.010262
 0.825000   0.015129   -0.009030
 0.830000   0.015087   -0.007828
 0.835000   0.015050   -0.006663
 0.840000   0.015020   -0.005543
 0.845000   0.014995   -0.004475
 0.850000   0.014975   -0.003468
 0.855000   0.014960   -0.002530
 0.860000   0.014950   -0.001669
 0.865000   0.014944   -0.000896
 0.870000   0.014941   -0.000216
 0.875000   0.014941   0.000365
 0.880000   0.014945   0.000849
 0.885000   0.014950   0.001233
 0.890000   0.014957   0.001507
 0.895000   0.014965   0.001665
 0.900000   0.014974   0.001640
 0.905000   0.014981   0.001274
 0.910000   0.014986   0.000316
 0.915000   0.014984   -0.001685
 0.920000   0.014969   -0.005485
 0.925000   0.014930   -0.012607
 0.930000   0.014843   -0.024943
 0.935000   0.014680   -0.044588
 0.940000   0.014397   -0.073834
 0.945000   0.013942   -0.113902
 0.950000   0.013258   -0.163406
 0.955000   0.012308   -0.218621
 0.960000   0.011072   -0.268269
 0.965000   0.009625   -0.298288
 0.970000   0.008089   -0.301887
 0.975000   0.006606   -0.279574
 0.980000   0.005294   -0.239099
 0.985000   0.004215   -0.191291
 0.990000   0.003381   -0.145484
 0.995000   0.002760   -0.107420
 1.000000   0.002306   -0.074144
201 psinorm vtor1(km/s) dvtor1/dpsiN
 0.000000   116.812257   557.432323
 0.005000   118.975266   307.771091
 0.010000   119.889968   161.026889
 0.015000   120.585534   127.161578
 0.020000   121.161584   107.462094
 0.025000   121.660155   94.623217
 0.030000   122.107816   85.503514
 0.035000   122.515190   77.678065
 0.040000   122.884596   71.002380
 0.045000   123.225214   65.620377
 0.050000   123.540800   60.769166
 0.055000   123.832906   56.194248
 0.060000   124.102743   52.068523
 0.065000   124.353591   48.396601
 0.070000   124.586709   44.919605
 0.075000   124.802787   41.631241
 0.080000   125.003021   38.616817
 0.085000   125.188955   35.785191
 0.090000   125.360873   32.968063
 0.095000   125.518636   30.268447
 0.100000   125.663558   27.763241
 0.105000   125.796268   25.242348
 0.110000   125.915981   22.721535
 0.115000   126.023484   20.311069
 0.120000   126.119092   17.940847
 0.125000   126.202892   15.548611
 0.130000   126.274578   13.189403
 0.135000   126.334786   10.879418
 0.140000   126.383372   8.536515
 0.145000   126.420151   6.150015
 0.150000   126.444872   3.734352
 0.155000   126.457495   1.270969
 0.160000   126.457582   -1.313850
 0.165000   126.444356   -3.979785
 0.170000   126.417784   -6.650910
 0.175000   126.377847   -9.346425
 0.180000   126.324320   -12.086092
 0.185000   126.256986   -14.822792
 0.190000   126.176092   -17.534473
 0.195000   126.081642   -20.249068
 0.200000   125.973601   -22.921477
 0.205000   125.852427   -25.502870
 0.210000   125.718572   -27.995915
 0.215000   125.572468   -30.407879
 0.220000   125.414494   -32.678155
 0.225000   125.245686   -34.735676
 0.230000   125.067137   -36.667187
 0.235000   124.879014   -38.515836
 0.240000   124.681979   -40.230843
 0.245000   124.476706   -41.824778
 0.250000   124.263731   -43.317913
 0.255000   124.043527   -44.625209
 0.260000   123.817479   -45.814576
 0.265000   123.585381   -46.985398
 0.270000   123.347625   -48.083698
 0.275000   123.104544   -49.119907
 0.280000   122.856426   -50.110294
 0.285000   122.603441   -51.057341
 0.290000   122.345852   -52.082392
 0.295000   122.082617   -53.242400
 0.300000   121.813428   -54.444952
 0.305000   121.538168   -55.641655
 0.310000   121.257012   -56.750226
 0.315000   120.970665   -57.636813
 0.320000   120.680644   -58.372213
 0.325000   120.386943   -59.067510
 0.330000   120.089968   -59.689605
 0.335000   119.790047   -60.265330
 0.340000   119.487315   -60.812107
 0.345000   119.181926   -61.290546
 0.350000   118.874410   -61.771527
 0.355000   118.564211   -62.337285
 0.360000   118.251037   -62.957981
 0.365000   117.934631   -63.618901
 0.370000   117.614848   -64.325770
 0.375000   117.291373   -65.133115
 0.380000   116.963517   -66.016945
 0.385000   116.631204   -66.856691
 0.390000   116.294950   -67.578544
 0.395000   115.955418   -68.152954
 0.400000   115.613420   -68.555036
 0.405000   115.269868   -68.729383
 0.410000   114.926126   -68.767138
 0.415000   114.582197   -68.985918
 0.420000   114.236267   -69.653334
 0.425000   113.885663   -70.900697
 0.430000   113.527260   -72.796100
 0.435000   113.157702   -75.577768
 0.440000   112.771483   -79.254679
 0.445000   112.365156   -83.342068
 0.450000   111.938062   -87.661216
 0.455000   111.488543   -92.265219
 0.460000   111.015410   -97.049831
 0.465000   110.518045   -102.158868
 0.470000   109.993821   -107.461932
 0.475000   109.443426   -112.215968
 0.480000   108.871661   -116.261581
 0.485000   108.280810   -119.799924
 0.490000   107.673662   -122.720820
 0.495000   107.053602   -124.938707
 0.500000   106.424275   -126.247057
 0.505000   105.791131   -126.578705
 0.510000   105.158488   -126.283269
 0.515000   104.528299   -125.649880
 0.520000   103.901989   -124.760581
 0.525000   103.280693   -123.622044
 0.530000   102.665769   -122.189308
 0.535000   102.058800   -120.624895
 0.540000   101.459520   -119.060489
 0.545000   100.868195   -117.473766
 0.550000   100.284782   -115.919094
 0.555000   99.709004   -114.416657
 0.560000   99.140616   -112.939647
 0.565000   98.579607   -111.691215
 0.570000   98.023703   -110.793836
 0.575000   97.471669   -110.160208
 0.580000   96.922101   -109.820001
 0.585000   96.373469   -109.792844
 0.590000   95.824173   -110.097851
 0.595000   95.272490   -110.644143
 0.600000   94.717731   -111.283284
 0.605000   94.159658   -111.972066
 0.610000   93.598011   -112.706025
 0.615000   93.032597   -113.479901
 0.620000   92.463212   -114.246625
 0.625000   91.890131   -115.054086
 0.630000   91.312671   -115.972933
 0.635000   90.730402   -116.982876
 0.640000   90.142842   -118.089716
 0.645000   89.549505   -119.300543
 0.650000   88.949837   -120.598982
 0.655000   88.343515   -122.116532
 0.660000   87.728671   -123.997826
 0.665000   87.103537   -126.230054
 0.670000   86.466371   -128.814575
 0.675000   85.815391   -131.755959
 0.680000   85.148811   -135.083052
 0.685000   84.464560   -138.389707
 0.690000   83.764914   -141.104387
 0.695000   83.053516   -143.080748
 0.700000   82.334107   -144.312522
 0.705000   81.610391   -144.842207
 0.710000   80.885685   -144.580781
 0.715000   80.164583   -143.740078
 0.720000   79.448284   -142.760539
 0.725000   78.736978   -141.672808
 0.730000   78.031556   -140.441751
 0.735000   77.332560   -139.131741
 0.740000   76.640238   -137.696345
 0.745000   75.955597   -136.349557
 0.750000   75.276743   -135.608921
 0.755000   74.599508   -135.802453
 0.760000   73.918718   -137.181268
 0.765000   73.227695   -139.981894
 0.770000   72.518899   -144.614513
 0.775000   71.781550   -151.050661
 0.780000   71.008393   -157.877902
 0.785000   70.202771   -164.265170
 0.790000   69.365741   -170.317996
 0.795000   68.499591   -175.821337
 0.800000   67.607528   -180.905470
 0.805000   66.690536   -186.002209
 0.810000   65.747506   -190.617733
 0.815000   64.784359   -194.514835
 0.820000   63.802357   -198.072586
 0.825000   62.803633   -201.128782
 0.830000   61.791069   -203.788929
 0.835000   60.765744   -206.368817
 0.840000   59.727381   -207.869846
 0.845000   58.687045   -208.200912
 0.850000   57.645372   -208.870759
 0.855000   56.598338   -210.902041
 0.860000   55.536352   -215.614551
 0.865000   54.442192   -225.153376
 0.870000   53.284818   -240.001612
 0.875000   52.042176   -260.524661
 0.880000   50.679571   -288.630617
 0.885000   49.155870   -325.539811
 0.890000   47.424173   -372.239114
 0.895000   45.433479   -430.960618
 0.900000   43.114567   -499.601803
 0.905000   40.437461   -574.533908
 0.910000   37.369228   -653.866568
 0.915000   33.898795   -732.339666
 0.920000   30.045831   -803.057951
 0.925000   25.868216   -858.924530
 0.930000   21.456586   -889.146235
 0.935000   16.976753   -884.400737
 0.940000   12.612579   -841.659950
 0.945000   8.560154   -760.857938
 0.950000   5.003999   -646.841108
 0.955000   2.091743   -507.822696
 0.960000   -0.074228   -357.820432
 0.965000   -1.486462   -212.117569
 0.970000   -2.195403   -81.083985
 0.975000   -2.297301   27.627780
 0.980000   -1.919126   109.665928
 0.985000   -1.200642   162.889127
 0.990000   -0.290234   189.179104
 0.995000   0.691149   194.128255
 1.000000   1.651048   189.831473
201 psinorm vpol1(km/s) dvpol1/dpsiN
 0.000000   -0.000047   4.658984
 0.005000   0.024793   5.276953
 0.010000   0.052723   5.886133
 0.015000   0.083654   6.468945
 0.020000   0.117412   7.002734
 0.025000   0.153682   7.466797
 0.030000   0.192080   7.841016
 0.035000   0.232092   8.139453
 0.040000   0.273475   8.384375
 0.045000   0.315936   8.584766
 0.050000   0.359322   8.759180
 0.055000   0.403527   8.918359
 0.060000   0.448506   9.066016
 0.065000   0.494188   9.201953
 0.070000   0.540525   9.310352
 0.075000   0.587291   9.371289
 0.080000   0.634238   9.380078
 0.085000   0.681092   9.324609
 0.090000   0.727484   9.197852
 0.095000   0.773070   9.035547
 0.100000   0.817840   8.867188
 0.105000   0.861742   8.713086
 0.110000   0.904971   8.608594
 0.115000   0.947828   8.592383
 0.120000   0.990895   8.688281
 0.125000   1.034711   8.862500
 0.130000   1.079520   9.079883
 0.135000   1.125510   9.322461
 0.140000   1.172744   9.558984
 0.145000   1.221100   9.780273
 0.150000   1.270547   9.924414
 0.155000   1.320344   9.935352
 0.160000   1.369900   9.836719
 0.165000   1.418711   9.635352
 0.170000   1.466254   9.341016
 0.175000   1.512121   8.942969
 0.180000   1.555684   8.455078
 0.185000   1.596672   7.915820
 0.190000   1.634842   7.342773
 0.195000   1.670100   6.747656
 0.200000   1.702318   6.146289
 0.205000   1.731563   5.564453
 0.210000   1.757963   5.041016
 0.215000   1.781973   4.573828
 0.220000   1.803701   4.121094
 0.225000   1.823184   3.653125
 0.230000   1.840232   3.133789
 0.235000   1.854521   2.545898
 0.240000   1.865691   1.878516
 0.245000   1.873307   1.139648
 0.250000   1.877088   0.355469
 0.255000   1.876861   -0.454102
 0.260000   1.872547   -1.268164
 0.265000   1.864180   -2.058789
 0.270000   1.851959   -2.813867
 0.275000   1.836041   -3.544336
 0.280000   1.816516   -4.267969
 0.285000   1.793361   -5.007031
 0.290000   1.766445   -5.778320
 0.295000   1.735578   -6.608594
 0.300000   1.700359   -7.512891
 0.305000   1.660449   -8.495117
 0.310000   1.615408   -9.563477
 0.315000   1.564814   -10.728125
 0.320000   1.508127   -12.005859
 0.325000   1.444756   -13.331055
 0.330000   1.374816   -14.594141
 0.335000   1.298814   -15.733398
 0.340000   1.217482   -16.705859
 0.345000   1.131756   -17.466211
 0.350000   1.042820   -17.918750
 0.355000   0.952568   -18.124023
 0.360000   0.861580   -18.265820
 0.365000   0.769910   -18.402734
 0.370000   0.677553   -18.575977
 0.375000   0.584150   -18.842187
 0.380000   0.489131   -19.291211
 0.385000   0.391238   -20.025781
 0.390000   0.288873   -20.995117
 0.395000   0.181287   -22.079297
 0.400000   0.068080   -23.194531
 0.405000   -0.050658   -24.245117
 0.410000   -0.174371   -25.277734
 0.415000   -0.303436   -26.534180
 0.420000   -0.439713   -28.316992
 0.425000   -0.586605   -30.803711
 0.430000   -0.747750   -34.011523
 0.435000   -0.926721   -37.988477
 0.440000   -1.127635   -42.945312
 0.445000   -1.356174   -48.107031
 0.450000   -1.608705   -52.744727
 0.455000   -1.883621   -56.898437
 0.460000   -2.177689   -60.239062
 0.465000   -2.486012   -62.490430
 0.470000   -2.802594   -63.166406
 0.475000   -3.117676   -61.797852
 0.480000   -3.420572   -58.561133
 0.485000   -3.703287   -53.890918
 0.490000   -3.959481   -48.170215
 0.495000   -4.184989   -41.600879
 0.500000   -4.375490   -34.666504
 0.505000   -4.531654   -28.391797
 0.510000   -4.659408   -23.131445
 0.515000   -4.762969   -18.742090
 0.520000   -4.846829   -15.250391
 0.525000   -4.915473   -12.604980
 0.530000   -4.972879   -10.866992
 0.535000   -5.024143   -9.859473
 0.540000   -5.071474   -9.151074
 0.545000   -5.115653   -8.554004
 0.550000   -5.157014   -7.983984
 0.555000   -5.195493   -7.418359
 0.560000   -5.231197   -6.793945
 0.565000   -5.263433   -6.034668
 0.570000   -5.291544   -5.144824
 0.575000   -5.314881   -4.134570
 0.580000   -5.332890   -3.021875
 0.585000   -5.345100   -1.829590
 0.590000   -5.351186   -0.595605
 0.595000   -5.351056   0.622266
 0.600000   -5.344963   1.768701
 0.605000   -5.333369   2.804248
 0.610000   -5.316920   3.694385
 0.615000   -5.296425   4.396582
 0.620000   -5.272955   4.929443
 0.625000   -5.247130   5.331641
 0.630000   -5.219638   5.614648
 0.635000   -5.190984   5.811768
 0.640000   -5.161521   5.951904
 0.645000   -5.131465   6.070312
 0.650000   -5.100817   6.219189
 0.655000   -5.069273   6.393213
 0.660000   -5.036885   6.557324
 0.665000   -5.003700   6.701489
 0.670000   -4.969870   6.815430
 0.675000   -4.935545   6.902112
 0.680000   -4.900849   6.976086
 0.685000   -4.865785   7.062256
 0.690000   -4.830227   7.183557
 0.695000   -4.793949   7.343646
 0.700000   -4.756790   7.563654
 0.705000   -4.718312   7.830444
 0.710000   -4.678486   8.056006
 0.715000   -4.637752   8.193134
 0.720000   -4.596554   8.227661
 0.725000   -4.555476   8.136011
 0.730000   -4.515194   7.901178
 0.735000   -4.476464   7.487231
 0.740000   -4.440322   6.881921
 0.745000   -4.407645   6.130273
 0.750000   -4.379019   5.275464
 0.755000   -4.354890   4.355054
 0.760000   -4.335469   3.402979
 0.765000   -4.320860   2.476660
 0.770000   -4.310702   1.629102
 0.775000   -4.304569   0.860889
 0.780000   -4.302093   0.153857
 0.785000   -4.303031   -0.531543
 0.790000   -4.307409   -1.264258
 0.795000   -4.315673   -2.114014
 0.800000   -4.328549   -3.124365
 0.805000   -4.346917   -4.315527
 0.810000   -4.371704   -5.684863
 0.815000   -4.403766   -7.204297
 0.820000   -4.443747   -8.845703
 0.825000   -4.492223   -10.459766
 0.830000   -4.548345   -11.904883
 0.835000   -4.611271   -13.133301
 0.840000   -4.679678   -14.064844
 0.845000   -4.751920   -14.625977
 0.850000   -4.825938   -14.717383
 0.855000   -4.899094   -14.425977
 0.860000   -4.970197   -13.906250
 0.865000   -5.038156   -13.219336
 0.870000   -5.102391   -12.466992
 0.875000   -5.162826   -11.721484
 0.880000   -5.219605   -11.086719
 0.885000   -5.273693   -10.673633
 0.890000   -5.326342   -10.483789
 0.895000   -5.378531   -10.482227
 0.900000   -5.431164   -10.641602
 0.905000   -5.484947   -10.968164
 0.910000   -5.540846   -11.303516
 0.915000   -5.597982   -11.237695
 0.920000   -5.653223   -10.479883
 0.925000   -5.702781   -8.844531
 0.930000   -5.741668   -6.093164
 0.935000   -5.763713   -1.943750
 0.940000   -5.761105   4.195898
 0.945000   -5.721754   12.933398
 0.950000   -5.631771   24.345703
 0.955000   -5.478297   37.739258
 0.960000   -5.254379   51.457813
 0.965000   -4.963719   64.423437
 0.970000   -4.610145   76.331250
 0.975000   -4.200406   93.777734
 0.980000   -3.672367   135.057422
 0.985000   -2.849832   218.936719
 0.990000   -1.483000   340.864453
 0.995000   0.558813   449.044141
 1.000000   3.007441   530.407422
3 N Z A of ION SPECIES
 6.000000   6.000000   12.010700
 1.000000   1.000000   2.000000
 1.000000   1.000000   2.000000
