201 psinorm ne(10^20/m^3) dne/dpsiN
 0.000000   0.523980   -0.417389
 0.005000   0.521900   -0.414468
 0.010000   0.519835   -0.411557
 0.015000   0.517785   -0.408668
 0.020000   0.515748   -0.405800
 0.025000   0.513727   -0.402953
 0.030000   0.511719   -0.400128
 0.035000   0.509725   -0.397323
 0.040000   0.507746   -0.394538
 0.045000   0.505780   -0.391775
 0.050000   0.503828   -0.389031
 0.055000   0.501890   -0.386307
 0.060000   0.499965   -0.383604
 0.065000   0.498054   -0.380920
 0.070000   0.496156   -0.378255
 0.075000   0.494271   -0.375610
 0.080000   0.492399   -0.372984
 0.085000   0.490541   -0.370377
 0.090000   0.488696   -0.367789
 0.095000   0.486863   -0.365220
 0.100000   0.485044   -0.362669
 0.105000   0.483237   -0.360137
 0.110000   0.481442   -0.357623
 0.115000   0.479660   -0.355126
 0.120000   0.477891   -0.352648
 0.125000   0.476134   -0.350188
 0.130000   0.474389   -0.347745
 0.135000   0.472656   -0.345319
 0.140000   0.470936   -0.342911
 0.145000   0.469227   -0.340520
 0.150000   0.467531   -0.338146
 0.155000   0.465846   -0.335788
 0.160000   0.464173   -0.333448
 0.165000   0.462511   -0.331123
 0.170000   0.460861   -0.328816
 0.175000   0.459223   -0.326524
 0.180000   0.457596   -0.324249
 0.185000   0.455981   -0.321989
 0.190000   0.454376   -0.319746
 0.195000   0.452783   -0.317518
 0.200000   0.451201   -0.315305
 0.205000   0.449630   -0.313108
 0.210000   0.448070   -0.310926
 0.215000   0.446521   -0.308760
 0.220000   0.444983   -0.306608
 0.225000   0.443455   -0.304472
 0.230000   0.441938   -0.302350
 0.235000   0.440431   -0.300242
 0.240000   0.438935   -0.298150
 0.245000   0.437450   -0.296071
 0.250000   0.435975   -0.294007
 0.255000   0.434510   -0.291957
 0.260000   0.433055   -0.289921
 0.265000   0.431611   -0.287899
 0.270000   0.430176   -0.285890
 0.275000   0.428752   -0.283895
 0.280000   0.427337   -0.281914
 0.285000   0.425933   -0.279946
 0.290000   0.424538   -0.277992
 0.295000   0.423153   -0.276050
 0.300000   0.421777   -0.274122
 0.305000   0.420411   -0.272207
 0.310000   0.419055   -0.270304
 0.315000   0.417708   -0.268414
 0.320000   0.416371   -0.266537
 0.325000   0.415043   -0.264672
 0.330000   0.413724   -0.262820
 0.335000   0.412415   -0.260980
 0.340000   0.411114   -0.259152
 0.345000   0.409823   -0.257336
 0.350000   0.408541   -0.255532
 0.355000   0.407268   -0.253740
 0.360000   0.406004   -0.251960
 0.365000   0.404748   -0.250192
 0.370000   0.403502   -0.248435
 0.375000   0.402264   -0.246689
 0.380000   0.401035   -0.244955
 0.385000   0.399814   -0.243232
 0.390000   0.398603   -0.241521
 0.395000   0.397399   -0.239820
 0.400000   0.396204   -0.238130
 0.405000   0.395018   -0.236452
 0.410000   0.393840   -0.234784
 0.415000   0.392670   -0.233127
 0.420000   0.391509   -0.231480
 0.425000   0.390355   -0.229844
 0.430000   0.389210   -0.228218
 0.435000   0.388073   -0.226603
 0.440000   0.386944   -0.224997
 0.445000   0.385823   -0.223402
 0.450000   0.384710   -0.221818
 0.455000   0.383605   -0.220243
 0.460000   0.382508   -0.218677
 0.465000   0.381418   -0.217122
 0.470000   0.380336   -0.215577
 0.475000   0.379262   -0.214041
 0.480000   0.378196   -0.212514
 0.485000   0.377137   -0.210998
 0.490000   0.376086   -0.209490
 0.495000   0.375042   -0.207992
 0.500000   0.374006   -0.206503
 0.505000   0.372977   -0.205023
 0.510000   0.371956   -0.203552
 0.515000   0.370942   -0.202091
 0.520000   0.369935   -0.200638
 0.525000   0.368935   -0.199194
 0.530000   0.367943   -0.197758
 0.535000   0.366958   -0.196332
 0.540000   0.365980   -0.194914
 0.545000   0.365009   -0.193504
 0.550000   0.364045   -0.192103
 0.555000   0.363088   -0.190711
 0.560000   0.362138   -0.189327
 0.565000   0.361194   -0.187950
 0.570000   0.360258   -0.186583
 0.575000   0.359329   -0.185223
 0.580000   0.358406   -0.183871
 0.585000   0.357490   -0.182527
 0.590000   0.356581   -0.181191
 0.595000   0.355678   -0.179863
 0.600000   0.354782   -0.178543
 0.605000   0.353893   -0.177230
 0.610000   0.353010   -0.175925
 0.615000   0.352133   -0.174627
 0.620000   0.351263   -0.173337
 0.625000   0.350400   -0.172055
 0.630000   0.349543   -0.170779
 0.635000   0.348692   -0.169511
 0.640000   0.347848   -0.168250
 0.645000   0.347010   -0.166997
 0.650000   0.346178   -0.165750
 0.655000   0.345352   -0.164510
 0.660000   0.344533   -0.163278
 0.665000   0.343719   -0.162052
 0.670000   0.342912   -0.160833
 0.675000   0.342111   -0.159621
 0.680000   0.341316   -0.158416
 0.685000   0.340527   -0.157217
 0.690000   0.339744   -0.156025
 0.695000   0.338967   -0.154840
 0.700000   0.338195   -0.153661
 0.705000   0.337430   -0.152488
 0.710000   0.336670   -0.151322
 0.715000   0.335917   -0.150162
 0.720000   0.335169   -0.149008
 0.725000   0.334427   -0.147861
 0.730000   0.333690   -0.146719
 0.735000   0.332960   -0.145584
 0.740000   0.332234   -0.144455
 0.745000   0.331515   -0.143332
 0.750000   0.330801   -0.142214
 0.755000   0.330093   -0.141103
 0.760000   0.329390   -0.139997
 0.765000   0.328693   -0.138897
 0.770000   0.328001   -0.137803
 0.775000   0.327315   -0.136715
 0.780000   0.326634   -0.135632
 0.785000   0.325958   -0.134555
 0.790000   0.325288   -0.133483
 0.795000   0.324624   -0.132416
 0.800000   0.323964   -0.131356
 0.805000   0.323310   -0.130300
 0.810000   0.322661   -0.129250
 0.815000   0.322018   -0.128205
 0.820000   0.321379   -0.127165
 0.825000   0.320746   -0.126130
 0.830000   0.320118   -0.125101
 0.835000   0.319495   -0.124076
 0.840000   0.318877   -0.123057
 0.845000   0.318264   -0.122042
 0.850000   0.317657   -0.121033
 0.855000   0.317054   -0.120028
 0.860000   0.316456   -0.119028
 0.865000   0.315864   -0.118033
 0.870000   0.315276   -0.117043
 0.875000   0.314693   -0.116057
 0.880000   0.314116   -0.115076
 0.885000   0.313543   -0.114099
 0.890000   0.312975   -0.113127
 0.895000   0.312411   -0.112159
 0.900000   0.311853   -0.111196
 0.905000   0.311299   -0.110241
 0.910000   0.310751   -0.109307
 0.915000   0.310206   -0.108439
 0.920000   0.309666   -0.107791
 0.925000   0.309128   -0.107850
 0.930000   0.308588   -0.110141
 0.935000   0.308027   -0.119316
 0.940000   0.307394   -0.149286
 0.945000   0.306534   -0.240627
 0.950000   0.304988   -0.506354
 0.955000   0.301471   -1.228308
 0.960000   0.292705   -2.922206
 0.965000   0.272249   -5.806929
 0.970000   0.234636   -8.356465
 0.975000   0.188684   -8.190835
 0.980000   0.152727   -5.727433
 0.985000   0.131410   -3.354432
 0.990000   0.119183   -2.018911
 0.995000   0.111220   -1.401753
 1.000000   0.105166   -1.020157
201 psinorm te(KeV) dte/dpsiN
 0.000000   4.053638   -3.272456
 0.005000   4.037235   -3.288687
 0.010000   4.020751   -3.304764
 0.015000   4.004188   -3.320533
 0.020000   3.987546   -3.335993
 0.025000   3.970828   -3.351145
 0.030000   3.954035   -3.365988
 0.035000   3.937168   -3.380521
 0.040000   3.920229   -3.394744
 0.045000   3.903220   -3.408658
 0.050000   3.886143   -3.422261
 0.055000   3.868998   -3.435554
 0.060000   3.851787   -3.448536
 0.065000   3.834512   -3.461208
 0.070000   3.817175   -3.473569
 0.075000   3.799777   -3.485620
 0.080000   3.782319   -3.497361
 0.085000   3.764803   -3.508792
 0.090000   3.747231   -3.519912
 0.095000   3.729604   -3.530723
 0.100000   3.711924   -3.541224
 0.105000   3.694192   -3.551416
 0.110000   3.676410   -3.561299
 0.115000   3.658579   -3.570873
 0.120000   3.640701   -3.580140
 0.125000   3.622777   -3.589099
 0.130000   3.604810   -3.597751
 0.135000   3.586800   -3.606097
 0.140000   3.568749   -3.614137
 0.145000   3.550659   -3.621872
 0.150000   3.532530   -3.629302
 0.155000   3.514366   -3.636429
 0.160000   3.496166   -3.643252
 0.165000   3.477933   -3.649774
 0.170000   3.459668   -3.655994
 0.175000   3.441373   -3.661914
 0.180000   3.423049   -3.667535
 0.185000   3.404698   -3.672857
 0.190000   3.386320   -3.677882
 0.195000   3.367919   -3.682610
 0.200000   3.349494   -3.687043
 0.205000   3.331048   -3.691182
 0.210000   3.312583   -3.695028
 0.215000   3.294098   -3.698582
 0.220000   3.275597   -3.701846
 0.225000   3.257080   -3.704820
 0.230000   3.238549   -3.707506
 0.235000   3.220005   -3.709906
 0.240000   3.201449   -3.712021
 0.245000   3.182884   -3.713852
 0.250000   3.164311   -3.715400
 0.255000   3.145730   -3.716667
 0.260000   3.127144   -3.717655
 0.265000   3.108554   -3.718366
 0.270000   3.089961   -3.718800
 0.275000   3.071366   -3.718959
 0.280000   3.052771   -3.718845
 0.285000   3.034177   -3.718460
 0.290000   3.015586   -3.717805
 0.295000   2.996999   -3.716882
 0.300000   2.978418   -3.715694
 0.305000   2.959842   -3.714240
 0.310000   2.941275   -3.712524
 0.315000   2.922717   -3.710547
 0.320000   2.904170   -3.708312
 0.325000   2.885634   -3.705819
 0.330000   2.867112   -3.703071
 0.335000   2.848603   -3.700070
 0.340000   2.830111   -3.696818
 0.345000   2.811635   -3.693317
 0.350000   2.793178   -3.689568
 0.355000   2.774740   -3.685575
 0.360000   2.756322   -3.681338
 0.365000   2.737926   -3.676860
 0.370000   2.719553   -3.672143
 0.375000   2.701205   -3.667189
 0.380000   2.682881   -3.662001
 0.385000   2.664585   -3.656580
 0.390000   2.646316   -3.650929
 0.395000   2.628075   -3.645050
 0.400000   2.609865   -3.638944
 0.405000   2.591686   -3.632616
 0.410000   2.573539   -3.626065
 0.415000   2.555425   -3.619296
 0.420000   2.537346   -3.612309
 0.425000   2.519302   -3.605108
 0.430000   2.501295   -3.597695
 0.435000   2.483325   -3.590072
 0.440000   2.465394   -3.582241
 0.445000   2.447503   -3.574205
 0.450000   2.429652   -3.565966
 0.455000   2.411843   -3.557527
 0.460000   2.394077   -3.548890
 0.465000   2.376354   -3.540057
 0.470000   2.358676   -3.531030
 0.475000   2.341044   -3.521813
 0.480000   2.323458   -3.512408
 0.485000   2.305920   -3.502816
 0.490000   2.288430   -3.493041
 0.495000   2.270990   -3.483085
 0.500000   2.253599   -3.472951
 0.505000   2.236260   -3.462640
 0.510000   2.218973   -3.452156
 0.515000   2.201738   -3.441501
 0.520000   2.184558   -3.430677
 0.525000   2.167432   -3.419687
 0.530000   2.150361   -3.408533
 0.535000   2.133346   -3.397218
 0.540000   2.116389   -3.385745
 0.545000   2.099489   -3.374116
 0.550000   2.082648   -3.362333
 0.555000   2.065866   -3.350399
 0.560000   2.049144   -3.338317
 0.565000   2.032482   -3.326089
 0.570000   2.015883   -3.313717
 0.575000   1.999345   -3.301204
 0.580000   1.982871   -3.288553
 0.585000   1.966460   -3.275767
 0.590000   1.950113   -3.262846
 0.595000   1.933831   -3.249796
 0.600000   1.917615   -3.236616
 0.605000   1.901465   -3.223311
 0.610000   1.885382   -3.209883
 0.615000   1.869366   -3.196334
 0.620000   1.853419   -3.182667
 0.625000   1.837540   -3.168884
 0.630000   1.821730   -3.154988
 0.635000   1.805990   -3.140982
 0.640000   1.790320   -3.126867
 0.645000   1.774721   -3.112646
 0.650000   1.759193   -3.098322
 0.655000   1.743738   -3.083898
 0.660000   1.728354   -3.069375
 0.665000   1.713044   -3.054756
 0.670000   1.697807   -3.040044
 0.675000   1.682644   -3.025240
 0.680000   1.667555   -3.010349
 0.685000   1.652540   -2.995371
 0.690000   1.637601   -2.980309
 0.695000   1.622737   -2.965167
 0.700000   1.607949   -2.949945
 0.705000   1.593238   -2.934647
 0.710000   1.578603   -2.919275
 0.715000   1.564045   -2.903831
 0.720000   1.549564   -2.888317
 0.725000   1.535162   -2.872737
 0.730000   1.520837   -2.857092
 0.735000   1.506591   -2.841384
 0.740000   1.492423   -2.825616
 0.745000   1.478335   -2.809791
 0.750000   1.464325   -2.793910
 0.755000   1.450395   -2.777975
 0.760000   1.436545   -2.761990
 0.765000   1.422776   -2.745956
 0.770000   1.409086   -2.729875
 0.775000   1.395477   -2.713749
 0.780000   1.381948   -2.697581
 0.785000   1.368501   -2.681372
 0.790000   1.355135   -2.665125
 0.795000   1.341850   -2.648841
 0.800000   1.328646   -2.632521
 0.805000   1.315525   -2.616168
 0.810000   1.302485   -2.599781
 0.815000   1.289527   -2.583361
 0.820000   1.276651   -2.566907
 0.825000   1.263858   -2.550417
 0.830000   1.251147   -2.533887
 0.835000   1.238519   -2.517310
 0.840000   1.225974   -2.500677
 0.845000   1.213512   -2.483970
 0.850000   1.201134   -2.467169
 0.855000   1.188840   -2.450243
 0.860000   1.176632   -2.433148
 0.865000   1.164509   -2.415831
 0.870000   1.152473   -2.398227
 0.875000   1.140527   -2.380263
 0.880000   1.128671   -2.361877
 0.885000   1.116908   -2.343059
 0.890000   1.105240   -2.323923
 0.895000   1.093669   -2.304873
 0.900000   1.082191   -2.286895
 0.905000   1.070800   -2.272116
 0.910000   1.059470   -2.264810
 0.915000   1.048152   -2.273191
 0.920000   1.036738   -2.312560
 0.925000   1.025026   -2.410706
 0.930000   1.012631   -2.616887
 0.935000   0.998857   -3.016042
 0.940000   0.982471   -3.749123
 0.945000   0.961366   -5.036107
 0.950000   0.932110   -7.183940
 0.955000   0.889526   -10.528379
 0.960000   0.826826   -15.212249
 0.965000   0.737404   -20.730074
 0.970000   0.619525   -25.489667
 0.975000   0.482507   -27.212487
 0.980000   0.347400   -24.638834
 0.985000   0.236119   -18.933286
 0.990000   0.158067   -12.704800
 0.995000   0.109071   -7.822938
 1.000000   0.079838   -3.870190
201 psinorm ni(10^20/m^3) dni/dpsiN
 0.000000   0.325424   -0.550639
 0.005000   0.322885   -0.464850
 0.010000   0.320776   -0.388617
 0.015000   0.318999   -0.326257
 0.020000   0.317513   -0.272489
 0.025000   0.316274   -0.227317
 0.030000   0.315240   -0.189873
 0.035000   0.314376   -0.157881
 0.040000   0.313661   -0.130130
 0.045000   0.313074   -0.106163
 0.050000   0.312599   -0.085504
 0.055000   0.312219   -0.068647
 0.060000   0.311913   -0.054915
 0.065000   0.311670   -0.043839
 0.070000   0.311475   -0.035392
 0.075000   0.311316   -0.028830
 0.080000   0.311186   -0.024111
 0.085000   0.311075   -0.020998
 0.090000   0.310976   -0.019364
 0.095000   0.310881   -0.019050
 0.100000   0.310786   -0.019693
 0.105000   0.310684   -0.021210
 0.110000   0.310574   -0.023504
 0.115000   0.310449   -0.026493
 0.120000   0.310309   -0.030063
 0.125000   0.310149   -0.034179
 0.130000   0.309967   -0.038738
 0.135000   0.309761   -0.043713
 0.140000   0.309530   -0.049000
 0.145000   0.309271   -0.054384
 0.150000   0.308986   -0.059828
 0.155000   0.308673   -0.065386
 0.160000   0.308332   -0.071141
 0.165000   0.307962   -0.076920
 0.170000   0.307563   -0.082570
 0.175000   0.307136   -0.088154
 0.180000   0.306681   -0.093591
 0.185000   0.306200   -0.098898
 0.190000   0.305692   -0.104145
 0.195000   0.305159   -0.109266
 0.200000   0.304600   -0.114227
 0.205000   0.304016   -0.119027
 0.210000   0.303409   -0.123656
 0.215000   0.302780   -0.128546
 0.220000   0.302124   -0.133324
 0.225000   0.301447   -0.137460
 0.230000   0.300749   -0.141309
 0.235000   0.300034   -0.144949
 0.240000   0.299300   -0.148404
 0.245000   0.298549   -0.151812
 0.250000   0.297782   -0.155474
 0.255000   0.296995   -0.158831
 0.260000   0.296193   -0.161610
 0.265000   0.295379   -0.164276
 0.270000   0.294551   -0.166829
 0.275000   0.293710   -0.169565
 0.280000   0.292855   -0.172327
 0.285000   0.291987   -0.174666
 0.290000   0.291108   -0.176754
 0.295000   0.290220   -0.178755
 0.300000   0.289321   -0.180902
 0.305000   0.288411   -0.183068
 0.310000   0.287490   -0.184855
 0.315000   0.286562   -0.186385
 0.320000   0.285626   -0.187816
 0.325000   0.284684   -0.189407
 0.330000   0.283732   -0.190913
 0.335000   0.282775   -0.192044
 0.340000   0.281812   -0.193070
 0.345000   0.280844   -0.194149
 0.350000   0.279870   -0.195334
 0.355000   0.278891   -0.196383
 0.360000   0.277907   -0.197268
 0.365000   0.276918   -0.198145
 0.370000   0.275925   -0.199178
 0.375000   0.274926   -0.200163
 0.380000   0.273923   -0.200901
 0.385000   0.272917   -0.201559
 0.390000   0.271908   -0.202225
 0.395000   0.270895   -0.202805
 0.400000   0.269880   -0.203145
 0.405000   0.268863   -0.203289
 0.410000   0.267847   -0.203325
 0.415000   0.266830   -0.203253
 0.420000   0.265814   -0.202961
 0.425000   0.264801   -0.202466
 0.430000   0.263790   -0.201880
 0.435000   0.262782   -0.201238
 0.440000   0.261777   -0.200474
 0.445000   0.260777   -0.199623
 0.450000   0.259781   -0.198787
 0.455000   0.258789   -0.198009
 0.460000   0.257801   -0.197170
 0.465000   0.256818   -0.196212
 0.470000   0.255839   -0.195201
 0.475000   0.254866   -0.194129
 0.480000   0.253898   -0.192857
 0.485000   0.252937   -0.191308
 0.490000   0.251985   -0.189556
 0.495000   0.251041   -0.187670
 0.500000   0.250108   -0.185545
 0.505000   0.249186   -0.183094
 0.510000   0.248277   -0.180422
 0.515000   0.247382   -0.177603
 0.520000   0.246501   -0.174602
 0.525000   0.245636   -0.171362
 0.530000   0.244787   -0.167955
 0.535000   0.243956   -0.164468
 0.540000   0.243143   -0.160898
 0.545000   0.242347   -0.157181
 0.550000   0.241571   -0.153344
 0.555000   0.240814   -0.149430
 0.560000   0.240076   -0.145438
 0.565000   0.239359   -0.141314
 0.570000   0.238663   -0.137042
 0.575000   0.237989   -0.132646
 0.580000   0.237337   -0.128156
 0.585000   0.236707   -0.123546
 0.590000   0.236101   -0.118809
 0.595000   0.235519   -0.114007
 0.600000   0.234961   -0.109176
 0.605000   0.234428   -0.104316
 0.610000   0.233918   -0.099419
 0.615000   0.233433   -0.094512
 0.620000   0.232973   -0.089617
 0.625000   0.232537   -0.084720
 0.630000   0.232126   -0.079802
 0.635000   0.231739   -0.074876
 0.640000   0.231377   -0.069953
 0.645000   0.231040   -0.065033
 0.650000   0.230727   -0.060099
 0.655000   0.230439   -0.055162
 0.660000   0.230175   -0.050259
 0.665000   0.229936   -0.045364
 0.670000   0.229721   -0.040349
 0.675000   0.229533   -0.034985
 0.680000   0.229372   -0.028647
 0.685000   0.229246   -0.020994
 0.690000   0.229162   -0.012341
 0.695000   0.229123   -0.002820
 0.700000   0.229133   0.007509
 0.705000   0.229198   0.018445
 0.710000   0.229318   0.030241
 0.715000   0.229500   0.042371
 0.720000   0.229742   0.053665
 0.725000   0.230037   0.063930
 0.730000   0.230381   0.073014
 0.735000   0.230767   0.080504
 0.740000   0.231186   0.086095
 0.745000   0.231628   0.089152
 0.750000   0.232078   0.089333
 0.755000   0.232521   0.087001
 0.760000   0.232948   0.082487
 0.765000   0.233346   0.076118
 0.770000   0.233709   0.068026
 0.775000   0.234026   0.058568
 0.780000   0.234294   0.048913
 0.785000   0.234515   0.039623
 0.790000   0.234691   0.030646
 0.795000   0.234822   0.022215
 0.800000   0.234913   0.014412
 0.805000   0.234966   0.007438
 0.810000   0.234987   0.001595
 0.815000   0.234982   -0.003451
 0.820000   0.234953   -0.008221
 0.825000   0.234900   -0.012875
 0.830000   0.234824   -0.017457
 0.835000   0.234725   -0.021938
 0.840000   0.234604   -0.026207
 0.845000   0.234463   -0.030221
 0.850000   0.234302   -0.034029
 0.855000   0.234123   -0.037626
 0.860000   0.233926   -0.040987
 0.865000   0.233713   -0.043991
 0.870000   0.233486   -0.046570
 0.875000   0.233247   -0.048807
 0.880000   0.232998   -0.050754
 0.885000   0.232740   -0.052426
 0.890000   0.232474   -0.053789
 0.895000   0.232202   -0.054528
 0.900000   0.231928   -0.054541
 0.905000   0.231656   -0.053641
 0.910000   0.231392   -0.051028
 0.915000   0.231146   -0.045477
 0.920000   0.230937   -0.034935
 0.925000   0.230797   -0.014821
 0.930000   0.230789   0.019879
 0.935000   0.230996   0.073248
 0.940000   0.231522   0.143936
 0.945000   0.232435   0.203792
 0.950000   0.233560   0.146560
 0.955000   0.233901   -0.308873
 0.960000   0.230471   -1.714338
 0.965000   0.216757   -4.355986
 0.970000   0.186911   -6.767426
 0.975000   0.149083   -6.607521
 0.980000   0.120836   -4.288951
 0.985000   0.106193   -2.152254
 0.990000   0.099313   -1.083608
 0.995000   0.095357   -0.712172
 1.000000   0.092191   -0.554192
201 psinorm ti(KeV) dti/dpsiN
 0.000000   5.307512   0.002931
 0.005000   5.306864   -0.262371
 0.010000   5.304889   -0.531939
 0.015000   5.301544   -0.809626
 0.020000   5.296792   -1.094503
 0.025000   5.290599   -1.385426
 0.030000   5.282938   -1.681075
 0.035000   5.273788   -1.980019
 0.040000   5.263138   -2.280176
 0.045000   5.250987   -2.580296
 0.050000   5.237335   -2.879642
 0.055000   5.222190   -3.176773
 0.060000   5.205567   -3.470579
 0.065000   5.187484   -3.760164
 0.070000   5.167965   -4.043965
 0.075000   5.147045   -4.322482
 0.080000   5.124741   -4.596992
 0.085000   5.101075   -4.866975
 0.090000   5.076071   -5.132371
 0.095000   5.049751   -5.393281
 0.100000   5.022138   -5.649702
 0.105000   4.993254   -5.901163
 0.110000   4.963126   -6.146476
 0.115000   4.931789   -6.384722
 0.120000   4.899279   -6.615757
 0.125000   4.865632   -6.839820
 0.130000   4.830881   -7.058172
 0.135000   4.795050   -7.270311
 0.140000   4.758178   -7.472829
 0.145000   4.720322   -7.663651
 0.150000   4.681541   -7.842006
 0.155000   4.641902   -8.006852
 0.160000   4.601473   -8.156770
 0.165000   4.560334   -8.289947
 0.170000   4.518573   -8.406260
 0.175000   4.476271   -8.506119
 0.180000   4.433512   -8.589149
 0.185000   4.390380   -8.655539
 0.190000   4.346957   -8.705082
 0.195000   4.303329   -8.741337
 0.200000   4.259543   -8.772585
 0.205000   4.215603   -8.801294
 0.210000   4.171531   -8.825666
 0.215000   4.127347   -8.845730
 0.220000   4.083073   -8.862414
 0.225000   4.038723   -8.878308
 0.230000   3.994290   -8.891003
 0.235000   3.949812   -8.897290
 0.240000   3.905317   -8.896899
 0.245000   3.860843   -8.887417
 0.250000   3.816443   -8.866619
 0.255000   3.772177   -8.833666
 0.260000   3.728106   -8.785667
 0.265000   3.684321   -8.722544
 0.270000   3.640881   -8.647206
 0.275000   3.597849   -8.559693
 0.280000   3.555284   -8.460118
 0.285000   3.513247   -8.347561
 0.290000   3.471808   -8.222462
 0.295000   3.431023   -8.087091
 0.300000   3.390938   -7.943473
 0.305000   3.351588   -7.794206
 0.310000   3.312995   -7.642275
 0.315000   3.275165   -7.490969
 0.320000   3.238086   -7.343608
 0.325000   3.201729   -7.200362
 0.330000   3.166082   -7.059750
 0.335000   3.131132   -6.921638
 0.340000   3.096866   -6.785798
 0.345000   3.063274   -6.655221
 0.350000   3.030314   -6.527080
 0.355000   2.998003   -6.396592
 0.360000   2.966348   -6.265097
 0.365000   2.935352   -6.132251
 0.370000   2.905025   -5.996782
 0.375000   2.875384   -5.856820
 0.380000   2.846457   -5.704898
 0.385000   2.818335   -5.537788
 0.390000   2.791079   -5.360147
 0.395000   2.764734   -5.174476
 0.400000   2.739334   -4.982758
 0.405000   2.714906   -4.782111
 0.410000   2.691513   -4.576754
 0.415000   2.669139   -4.378706
 0.420000   2.647726   -4.191128
 0.425000   2.627227   -4.014011
 0.430000   2.607586   -3.848423
 0.435000   2.588743   -3.692300
 0.440000   2.570663   -3.546987
 0.445000   2.553273   -3.416584
 0.450000   2.536497   -3.299435
 0.455000   2.520279   -3.193475
 0.460000   2.504562   -3.098588
 0.465000   2.489293   -3.015032
 0.470000   2.474412   -2.943954
 0.475000   2.459853   -2.883915
 0.480000   2.445573   -2.831345
 0.485000   2.431540   -2.783622
 0.490000   2.417737   -2.738317
 0.495000   2.404157   -2.693631
 0.500000   2.390800   -2.648014
 0.505000   2.377677   -2.601569
 0.510000   2.364785   -2.556320
 0.515000   2.352113   -2.513484
 0.520000   2.339650   -2.473296
 0.525000   2.327381   -2.435565
 0.530000   2.315294   -2.399630
 0.535000   2.303384   -2.366578
 0.540000   2.291628   -2.337229
 0.545000   2.280012   -2.310930
 0.550000   2.268519   -2.287694
 0.555000   2.257135   -2.267355
 0.560000   2.245846   -2.249311
 0.565000   2.234642   -2.234922
 0.570000   2.223496   -2.224945
 0.575000   2.212392   -2.218332
 0.580000   2.201313   -2.215058
 0.585000   2.190242   -2.215068
 0.590000   2.179162   -2.218445
 0.595000   2.168057   -2.225408
 0.600000   2.156908   -2.235733
 0.605000   2.145700   -2.249036
 0.610000   2.134418   -2.265186
 0.615000   2.123048   -2.284004
 0.620000   2.111578   -2.306525
 0.625000   2.099983   -2.331516
 0.630000   2.088263   -2.357184
 0.635000   2.076411   -2.383969
 0.640000   2.064423   -2.411530
 0.645000   2.052296   -2.439464
 0.650000   2.040028   -2.468961
 0.655000   2.027606   -2.500142
 0.660000   2.015027   -2.532944
 0.665000   2.002277   -2.568752
 0.670000   1.989340   -2.607559
 0.675000   1.976201   -2.648849
 0.680000   1.962851   -2.694337
 0.685000   1.949258   -2.739961
 0.690000   1.935451   -2.779437
 0.695000   1.921463   -2.813116
 0.700000   1.907320   -2.841214
 0.705000   1.893051   -2.863167
 0.710000   1.878689   -2.878291
 0.715000   1.864268   -2.884827
 0.720000   1.849840   -2.882540
 0.725000   1.835443   -2.872801
 0.730000   1.821112   -2.856048
 0.735000   1.806883   -2.832710
 0.740000   1.792785   -2.801785
 0.745000   1.778865   -2.765894
 0.750000   1.765126   -2.731967
 0.755000   1.751545   -2.702019
 0.760000   1.738106   -2.675350
 0.765000   1.724791   -2.652417
 0.770000   1.711582   -2.633338
 0.775000   1.698458   -2.617236
 0.780000   1.685410   -2.601626
 0.785000   1.672442   -2.584705
 0.790000   1.659562   -2.566334
 0.795000   1.646779   -2.546752
 0.800000   1.634095   -2.526570
 0.805000   1.621513   -2.508478
 0.810000   1.609010   -2.495846
 0.815000   1.596554   -2.489650
 0.820000   1.584114   -2.489698
 0.825000   1.571657   -2.495668
 0.830000   1.559157   -2.507796
 0.835000   1.546579   -2.526498
 0.840000   1.533892   -2.546572
 0.845000   1.521114   -2.567730
 0.850000   1.508215   -2.596095
 0.855000   1.495153   -2.633741
 0.860000   1.481877   -2.682682
 0.865000   1.468326   -2.749415
 0.870000   1.454383   -2.826557
 0.875000   1.440060   -2.908506
 0.880000   1.425298   -3.003077
 0.885000   1.410030   -3.112094
 0.890000   1.394177   -3.238439
 0.895000   1.377645   -3.403709
 0.900000   1.360140   -3.611115
 0.905000   1.341534   -3.860531
 0.910000   1.321535   -4.173304
 0.915000   1.299801   -4.559007
 0.920000   1.275945   -5.026619
 0.925000   1.249535   -5.623160
 0.930000   1.219713   -6.320767
 0.935000   1.186327   -7.077455
 0.940000   1.148939   -7.922824
 0.945000   1.107099   -8.849198
 0.950000   1.060447   -9.830443
 0.955000   1.008794   -10.854402
 0.960000   0.951903   -11.813835
 0.965000   0.890656   -12.578740
 0.970000   0.826115   -13.098795
 0.975000   0.759668   -13.308883
 0.980000   0.693026   -13.160801
 0.985000   0.628060   -12.628074
 0.990000   0.566746   -11.731570
 0.995000   0.510744   -10.565964
 1.000000   0.461086   -9.297457
201 psinorm nb(10^20/m^3) dnb/dpsiN
 0.000000   0.092727   0.133250
 0.005000   0.093188   0.051431
 0.010000   0.093241   -0.020837
 0.015000   0.092980   -0.079244
 0.020000   0.092448   -0.129074
 0.025000   0.091689   -0.170325
 0.030000   0.090745   -0.203869
 0.035000   0.089650   -0.231987
 0.040000   0.088425   -0.255894
 0.045000   0.087091   -0.276051
 0.050000   0.085665   -0.292936
 0.055000   0.084162   -0.306060
 0.060000   0.082604   -0.316104
 0.065000   0.081001   -0.323538
 0.070000   0.079369   -0.328396
 0.075000   0.077717   -0.331419
 0.080000   0.076055   -0.332648
 0.085000   0.074391   -0.332322
 0.090000   0.072731   -0.330568
 0.095000   0.071085   -0.327547
 0.100000   0.069456   -0.323621
 0.105000   0.067849   -0.318868
 0.110000   0.066267   -0.313385
 0.115000   0.064715   -0.307260
 0.120000   0.063195   -0.300607
 0.125000   0.061709   -0.293468
 0.130000   0.060260   -0.285947
 0.135000   0.058849   -0.278078
 0.140000   0.057479   -0.269966
 0.145000   0.056150   -0.261829
 0.150000   0.054861   -0.253703
 0.155000   0.053613   -0.245535
 0.160000   0.052406   -0.237247
 0.165000   0.051240   -0.229010
 0.170000   0.050115   -0.220977
 0.175000   0.049030   -0.213083
 0.180000   0.047985   -0.205412
 0.185000   0.046976   -0.197945
 0.190000   0.046005   -0.190614
 0.195000   0.045070   -0.183486
 0.200000   0.044170   -0.176591
 0.205000   0.043304   -0.169925
 0.210000   0.042471   -0.163496
 0.215000   0.041669   -0.156866
 0.220000   0.040902   -0.150400
 0.225000   0.040165   -0.144618
 0.230000   0.039456   -0.139175
 0.235000   0.038774   -0.134005
 0.240000   0.038116   -0.129086
 0.245000   0.037483   -0.124283
 0.250000   0.036873   -0.119298
 0.255000   0.036290   -0.114691
 0.260000   0.035726   -0.110746
 0.265000   0.035182   -0.107007
 0.270000   0.034656   -0.103466
 0.275000   0.034148   -0.099825
 0.280000   0.033658   -0.096239
 0.285000   0.033185   -0.093155
 0.290000   0.032727   -0.090398
 0.295000   0.032281   -0.087790
 0.300000   0.031849   -0.085089
 0.305000   0.031430   -0.082412
 0.310000   0.031024   -0.080147
 0.315000   0.030629   -0.078164
 0.320000   0.030243   -0.076294
 0.325000   0.029866   -0.074270
 0.330000   0.029500   -0.072343
 0.335000   0.029142   -0.070813
 0.340000   0.028792   -0.069416
 0.345000   0.028448   -0.068013
 0.350000   0.028112   -0.066561
 0.355000   0.027783   -0.065303
 0.360000   0.027459   -0.064264
 0.365000   0.027140   -0.063280
 0.370000   0.026826   -0.062176
 0.375000   0.026518   -0.061148
 0.380000   0.026215   -0.060363
 0.385000   0.025915   -0.059619
 0.390000   0.025618   -0.058814
 0.395000   0.025327   -0.058019
 0.400000   0.025038   -0.057370
 0.405000   0.024753   -0.056785
 0.410000   0.024470   -0.056156
 0.415000   0.024191   -0.055497
 0.420000   0.023915   -0.054923
 0.425000   0.023642   -0.054414
 0.430000   0.023371   -0.053869
 0.435000   0.023103   -0.053259
 0.440000   0.022839   -0.052698
 0.445000   0.022576   -0.052216
 0.450000   0.022316   -0.051710
 0.455000   0.022059   -0.051125
 0.460000   0.021805   -0.050577
 0.465000   0.021554   -0.050121
 0.470000   0.021304   -0.049660
 0.475000   0.021057   -0.049124
 0.480000   0.020813   -0.048617
 0.485000   0.020571   -0.048212
 0.490000   0.020331   -0.047818
 0.495000   0.020093   -0.047356
 0.500000   0.019857   -0.046916
 0.505000   0.019623   -0.046577
 0.510000   0.019391   -0.046249
 0.515000   0.019161   -0.045872
 0.520000   0.018933   -0.045499
 0.525000   0.018706   -0.045201
 0.530000   0.018481   -0.044925
 0.535000   0.018257   -0.044617
 0.540000   0.018034   -0.044299
 0.545000   0.017814   -0.044032
 0.550000   0.017594   -0.043796
 0.555000   0.017376   -0.043548
 0.560000   0.017159   -0.043288
 0.565000   0.016943   -0.043061
 0.570000   0.016728   -0.042871
 0.575000   0.016514   -0.042689
 0.580000   0.016301   -0.042488
 0.585000   0.016089   -0.042305
 0.590000   0.015878   -0.042168
 0.595000   0.015668   -0.042042
 0.600000   0.015458   -0.041911
 0.605000   0.015248   -0.041793
 0.610000   0.015040   -0.041710
 0.615000   0.014831   -0.041648
 0.620000   0.014623   -0.041598
 0.625000   0.014415   -0.041560
 0.630000   0.014208   -0.041540
 0.635000   0.014000   -0.041538
 0.640000   0.013792   -0.041547
 0.645000   0.013584   -0.041569
 0.650000   0.013377   -0.041608
 0.655000   0.013168   -0.041658
 0.660000   0.012960   -0.041713
 0.665000   0.012751   -0.041774
 0.670000   0.012542   -0.041850
 0.675000   0.012333   -0.041940
 0.680000   0.012123   -0.042034
 0.685000   0.011912   -0.042130
 0.690000   0.011702   -0.042229
 0.695000   0.011490   -0.042339
 0.700000   0.011278   -0.042465
 0.705000   0.011066   -0.042588
 0.710000   0.010852   -0.042701
 0.715000   0.010638   -0.042813
 0.720000   0.010424   -0.042924
 0.725000   0.010209   -0.043046
 0.730000   0.009994   -0.043160
 0.735000   0.009778   -0.043252
 0.740000   0.009561   -0.043336
 0.745000   0.009344   -0.043410
 0.750000   0.009127   -0.043473
 0.755000   0.008910   -0.043526
 0.760000   0.008692   -0.043557
 0.765000   0.008474   -0.043564
 0.770000   0.008256   -0.043554
 0.775000   0.008038   -0.043526
 0.780000   0.007821   -0.043479
 0.785000   0.007604   -0.043408
 0.790000   0.007387   -0.043313
 0.795000   0.007171   -0.043200
 0.800000   0.006955   -0.043070
 0.805000   0.006740   -0.042922
 0.810000   0.006526   -0.042759
 0.815000   0.006312   -0.042580
 0.820000   0.006100   -0.042383
 0.825000   0.005888   -0.042153
 0.830000   0.005678   -0.041905
 0.835000   0.005469   -0.041647
 0.840000   0.005262   -0.041365
 0.845000   0.005056   -0.041055
 0.850000   0.004851   -0.040715
 0.855000   0.004649   -0.040340
 0.860000   0.004448   -0.039928
 0.865000   0.004249   -0.039478
 0.870000   0.004053   -0.038986
 0.875000   0.003859   -0.038455
 0.880000   0.003669   -0.037909
 0.885000   0.003480   -0.037347
 0.890000   0.003295   -0.036755
 0.895000   0.003113   -0.036132
 0.900000   0.002934   -0.035484
 0.905000   0.002758   -0.034814
 0.910000   0.002586   -0.034135
 0.915000   0.002417   -0.033500
 0.920000   0.002251   -0.033024
 0.925000   0.002086   -0.032820
 0.930000   0.001922   -0.032939
 0.935000   0.001757   -0.033400
 0.940000   0.001588   -0.034184
 0.945000   0.001415   -0.035181
 0.950000   0.001237   -0.036053
 0.955000   0.001055   -0.035981
 0.960000   0.000877   -0.034082
 0.965000   0.000714   -0.030447
 0.970000   0.000572   -0.025955
 0.975000   0.000454   -0.021110
 0.980000   0.000361   -0.016349
 0.985000   0.000291   -0.013089
 0.990000   0.000230   -0.011799
 0.995000   0.000173   -0.011714
 1.000000   0.000113   -0.012115
201 psinorm pb(KPa) dpb/dpsiN
 0.000000   37.969713   30.418102
 0.005000   38.056231   4.189132
 0.010000   38.011604   -21.466673
 0.015000   37.841564   -45.411534
 0.020000   37.557489   -65.842898
 0.025000   37.183135   -81.949836
 0.030000   36.737991   -94.473882
 0.035000   36.238397   -104.763749
 0.040000   35.690353   -113.632517
 0.045000   35.102071   -121.037915
 0.050000   34.479974   -127.273821
 0.055000   33.829333   -132.040468
 0.060000   33.159569   -135.419984
 0.065000   32.475133   -137.751140
 0.070000   31.782058   -139.091255
 0.075000   31.084221   -139.698139
 0.080000   30.385077   -139.624218
 0.085000   29.687979   -138.989239
 0.090000   28.995184   -137.814398
 0.095000   28.309835   -136.162102
 0.100000   27.633563   -134.183501
 0.105000   26.968000   -131.920072
 0.110000   26.314362   -129.401165
 0.115000   25.673988   -126.646383
 0.120000   25.047899   -123.703328
 0.125000   24.436955   -120.591440
 0.130000   23.841984   -117.354363
 0.135000   23.263411   -114.000864
 0.140000   22.701976   -110.514406
 0.145000   22.158267   -107.028647
 0.150000   21.631689   -103.628166
 0.155000   21.121985   -100.243218
 0.160000   20.629257   -96.827071
 0.165000   20.153715   -93.447004
 0.170000   19.694787   -90.157432
 0.175000   19.252140   -86.938975
 0.180000   18.825397   -83.866533
 0.185000   18.413475   -80.893071
 0.190000   18.016466   -77.931160
 0.195000   17.634163   -75.040031
 0.200000   17.266066   -72.248456
 0.205000   16.911679   -69.555023
 0.210000   16.570516   -66.961783
 0.215000   16.242061   -64.300835
 0.220000   15.927508   -61.708620
 0.225000   15.624975   -59.359241
 0.230000   15.333915   -57.139471
 0.235000   15.053580   -55.059933
 0.240000   14.783316   -53.093653
 0.245000   14.522644   -51.177290
 0.250000   14.271543   -49.198964
 0.255000   14.030654   -47.368815
 0.260000   13.797855   -45.791682
 0.265000   13.572737   -44.294974
 0.270000   13.354905   -42.877885
 0.275000   13.143958   -41.441728
 0.280000   12.940488   -40.030906
 0.285000   12.743649   -38.795827
 0.290000   12.552529   -37.680169
 0.295000   12.366848   -36.620372
 0.300000   12.186326   -35.527708
 0.305000   12.011570   -34.445520
 0.310000   11.841871   -33.519347
 0.315000   11.676377   -32.700524
 0.320000   11.514865   -31.925376
 0.325000   11.357123   -31.093977
 0.330000   11.203926   -30.297879
 0.335000   11.054144   -29.651014
 0.340000   10.907415   -29.059020
 0.345000   10.763554   -28.467135
 0.350000   10.622744   -27.858491
 0.355000   10.484969   -27.323671
 0.360000   10.349507   -26.872419
 0.365000   10.216245   -26.443302
 0.370000   10.085074   -25.970576
 0.375000   9.956539   -25.527538
 0.380000   9.829799   -25.176856
 0.385000   9.704771   -24.842436
 0.390000   9.581375   -24.489114
 0.395000   9.459880   -24.141661
 0.400000   9.339958   -23.846539
 0.405000   9.221414   -23.575195
 0.410000   9.104206   -23.288644
 0.415000   8.988528   -22.991079
 0.420000   8.874295   -22.723810
 0.425000   8.761290   -22.479479
 0.430000   8.649500   -22.221257
 0.435000   8.539077   -21.935825
 0.440000   8.430142   -21.668160
 0.445000   8.322396   -21.431377
 0.450000   8.215828   -21.185169
 0.455000   8.110544   -20.906838
 0.460000   8.006760   -20.643761
 0.465000   7.904106   -20.420184
 0.470000   7.802558   -20.196544
 0.475000   7.702141   -19.946998
 0.480000   7.603088   -19.711728
 0.485000   7.505024   -19.517528
 0.490000   7.407913   -19.330149
 0.495000   7.311722   -19.123225
 0.500000   7.216681   -18.928955
 0.505000   7.122433   -18.773062
 0.510000   7.028950   -18.622450
 0.515000   6.936208   -18.459440
 0.520000   6.844356   -18.300791
 0.525000   6.753200   -18.167576
 0.530000   6.662680   -18.042442
 0.535000   6.572776   -17.909148
 0.540000   6.483588   -17.773966
 0.545000   6.395036   -17.654921
 0.550000   6.307039   -17.545702
 0.555000   6.219579   -17.436440
 0.560000   6.132675   -17.325620
 0.565000   6.046323   -17.222511
 0.570000   5.960450   -17.128206
 0.575000   5.875041   -17.036902
 0.580000   5.790081   -16.942517
 0.585000   5.705616   -16.853466
 0.590000   5.621546   -16.776788
 0.595000   5.537848   -16.704284
 0.600000   5.454503   -16.630082
 0.605000   5.371547   -16.557953
 0.610000   5.288924   -16.497544
 0.615000   5.206571   -16.446040
 0.620000   5.124463   -16.399148
 0.625000   5.042580   -16.355615
 0.630000   4.960907   -16.315960
 0.635000   4.879420   -16.279989
 0.640000   4.798107   -16.246411
 0.645000   4.716956   -16.217128
 0.650000   4.635936   -16.193976
 0.655000   4.555016   -16.171675
 0.660000   4.474219   -16.147573
 0.665000   4.393541   -16.124101
 0.670000   4.312978   -16.104588
 0.675000   4.232495   -16.088231
 0.680000   4.152096   -16.072846
 0.685000   4.071766   -16.057532
 0.690000   3.991521   -16.038864
 0.695000   3.911378   -16.021849
 0.700000   3.831302   -16.009252
 0.705000   3.751285   -15.993637
 0.710000   3.671366   -15.973704
 0.715000   3.591548   -15.952594
 0.720000   3.511840   -15.929909
 0.725000   3.432249   -15.909949
 0.730000   3.352740   -15.886242
 0.735000   3.273387   -15.854195
 0.740000   3.194198   -15.819234
 0.745000   3.115194   -15.780033
 0.750000   3.036398   -15.736848
 0.755000   2.957826   -15.688810
 0.760000   2.879510   -15.632243
 0.765000   2.801503   -15.565834
 0.770000   2.723852   -15.492113
 0.775000   2.646582   -15.413141
 0.780000   2.569720   -15.328568
 0.785000   2.493297   -15.235531
 0.790000   2.417365   -15.134221
 0.795000   2.341954   -15.028477
 0.800000   2.267080   -14.918394
 0.805000   2.192770   -14.802769
 0.810000   2.119052   -14.681841
 0.815000   2.045952   -14.555426
 0.820000   1.973498   -14.422090
 0.825000   1.901731   -14.277050
 0.830000   1.830728   -14.126264
 0.835000   1.760469   -13.973725
 0.840000   1.690990   -13.814010
 0.845000   1.622328   -13.646293
 0.850000   1.554527   -13.468984
 0.855000   1.487639   -13.281094
 0.860000   1.421716   -13.081816
 0.865000   1.356820   -12.870626
 0.870000   1.293010   -12.643707
 0.875000   1.230383   -12.400588
 0.880000   1.169004   -12.151439
 0.885000   1.108869   -11.896788
 0.890000   1.050036   -11.630432
 0.895000   0.992565   -11.353143
 0.900000   0.936505   -11.066984
 0.905000   0.881895   -10.775124
 0.910000   0.828754   -10.482219
 0.915000   0.777073   -10.203348
 0.920000   0.726720   -9.969207
 0.925000   0.677381   -9.811989
 0.930000   0.628600   -9.755186
 0.935000   0.579829   -9.819084
 0.940000   0.530410   -10.019174
 0.945000   0.479637   -10.347555
 0.950000   0.426934   -10.724975
 0.955000   0.372387   -10.904569
 0.960000   0.317888   -10.558302
 0.965000   0.266804   -9.657000
 0.970000   0.221318   -8.639815
 0.975000   0.180406   -7.898920
 0.980000   0.142329   -7.257209
 0.985000   0.107834   -6.434193
 0.990000   0.077987   -5.346212
 0.995000   0.054372   -4.278313
 1.000000   0.035204   -3.388798
201 psinorm ptot(KPa) dptot/dpsiN
 0.000000   101.172880   -70.979040
 0.005000   100.767718   -91.085783
 0.010000   100.262022   -111.444495
 0.015000   99.653273   -131.297948
 0.020000   98.949043   -148.395025
 0.025000   98.169323   -161.923050
 0.030000   97.329812   -172.545460
 0.035000   96.443868   -181.412470
 0.040000   95.515688   -189.225155
 0.045000   94.551617   -195.897296
 0.050000   93.556715   -201.679477
 0.055000   92.534822   -206.305525
 0.060000   91.493660   -209.794258
 0.065000   90.436880   -212.439331
 0.070000   89.369266   -214.286081
 0.075000   88.294019   -215.531785
 0.080000   87.213948   -216.230547
 0.085000   86.131713   -216.478042
 0.090000   85.049168   -216.282878
 0.095000   83.968884   -215.693041
 0.100000   82.892238   -214.828414
 0.105000   81.820600   -213.719735
 0.110000   80.755040   -212.380695
 0.115000   79.696793   -210.817704
 0.120000   78.646863   -209.067190
 0.125000   77.606121   -207.145445
 0.130000   76.575409   -205.093296
 0.135000   75.555189   -202.913231
 0.140000   74.546276   -200.561820
 0.145000   73.549570   -198.144485
 0.150000   72.564832   -195.738502
 0.155000   71.592185   -193.272390
 0.160000   70.632108   -190.697589
 0.165000   69.685209   -188.058927
 0.170000   68.751518   -185.399170
 0.175000   67.831218   -182.706032
 0.180000   66.924458   -180.047202
 0.185000   66.030746   -177.378490
 0.190000   65.150673   -174.617099
 0.195000   64.284575   -171.836708
 0.200000   63.432306   -169.107136
 0.205000   62.593503   -166.440383
 0.210000   61.767902   -163.829122
 0.215000   60.955212   -161.134503
 0.220000   60.156557   -158.473510
 0.225000   59.370477   -155.999442
 0.230000   58.596563   -153.611262
 0.235000   57.834364   -151.309063
 0.240000   57.083472   -149.066968
 0.245000   56.343695   -146.818712
 0.250000   55.615285   -144.460107
 0.255000   54.899094   -142.163715
 0.260000   54.193648   -140.004789
 0.265000   53.499046   -137.840175
 0.270000   52.815246   -135.684864
 0.275000   52.142197   -133.458414
 0.280000   51.480662   -131.197454
 0.285000   50.830223   -129.023363
 0.290000   50.190428   -126.893448
 0.295000   49.561288   -124.766047
 0.300000   48.942768   -122.575851
 0.305000   48.335530   -120.372703
 0.310000   47.739041   -118.296027
 0.315000   47.152569   -116.320777
 0.320000   46.575833   -114.408265
 0.325000   46.008487   -112.472761
 0.330000   45.451106   -110.585980
 0.335000   44.902627   -108.846555
 0.340000   44.362640   -107.173131
 0.345000   43.830896   -105.532839
 0.350000   43.307312   -103.897674
 0.355000   42.791919   -102.323699
 0.360000   42.284075   -100.826062
 0.365000   41.783658   -99.349616
 0.370000   41.290578   -97.830465
 0.375000   40.805354   -96.323950
 0.380000   40.327339   -94.849538
 0.385000   39.856858   -93.325213
 0.390000   39.394087   -91.742434
 0.395000   38.939434   -90.134285
 0.400000   38.492744   -88.550296
 0.405000   38.053931   -86.951796
 0.410000   37.623226   -85.323617
 0.415000   37.200695   -83.724929
 0.420000   36.785977   -82.206206
 0.425000   36.378633   -80.760372
 0.430000   35.978373   -79.359486
 0.435000   35.585038   -77.981739
 0.440000   35.198556   -76.674433
 0.445000   34.818293   -75.469297
 0.450000   34.443863   -74.321973
 0.455000   34.075074   -73.201555
 0.460000   33.711847   -72.149402
 0.465000   33.353580   -71.187881
 0.470000   32.999968   -70.284643
 0.475000   32.650733   -69.407109
 0.480000   32.305897   -68.574051
 0.485000   31.964993   -67.797658
 0.490000   31.627921   -67.036102
 0.495000   31.294632   -66.257977
 0.500000   30.965341   -65.484966
 0.505000   30.639782   -64.740117
 0.510000   30.317940   -64.003067
 0.515000   29.999751   -63.264047
 0.520000   29.685299   -62.539263
 0.525000   29.374359   -61.846762
 0.530000   29.066832   -61.168894
 0.535000   28.762670   -60.496949
 0.540000   28.461862   -59.840252
 0.545000   28.164267   -59.211591
 0.550000   27.869746   -58.605597
 0.555000   27.578211   -58.013103
 0.560000   27.289615   -57.430024
 0.565000   27.003911   -56.869180
 0.570000   26.720923   -56.334207
 0.575000   26.440569   -55.815795
 0.580000   26.162765   -55.308647
 0.585000   25.887483   -54.819934
 0.590000   25.614566   -54.356630
 0.595000   25.343916   -53.913310
 0.600000   25.075433   -53.484252
 0.605000   24.809074   -53.071537
 0.610000   24.544718   -52.683869
 0.615000   24.282235   -52.318475
 0.620000   24.021533   -51.975851
 0.625000   23.762477   -51.649381
 0.630000   23.505039   -51.331810
 0.635000   23.249158   -51.025130
 0.640000   22.994788   -50.727053
 0.645000   22.741888   -50.437898
 0.650000   22.490409   -50.163801
 0.655000   22.240250   -49.900350
 0.660000   21.991405   -49.645650
 0.665000   21.743793   -49.406956
 0.670000   21.497336   -49.184148
 0.675000   21.251952   -48.968485
 0.680000   21.007651   -48.748576
 0.685000   20.764466   -48.499460
 0.690000   20.522656   -48.202111
 0.695000   20.282445   -47.867274
 0.700000   20.043983   -47.500816
 0.705000   19.807437   -47.099016
 0.710000   19.572993   -46.652234
 0.715000   19.340915   -46.170269
 0.720000   19.111291   -45.680929
 0.725000   18.884105   -45.197842
 0.730000   18.659312   -44.719123
 0.735000   18.436914   -44.250829
 0.740000   18.216804   -43.800221
 0.745000   17.998912   -43.389725
 0.750000   17.782907   -43.053148
 0.755000   17.568380   -42.787016
 0.760000   17.355036   -42.575554
 0.765000   17.142625   -42.410336
 0.770000   16.930933   -42.290048
 0.775000   16.719724   -42.204147
 0.780000   16.508892   -42.115376
 0.785000   16.298571   -42.001022
 0.790000   16.088881   -41.862233
 0.795000   15.879948   -41.698909
 0.800000   15.671892   -41.512208
 0.805000   15.464826   -41.307804
 0.810000   15.258814   -41.093446
 0.815000   15.053892   -40.880666
 0.820000   14.850008   -40.678771
 0.825000   14.647104   -40.485207
 0.830000   14.445156   -40.307712
 0.835000   14.244027   -40.151237
 0.840000   14.043643   -39.987446
 0.845000   13.844152   -39.813450
 0.850000   13.645509   -39.652954
 0.855000   13.447623   -39.512905
 0.860000   13.250380   -39.399764
 0.865000   13.053625   -39.335907
 0.870000   12.857021   -39.286711
 0.875000   12.660758   -39.230861
 0.880000   12.464712   -39.209965
 0.885000   12.268658   -39.231928
 0.890000   12.072393   -39.301742
 0.895000   11.875641   -39.501056
 0.900000   11.677382   -39.847381
 0.905000   11.477167   -40.350576
 0.910000   11.273876   -41.106393
 0.915000   11.066103   -42.188611
 0.920000   10.851990   -43.709436
 0.925000   10.629009   -45.962145
 0.930000   10.392369   -49.068043
 0.935000   10.138329   -53.352772
 0.940000   9.858841   -59.948290
 0.945000   9.538846   -71.020719
 0.950000   9.148634   -91.032927
 0.955000   8.628516   -128.230952
 0.960000   7.866324   -192.185006
 0.965000   6.706666   -273.809964
 0.970000   5.128225   -317.368447
 0.975000   3.532982   -273.576942
 0.980000   2.392455   -181.763198
 0.985000   1.715350   -108.112217
 0.990000   1.311333   -66.490832
 0.995000   1.050442   -44.471570
 1.000000   0.866617   -29.058064
201 psinorm omeg(kRad/s) domeg/dpsiN
 0.000000   62.984980   0.007614
 0.005000   62.984573   -0.170574
 0.010000   62.983274   -0.360565
 0.015000   62.980967   -0.574879
 0.020000   62.977526   -0.814752
 0.025000   62.972820   -1.081224
 0.030000   62.966713   -1.375322
 0.035000   62.959066   -1.698034
 0.040000   62.949733   -2.050138
 0.045000   62.938565   -2.432181
 0.050000   62.925411   -2.844784
 0.055000   62.910117   -3.288529
 0.060000   62.892526   -3.763574
 0.065000   62.872481   -4.269381
 0.070000   62.849832   -4.802647
 0.075000   62.824455   -5.360448
 0.080000   62.796228   -5.942076
 0.085000   62.765034   -6.545660
 0.090000   62.730771   -7.168799
 0.095000   62.693346   -7.809147
 0.100000   62.652680   -8.458798
 0.105000   62.608758   -9.115750
 0.110000   62.561522   -9.784777
 0.115000   62.510910   -10.464585
 0.120000   62.456876   -11.156786
 0.125000   62.399343   -11.869821
 0.130000   62.338178   -12.617903
 0.135000   62.273164   -13.418028
 0.140000   62.203998   -14.270849
 0.145000   62.130455   -15.168643
 0.150000   62.052311   -16.113016
 0.155000   61.969325   -17.107619
 0.160000   61.881235   -18.161553
 0.165000   61.787709   -19.273432
 0.170000   61.688501   -20.420870
 0.175000   61.583501   -21.593047
 0.180000   61.472570   -22.790172
 0.185000   61.355599   -24.006573
 0.190000   61.232505   -25.236465
 0.195000   61.103234   -26.466737
 0.200000   60.967837   -27.678075
 0.205000   60.826454   -28.849524
 0.210000   60.679342   -29.956400
 0.215000   60.526890   -30.974276
 0.220000   60.369599   -31.865744
 0.225000   60.208232   -32.573893
 0.230000   60.043860   -33.147766
 0.235000   59.876754   -33.632566
 0.240000   59.707535   -33.989341
 0.245000   59.536861   -34.209758
 0.250000   59.365437   -34.263334
 0.255000   59.194228   -34.071750
 0.260000   59.024720   -33.786029
 0.265000   58.856367   -33.533338
 0.270000   58.689386   -33.253689
 0.275000   58.523831   -32.980075
 0.280000   58.359585   -32.742656
 0.285000   58.196404   -32.558301
 0.290000   58.034002   -32.556309
 0.295000   57.870841   -32.789218
 0.300000   57.706110   -33.172867
 0.305000   57.539112   -33.677795
 0.310000   57.369332   -34.259996
 0.315000   57.196512   -34.902116
 0.320000   57.020311   -35.547427
 0.325000   56.841038   -36.154412
 0.330000   56.658767   -36.743742
 0.335000   56.473601   -37.308979
 0.340000   56.285677   -37.842829
 0.345000   56.095172   -38.343209
 0.350000   55.902245   -38.784632
 0.355000   55.707326   -39.152399
 0.360000   55.510721   -39.458763
 0.365000   55.312738   -39.702161
 0.370000   55.113700   -39.880106
 0.375000   54.913937   -39.966702
 0.380000   54.714033   -39.966879
 0.385000   54.514269   -39.914439
 0.390000   54.314888   -39.810642
 0.395000   54.116162   -39.655992
 0.400000   53.918328   -39.457816
 0.405000   53.721584   -39.198250
 0.410000   53.526346   -38.972543
 0.415000   53.331859   -39.002797
 0.420000   53.136318   -39.444371
 0.425000   52.937415   -40.381141
 0.430000   52.732506   -41.856778
 0.435000   52.518847   -44.056163
 0.440000   52.291945   -46.977662
 0.445000   52.049070   -50.223375
 0.450000   51.789711   -53.656013
 0.455000   51.512510   -57.321773
 0.460000   51.216493   -61.140031
 0.465000   50.901110   -65.217385
 0.470000   50.564319   -69.437191
 0.475000   50.206738   -73.208159
 0.480000   49.832238   -76.389715
 0.485000   49.442841   -79.117144
 0.490000   49.041066   -81.296727
 0.495000   48.629874   -82.875754
 0.500000   48.212309   -83.733348
 0.505000   47.792540   -83.838003
 0.510000   47.373929   -83.439748
 0.515000   46.958143   -82.737771
 0.520000   46.546551   -81.781701
 0.525000   46.140326   -80.588586
 0.530000   45.740665   -79.141933
 0.535000   45.348906   -77.528794
 0.540000   44.965377   -75.837583
 0.545000   44.590530   -74.073461
 0.550000   44.224643   -72.271101
 0.555000   43.867819   -70.454023
 0.560000   43.520102   -68.622582
 0.565000   43.181594   -66.888903
 0.570000   42.851213   -65.320762
 0.575000   42.528386   -63.876944
 0.580000   42.212444   -62.573779
 0.585000   41.902648   -61.424469
 0.590000   41.598199   -60.436168
 0.595000   41.298287   -59.533923
 0.600000   41.002860   -58.626629
 0.605000   40.712020   -57.702847
 0.610000   40.425832   -56.773174
 0.615000   40.144289   -55.853909
 0.620000   39.867292   -54.899485
 0.625000   39.595294   -53.973677
 0.630000   39.327556   -53.168108
 0.635000   39.063613   -52.459556
 0.640000   38.802960   -51.857798
 0.645000   38.545035   -51.374640
 0.650000   38.289214   -50.983733
 0.655000   38.035197   -50.807714
 0.660000   37.781137   -50.978618
 0.665000   37.525411   -51.473899
 0.670000   37.266398   -52.302301
 0.675000   37.002388   -53.475799
 0.680000   36.731640   -55.056209
 0.685000   36.451826   -56.878223
 0.690000   36.162857   -58.666306
 0.695000   35.865163   -60.398917
 0.700000   35.558868   -62.112867
 0.705000   35.244034   -63.821602
 0.710000   34.920652   -65.531149
 0.715000   34.588723   -67.201613
 0.720000   34.248636   -68.796167
 0.725000   33.900761   -70.312526
 0.730000   33.545511   -71.735811
 0.735000   33.183403   -73.051802
 0.740000   32.814993   -74.272013
 0.745000   32.440683   -75.606907
 0.750000   32.058924   -77.339098
 0.755000   31.667292   -79.557374
 0.760000   31.263350   -82.259246
 0.765000   30.844699   -85.412229
 0.770000   30.409228   -89.107996
 0.775000   29.953619   -93.201383
 0.780000   29.477214   -96.926984
 0.785000   28.984350   -99.906788
 0.790000   28.478146   -102.187431
 0.795000   27.962475   -103.640913
 0.800000   27.441737   -104.252573
 0.805000   26.919950   -104.119607
 0.810000   26.400541   -103.229908
 0.815000   25.887651   -101.653310
 0.820000   25.384008   -99.527867
 0.825000   24.892372   -96.855943
 0.830000   24.415448   -93.703242
 0.835000   23.955339   -90.170906
 0.840000   23.513739   -86.232422
 0.845000   23.093015   -82.185272
 0.850000   22.691887   -78.563554
 0.855000   22.307380   -75.694572
 0.860000   21.934941   -73.938879
 0.865000   21.567991   -73.918938
 0.870000   21.195751   -75.814412
 0.875000   20.809847   -79.936965
 0.880000   20.396382   -87.193533
 0.885000   19.937911   -98.277087
 0.890000   19.413611   -113.794415
 0.895000   18.799967   -134.622486
 0.900000   18.067386   -160.156898
 0.905000   17.198398   -189.119539
 0.910000   16.176191   -220.532086
 0.915000   14.993077   -252.172075
 0.920000   13.654470   -281.092300
 0.925000   12.182154   -303.784208
 0.930000   10.616628   -315.820464
 0.935000   9.023950   -314.358701
 0.940000   7.473041   -299.220478
 0.945000   6.031745   -271.484401
 0.950000   4.758197   -233.811572
 0.955000   3.693629   -189.382414
 0.960000   2.864373   -143.207988
 0.965000   2.261549   -100.073843
 0.970000   1.863634   -62.179128
 0.975000   1.639758   -30.990854
 0.980000   1.553726   -7.112540
 0.985000   1.568633   9.530830
 0.990000   1.649034   19.633971
 0.995000   1.764972   24.446043
 1.000000   1.893494   26.962740
201 psinorm omegp(kRad/s) domegp/dpsiN
 0.000000   -0.016402   150.249763
 0.005000   0.577389   87.266505
 0.010000   0.856263   52.287587
 0.015000   1.100264   47.490489
 0.020000   1.331168   45.405871
 0.025000   1.554323   43.860096
 0.030000   1.769769   42.219524
 0.035000   1.976518   40.753957
 0.040000   2.177308   39.585091
 0.045000   2.372369   38.471383
 0.050000   2.562022   37.655880
 0.055000   2.748928   37.414396
 0.060000   2.936166   37.657166
 0.065000   3.125500   38.063352
 0.070000   3.316800   38.428001
 0.075000   3.509780   38.644476
 0.080000   3.703244   38.571687
 0.085000   3.895497   38.184198
 0.090000   4.085086   37.372283
 0.095000   4.269220   36.083445
 0.100000   4.445921   34.548360
 0.105000   4.614703   32.837512
 0.110000   4.774296   31.144931
 0.115000   4.926152   29.464873
 0.120000   5.068945   27.988526
 0.125000   5.206038   26.869081
 0.130000   5.337636   25.966413
 0.135000   5.465702   25.119028
 0.140000   5.588826   24.346774
 0.145000   5.709170   23.561761
 0.150000   5.824443   22.654040
 0.155000   5.935710   21.611780
 0.160000   6.040561   20.402577
 0.165000   6.139736   19.061883
 0.170000   6.231180   17.395651
 0.175000   6.313692   15.420037
 0.180000   6.385380   13.042006
 0.185000   6.444112   10.648360
 0.190000   6.491864   8.202016
 0.195000   6.526132   5.730283
 0.200000   6.549167   3.505965
 0.205000   6.561192   1.336023
 0.210000   6.562527   -0.377264
 0.215000   6.557419   -1.753664
 0.220000   6.544990   -3.012059
 0.225000   6.527299   -4.134414
 0.230000   6.503646   -5.446419
 0.235000   6.472835   -6.748349
 0.240000   6.436163   -8.237728
 0.245000   6.390457   -10.062961
 0.250000   6.335533   -11.875161
 0.255000   6.271706   -13.856368
 0.260000   6.196970   -15.963268
 0.265000   6.112073   -18.005212
 0.270000   6.016917   -20.163336
 0.275000   5.910440   -22.337256
 0.280000   5.793545   -24.540186
 0.285000   5.665038   -26.936529
 0.290000   5.524180   -29.284561
 0.295000   5.372192   -31.695634
 0.300000   5.207223   -34.268461
 0.305000   5.029508   -36.735061
 0.310000   4.839873   -39.241976
 0.315000   4.637088   -41.853028
 0.320000   4.421342   -44.283884
 0.325000   4.194249   -46.488693
 0.330000   3.956455   -48.343392
 0.335000   3.710815   -49.560900
 0.340000   3.460846   -50.234332
 0.345000   3.208472   -50.480675
 0.350000   2.956040   -50.147939
 0.355000   2.706992   -49.694223
 0.360000   2.459097   -49.588992
 0.365000   2.211103   -49.741574
 0.370000   1.961682   -50.244831
 0.375000   1.708654   -51.230542
 0.380000   1.449376   -52.833870
 0.385000   1.180316   -54.822063
 0.390000   0.901156   -56.704692
 0.395000   0.613269   -58.317971
 0.400000   0.317976   -59.738274
 0.405000   0.015886   -61.206984
 0.410000   -0.294094   -63.533449
 0.415000   -0.619449   -66.954812
 0.420000   -0.963642   -71.083519
 0.425000   -1.330284   -75.813082
 0.430000   -1.721773   -80.945658
 0.435000   -2.139740   -86.314977
 0.440000   -2.584923   -91.797073
 0.445000   -3.057711   -96.309271
 0.450000   -3.548015   -99.085062
 0.455000   -4.048562   -100.283099
 0.460000   -4.550846   -99.748149
 0.465000   -5.046043   -97.273718
 0.470000   -5.523584   -92.271705
 0.475000   -5.968760   -85.103826
 0.480000   -6.374622   -76.904220
 0.485000   -6.737802   -68.055918
 0.490000   -7.055181   -58.943213
 0.495000   -7.327235   -49.894753
 0.500000   -7.554128   -41.439749
 0.505000   -7.741632   -34.513996
 0.510000   -7.899268   -29.209592
 0.515000   -8.033728   -25.256083
 0.520000   -8.151829   -22.412801
 0.525000   -8.257856   -20.395496
 0.530000   -8.355784   -19.026398
 0.535000   -8.448120   -17.879687
 0.540000   -8.534581   -16.694574
 0.545000   -8.615066   -15.518215
 0.550000   -8.689763   -14.390574
 0.555000   -8.758971   -13.219324
 0.560000   -8.821956   -11.905411
 0.565000   -8.878026   -10.539373
 0.570000   -8.927350   -9.105442
 0.575000   -8.969080   -7.531966
 0.580000   -9.002670   -5.923090
 0.585000   -9.028311   -4.361010
 0.590000   -9.046280   -2.774442
 0.595000   -9.056055   -1.179489
 0.600000   -9.058075   0.266279
 0.605000   -9.053393   1.590181
 0.610000   -9.042173   2.848645
 0.615000   -9.024906   3.994868
 0.620000   -9.002224   4.964728
 0.625000   -8.975259   5.827448
 0.630000   -8.943950   6.644730
 0.635000   -8.908812   7.352408
 0.640000   -8.870426   7.990615
 0.645000   -8.828905   8.605067
 0.650000   -8.784375   9.191035
 0.655000   -8.736995   9.706962
 0.660000   -8.687306   10.164335
 0.665000   -8.635352   10.596312
 0.670000   -8.581342   10.995998
 0.675000   -8.525392   11.355705
 0.680000   -8.467785   11.737361
 0.685000   -8.408018   12.177158
 0.690000   -8.346014   12.622705
 0.695000   -8.281791   13.082779
 0.700000   -8.215186   13.574515
 0.705000   -8.146046   14.065921
 0.710000   -8.074527   14.445410
 0.715000   -8.001592   14.684366
 0.720000   -7.927683   14.814640
 0.725000   -7.853445   14.783058
 0.730000   -7.779853   14.561755
 0.735000   -7.707828   14.162149
 0.740000   -7.638231   13.588643
 0.745000   -7.571941   12.865234
 0.750000   -7.509579   12.053151
 0.755000   -7.451410   11.188368
 0.760000   -7.397695   10.281578
 0.765000   -7.348594   9.387600
 0.770000   -7.303819   8.584192
 0.775000   -7.262752   7.872571
 0.780000   -7.225093   7.209908
 0.785000   -7.190653   6.560456
 0.790000   -7.159489   5.941598
 0.795000   -7.131237   5.300719
 0.800000   -7.106482   4.557880
 0.805000   -7.085658   3.730272
 0.810000   -7.069179   2.844442
 0.815000   -7.057214   1.932074
 0.820000   -7.049858   0.960513
 0.825000   -7.047609   -0.024344
 0.830000   -7.050102   -0.922905
 0.835000   -7.056838   -1.752400
 0.840000   -7.067626   -2.553841
 0.845000   -7.082376   -3.245689
 0.850000   -7.100082   -3.781727
 0.855000   -7.120193   -4.277731
 0.860000   -7.142860   -4.870371
 0.865000   -7.168897   -5.530969
 0.870000   -7.198169   -6.231221
 0.875000   -7.231209   -7.124015
 0.880000   -7.269410   -8.261109
 0.885000   -7.313820   -9.471512
 0.890000   -7.364125   -10.685929
 0.895000   -7.420680   -12.063085
 0.900000   -7.484756   -13.634153
 0.905000   -7.557021   -15.434761
 0.910000   -7.639103   -17.517666
 0.915000   -7.732198   -19.737538
 0.920000   -7.836479   -21.939455
 0.925000   -7.951593   -24.001786
 0.930000   -8.076496   -25.631862
 0.935000   -8.207911   -25.371856
 0.940000   -8.330215   -22.110739
 0.945000   -8.429019   -13.825512
 0.950000   -8.468470   3.440846
 0.955000   -8.394610   36.793100
 0.960000   -8.100539   87.766365
 0.965000   -7.516946   161.026868
 0.970000   -6.490270   264.241996
 0.975000   -4.874526   391.972608
 0.980000   -2.570544   525.820487
 0.985000   0.383678   624.517456
 0.990000   3.674630   635.897148
 0.995000   6.742650   530.601073
 1.000000   8.980641   364.595361
201 psinorm omgvb(kRad/s) domgvb/dpsiN
 0.000000   62.968578   150.257377
 0.005000   63.561961   87.095930
 0.010000   63.839537   51.927022
 0.015000   64.081232   46.915609
 0.020000   64.308694   44.591119
 0.025000   64.527143   42.778872
 0.030000   64.736482   40.844202
 0.035000   64.935585   39.055923
 0.040000   65.127041   37.534953
 0.045000   65.310934   36.039202
 0.050000   65.487433   34.811096
 0.055000   65.659045   34.125868
 0.060000   65.828692   33.893592
 0.065000   65.997981   33.793971
 0.070000   66.166632   33.625354
 0.075000   66.334235   33.284029
 0.080000   66.499472   32.629611
 0.085000   66.660531   31.638538
 0.090000   66.815858   30.203484
 0.095000   66.962566   28.274297
 0.100000   67.098601   26.089562
 0.105000   67.223461   23.721762
 0.110000   67.335818   21.360155
 0.115000   67.437063   19.000288
 0.120000   67.525821   16.831740
 0.125000   67.605380   14.999260
 0.130000   67.675814   13.348510
 0.135000   67.738865   11.701000
 0.140000   67.792824   10.075925
 0.145000   67.839625   8.393118
 0.150000   67.876755   6.541024
 0.155000   67.905035   4.504161
 0.160000   67.921796   2.241024
 0.165000   67.927445   -0.211549
 0.170000   67.919681   -3.025219
 0.175000   67.897193   -6.173011
 0.180000   67.857951   -9.748166
 0.185000   67.799711   -13.358214
 0.190000   67.724369   -17.034448
 0.195000   67.629367   -20.736453
 0.200000   67.517004   -24.172109
 0.205000   67.387646   -27.513501
 0.210000   67.241869   -30.333664
 0.215000   67.084309   -32.727940
 0.220000   66.914590   -34.877803
 0.225000   66.735531   -36.708307
 0.230000   66.547507   -38.594185
 0.235000   66.349589   -40.380915
 0.240000   66.143697   -42.227069
 0.245000   65.927318   -44.272720
 0.250000   65.700970   -46.138495
 0.255000   65.465934   -47.928119
 0.260000   65.221689   -49.749297
 0.265000   64.968441   -51.538550
 0.270000   64.706304   -53.417025
 0.275000   64.434270   -55.317331
 0.280000   64.153130   -57.282842
 0.285000   63.861442   -59.494830
 0.290000   63.558182   -61.840870
 0.295000   63.243033   -64.484852
 0.300000   62.913333   -67.441328
 0.305000   62.568620   -70.412856
 0.310000   62.209205   -73.501972
 0.315000   61.833600   -76.755144
 0.320000   61.441653   -79.831311
 0.325000   61.035287   -82.643105
 0.330000   60.615222   -85.087134
 0.335000   60.184416   -86.869879
 0.340000   59.746524   -88.077161
 0.345000   59.303644   -88.823884
 0.350000   58.858285   -88.932571
 0.355000   58.414318   -88.846622
 0.360000   57.969819   -89.047755
 0.365000   57.523841   -89.443735
 0.370000   57.075381   -90.124936
 0.375000   56.622592   -91.197244
 0.380000   56.163409   -92.800749
 0.385000   55.694584   -94.736502
 0.390000   55.216044   -96.515334
 0.395000   54.729431   -97.973962
 0.400000   54.236304   -99.196090
 0.405000   53.737470   -100.405233
 0.410000   53.232252   -102.505991
 0.415000   52.712410   -105.957609
 0.420000   52.172676   -110.527890
 0.425000   51.607131   -116.194223
 0.430000   51.010733   -122.802436
 0.435000   50.379107   -130.371139
 0.440000   49.707022   -138.774735
 0.445000   48.991359   -146.532647
 0.450000   48.241696   -152.741075
 0.455000   47.463949   -157.604872
 0.460000   46.665647   -160.888180
 0.465000   45.855067   -162.491104
 0.470000   45.040736   -161.708896
 0.475000   44.237978   -158.311985
 0.480000   43.457616   -153.293935
 0.485000   42.705038   -147.173061
 0.490000   41.985885   -140.239940
 0.495000   41.302639   -132.770506
 0.500000   40.658180   -125.173097
 0.505000   40.050908   -118.351999
 0.510000   39.474660   -112.649341
 0.515000   38.924415   -107.993854
 0.520000   38.394722   -104.194502
 0.525000   37.882470   -100.984082
 0.530000   37.384881   -98.168331
 0.535000   36.900786   -95.408481
 0.540000   36.430796   -92.532157
 0.545000   35.975465   -89.591677
 0.550000   35.534879   -86.661675
 0.555000   35.108848   -83.673347
 0.560000   34.698146   -80.527993
 0.565000   34.303568   -77.428276
 0.570000   33.923863   -74.426203
 0.575000   33.559306   -71.408910
 0.580000   33.209774   -68.496868
 0.585000   32.874337   -65.785479
 0.590000   32.551919   -63.210610
 0.595000   32.242231   -60.713413
 0.600000   31.944785   -58.360350
 0.605000   31.658628   -56.112666
 0.610000   31.383659   -53.924530
 0.615000   31.119382   -51.859040
 0.620000   30.865068   -49.934757
 0.625000   30.620035   -48.146230
 0.630000   30.383606   -46.523377
 0.635000   30.154801   -45.107147
 0.640000   29.932534   -43.867183
 0.645000   29.716129   -42.769573
 0.650000   29.504839   -41.792698
 0.655000   29.298202   -41.100752
 0.660000   29.093831   -40.814283
 0.665000   28.890059   -40.877587
 0.670000   28.685055   -41.306303
 0.675000   28.476996   -42.120094
 0.680000   28.263854   -43.318848
 0.685000   28.043808   -44.701065
 0.690000   27.816844   -46.043601
 0.695000   27.583372   -47.316137
 0.700000   27.343682   -48.538352
 0.705000   27.097988   -49.755681
 0.710000   26.846125   -51.085739
 0.715000   26.587131   -52.517247
 0.720000   26.320953   -53.981527
 0.725000   26.047316   -55.529468
 0.730000   25.765658   -57.174055
 0.735000   25.475575   -58.889653
 0.740000   25.176762   -60.683370
 0.745000   24.868742   -62.741673
 0.750000   24.549345   -65.285947
 0.755000   24.215882   -68.369006
 0.760000   23.865655   -71.977668
 0.765000   23.496105   -76.024629
 0.770000   23.105409   -80.523804
 0.775000   22.690867   -85.328812
 0.780000   22.252121   -89.717077
 0.785000   21.793697   -93.346332
 0.790000   21.318657   -96.245833
 0.795000   20.831238   -98.340194
 0.800000   20.335255   -99.694693
 0.805000   19.834291   -100.389335
 0.810000   19.331362   -100.385466
 0.815000   18.830437   -99.721235
 0.820000   18.334150   -98.567355
 0.825000   17.844763   -96.880287
 0.830000   17.365347   -94.626147
 0.835000   16.898502   -91.923306
 0.840000   16.446114   -88.786262
 0.845000   16.010639   -85.430961
 0.850000   15.591804   -82.345281
 0.855000   15.187186   -79.972303
 0.860000   14.792081   -78.809250
 0.865000   14.399094   -79.449906
 0.870000   13.997582   -82.045633
 0.875000   13.578637   -87.060980
 0.880000   13.126972   -95.454641
 0.885000   12.624091   -107.748599
 0.890000   12.049486   -124.480344
 0.895000   11.379287   -146.685571
 0.900000   10.582630   -173.791050
 0.905000   9.641377   -204.554299
 0.910000   8.537087   -238.049753
 0.915000   7.260879   -271.909613
 0.920000   5.817991   -303.031754
 0.925000   4.230562   -327.785994
 0.930000   2.540131   -341.452325
 0.935000   0.816039   -339.730556
 0.940000   -0.857174   -321.331217
 0.945000   -2.397274   -285.309913
 0.950000   -3.710273   -230.370726
 0.955000   -4.700981   -152.589314
 0.960000   -5.236166   -55.441623
 0.965000   -5.255397   60.953025
 0.970000   -4.626636   202.062868
 0.975000   -3.234768   360.981754
 0.980000   -1.016819   518.707947
 0.985000   1.952311   634.048286
 0.990000   5.323664   655.531118
 0.995000   8.507622   555.047116
 1.000000   10.874135   391.558101
201 psinorm omgpp(kRad/s) domgpp/dpsiN
 0.000000   -0.044792   -22.231403
 0.005000   -0.180835   -32.185935
 0.010000   -0.366651   -37.661600
 0.015000   -0.557451   -38.594606
 0.020000   -0.752597   -39.374981
 0.025000   -0.951201   -39.963500
 0.030000   -1.152232   -40.374792
 0.035000   -1.354949   -40.606566
 0.040000   -1.558298   -40.634318
 0.045000   -1.761292   -40.469352
 0.050000   -1.962992   -40.078739
 0.055000   -2.162080   -39.471781
 0.060000   -2.357709   -38.861064
 0.065000   -2.550690   -38.213215
 0.070000   -2.739842   -37.420253
 0.075000   -2.924893   -36.590101
 0.080000   -3.105743   -35.736238
 0.085000   -3.282255   -34.923107
 0.090000   -3.454974   -34.261375
 0.095000   -3.624869   -33.581059
 0.100000   -3.790784   -32.751572
 0.105000   -3.952385   -31.846421
 0.110000   -4.109248   -30.857421
 0.115000   -4.260959   -29.831422
 0.120000   -4.407563   -28.767619
 0.125000   -4.548635   -27.702397
 0.130000   -4.684587   -26.617159
 0.135000   -4.814807   -25.380208
 0.140000   -4.938389   -23.934847
 0.145000   -5.054155   -22.272675
 0.150000   -5.161115   -20.330055
 0.155000   -5.257456   -18.258617
 0.160000   -5.343702   -16.191376
 0.165000   -5.419369   -14.039145
 0.170000   -5.484093   -11.821092
 0.175000   -5.537580   -9.251298
 0.180000   -5.576606   -6.861060
 0.185000   -5.606191   -4.934666
 0.190000   -5.625953   -3.156069
 0.195000   -5.637752   -1.767001
 0.200000   -5.643623   -0.771074
 0.205000   -5.645462   -0.124348
 0.210000   -5.644866   0.303274
 0.215000   -5.642430   0.801128
 0.220000   -5.636855   1.419116
 0.225000   -5.628238   2.030800
 0.230000   -5.616547   2.665628
 0.235000   -5.601582   2.960411
 0.240000   -5.586943   3.816269
 0.245000   -5.563420   5.737214
 0.250000   -5.529571   7.662230
 0.255000   -5.486797   9.422991
 0.260000   -5.435341   11.109727
 0.265000   -5.375700   12.647605
 0.270000   -5.308865   14.337007
 0.275000   -5.232330   16.168214
 0.280000   -5.147183   17.777898
 0.285000   -5.054551   19.226225
 0.290000   -4.954920   20.563728
 0.295000   -4.848914   21.898924
 0.300000   -4.735931   22.940044
 0.305000   -4.619513   23.195614
 0.310000   -4.503975   22.998981
 0.315000   -4.389523   22.708239
 0.320000   -4.276893   22.306351
 0.325000   -4.166460   21.755215
 0.330000   -4.059340   21.056481
 0.335000   -3.955895   20.642677
 0.340000   -3.852914   20.508812
 0.345000   -3.750807   20.375316
 0.350000   -3.649160   20.323414
 0.355000   -3.547573   20.205642
 0.360000   -3.447104   20.005973
 0.365000   -3.347513   20.399867
 0.370000   -3.243105   21.253551
 0.375000   -3.134978   22.100169
 0.380000   -3.022104   23.083607
 0.385000   -2.904141   24.134254
 0.390000   -2.780761   25.435042
 0.395000   -2.649791   26.139539
 0.400000   -2.519366   26.031796
 0.405000   -2.389473   25.749061
 0.410000   -2.261875   25.102736
 0.415000   -2.138446   24.144119
 0.420000   -2.020434   23.168021
 0.425000   -1.906766   21.173905
 0.430000   -1.808695   18.792462
 0.435000   -1.718841   17.215976
 0.440000   -1.636535   15.753811
 0.445000   -1.561303   14.369285
 0.450000   -1.492842   13.175140
 0.455000   -1.429551   11.658020
 0.460000   -1.376262   9.947552
 0.465000   -1.330076   8.504749
 0.470000   -1.291215   7.035770
 0.475000   -1.259718   5.581996
 0.480000   -1.235395   4.089144
 0.485000   -1.218827   3.137868
 0.490000   -1.204016   2.735534
 0.495000   -1.191471   2.249656
 0.500000   -1.181519   1.700544
 0.505000   -1.174466   1.080914
 0.510000   -1.170710   0.420722
 0.515000   -1.170259   -0.271932
 0.520000   -1.173430   -0.974803
 0.525000   -1.180007   -1.625708
 0.530000   -1.189687   -2.225343
 0.535000   -1.202260   -2.787161
 0.540000   -1.217558   -3.222886
 0.545000   -1.234489   -3.690168
 0.550000   -1.254460   -4.302555
 0.555000   -1.277515   -4.887078
 0.560000   -1.303331   -5.446962
 0.565000   -1.331984   -6.025953
 0.570000   -1.363590   -6.591226
 0.575000   -1.397896   -7.227412
 0.580000   -1.435864   -7.916169
 0.585000   -1.477058   -8.496076
 0.590000   -1.520825   -8.979966
 0.595000   -1.566858   -9.404745
 0.600000   -1.614873   -9.803761
 0.605000   -1.664895   -10.183949
 0.610000   -1.716712   -10.469183
 0.615000   -1.769587   -10.682102
 0.620000   -1.823533   -10.877447
 0.625000   -1.878362   -11.034894
 0.630000   -1.933882   -11.219050
 0.635000   -1.990552   -11.409566
 0.640000   -2.047978   -11.376084
 0.645000   -2.104313   -11.257383
 0.650000   -2.160552   -11.278152
 0.655000   -2.217095   -11.385033
 0.660000   -2.274402   -11.694876
 0.665000   -2.334043   -12.469786
 0.670000   -2.399100   -13.472078
 0.675000   -2.468764   -14.886580
 0.680000   -2.547966   -16.870825
 0.685000   -2.637472   -18.917180
 0.690000   -2.737137   -21.156499
 0.695000   -2.849037   -24.254484
 0.700000   -2.979682   -25.084537
 0.705000   -3.099883   -24.008172
 0.710000   -3.219764   -23.678053
 0.715000   -3.336663   -22.760569
 0.720000   -3.447370   -21.252325
 0.725000   -3.549187   -19.431429
 0.730000   -3.641684   -14.946669
 0.735000   -3.698653   -8.912908
 0.740000   -3.730813   -3.794082
 0.745000   -3.736594   1.543841
 0.750000   -3.715375   6.886293
 0.755000   -3.667731   13.297078
 0.760000   -3.582404   18.267212
 0.765000   -3.485059   20.797643
 0.770000   -3.374427   23.095939
 0.775000   -3.254100   24.667314
 0.780000   -3.127754   25.519961
 0.785000   -2.998900   26.713193
 0.790000   -2.860622   25.847985
 0.795000   -2.740420   22.993370
 0.800000   -2.630689   20.846742
 0.805000   -2.531953   18.572940
 0.810000   -2.444959   16.261612
 0.815000   -2.369337   14.119086
 0.820000   -2.303768   12.540084
 0.825000   -2.243936   11.599100
 0.830000   -2.187777   10.882712
 0.835000   -2.135109   10.168858
 0.840000   -2.086089   9.370405
 0.845000   -2.041405   7.871412
 0.850000   -2.007375   5.885797
 0.855000   -1.982547   4.178652
 0.860000   -1.965588   2.395869
 0.865000   -1.958588   0.365752
 0.870000   -1.961931   -1.737335
 0.875000   -1.975961   -4.749647
 0.880000   -2.009427   -7.823282
 0.885000   -2.054194   -9.795625
 0.890000   -2.107383   -12.651208
 0.895000   -2.180706   -17.443591
 0.900000   -2.281819   -24.003845
 0.905000   -2.420745   -34.750397
 0.910000   -2.629323   -50.131333
 0.915000   -2.922058   -66.303008
 0.920000   -3.292353   -86.969024
 0.925000   -3.791748   -118.271369
 0.930000   -4.475067   -162.964064
 0.935000   -5.421389   -230.668372
 0.940000   -6.781751   -326.490558
 0.945000   -8.686294   -428.677857
 0.950000   -11.068529   -528.873339
 0.955000   -13.975028   -618.838302
 0.960000   -17.256912   -661.386269
 0.965000   -20.588891   -627.525374
 0.970000   -23.532166   -490.241371
 0.975000   -25.491304   -228.654156
 0.980000   -25.818708   90.134733
 0.985000   -24.589957   376.093043
 0.990000   -22.057777   586.541547
 0.995000   -18.724541   686.829182
 1.000000   -15.189485   727.193261
201 psinorm omgeb(kRad/s) domgeb/dpsiN
 0.000000   62.923786   128.025974
 0.005000   63.381126   54.909995
 0.010000   63.472886   14.265421
 0.015000   63.523780   8.321003
 0.020000   63.556096   5.216138
 0.025000   63.575942   2.815372
 0.030000   63.584250   0.469410
 0.035000   63.580636   -1.550643
 0.040000   63.568743   -3.099365
 0.045000   63.549642   -4.430150
 0.050000   63.524442   -5.267643
 0.055000   63.496966   -5.345913
 0.060000   63.470983   -4.967472
 0.065000   63.447291   -4.419243
 0.070000   63.426790   -3.794899
 0.075000   63.409342   -3.306073
 0.080000   63.393730   -3.106627
 0.085000   63.378276   -3.284569
 0.090000   63.360884   -4.057890
 0.095000   63.337697   -5.306762
 0.100000   63.307816   -6.662010
 0.105000   63.271077   -8.124659
 0.110000   63.226570   -9.497266
 0.115000   63.176104   -10.831134
 0.120000   63.118258   -11.935878
 0.125000   63.056745   -12.703138
 0.130000   62.991227   -13.268649
 0.135000   62.924059   -13.679208
 0.140000   62.854435   -13.858922
 0.145000   62.785470   -13.879557
 0.150000   62.715639   -13.789031
 0.155000   62.647579   -13.754456
 0.160000   62.578095   -13.950352
 0.165000   62.508076   -14.250694
 0.170000   62.435588   -14.846311
 0.175000   62.359613   -15.424309
 0.180000   62.281345   -16.609226
 0.185000   62.193520   -18.292880
 0.190000   62.098416   -20.190517
 0.195000   61.991615   -22.503454
 0.200000   61.873381   -24.943184
 0.205000   61.742183   -27.637849
 0.210000   61.597003   -30.030390
 0.215000   61.441879   -31.926813
 0.220000   61.277735   -33.458687
 0.225000   61.107293   -34.677507
 0.230000   60.930960   -35.928556
 0.235000   60.748007   -37.420504
 0.240000   60.556755   -38.410801
 0.245000   60.363899   -38.535506
 0.250000   60.171400   -38.476266
 0.255000   59.979136   -38.505128
 0.260000   59.786348   -38.639571
 0.265000   59.592741   -38.890945
 0.270000   59.397439   -39.080018
 0.275000   59.201940   -39.149117
 0.280000   59.005948   -39.504944
 0.285000   58.806891   -40.268605
 0.290000   58.603262   -41.277142
 0.295000   58.394120   -42.585928
 0.300000   58.177402   -44.501284
 0.305000   57.949107   -47.217242
 0.310000   57.705230   -50.502991
 0.315000   57.444077   -54.046905
 0.320000   57.164761   -57.524960
 0.325000   56.868827   -60.887891
 0.330000   56.555882   -64.030653
 0.335000   56.228521   -66.227202
 0.340000   55.893610   -67.568348
 0.345000   55.552837   -68.448568
 0.350000   55.209124   -68.609156
 0.355000   54.866746   -68.640980
 0.360000   54.522715   -69.041782
 0.365000   54.176328   -69.043869
 0.370000   53.832276   -68.871386
 0.375000   53.487614   -69.097075
 0.380000   53.141305   -69.717142
 0.385000   52.790443   -70.602249
 0.390000   52.435283   -71.080292
 0.395000   52.079640   -71.834423
 0.400000   51.716938   -73.164293
 0.405000   51.347997   -74.656172
 0.410000   50.970377   -77.403255
 0.415000   50.573964   -81.813490
 0.420000   50.152242   -87.359869
 0.425000   49.700365   -95.020318
 0.430000   49.202039   -104.009974
 0.435000   48.660266   -113.155163
 0.440000   48.070487   -123.020923
 0.445000   47.430056   -132.163362
 0.450000   46.748853   -139.565935
 0.455000   46.034397   -145.946853
 0.460000   45.289385   -150.940628
 0.465000   44.524991   -153.986355
 0.470000   43.749521   -154.673125
 0.475000   42.978260   -152.729989
 0.480000   42.222221   -149.204791
 0.485000   41.486212   -144.035193
 0.490000   40.781869   -137.504406
 0.495000   40.111168   -130.520850
 0.500000   39.476661   -123.472553
 0.505000   38.876442   -117.271085
 0.510000   38.303950   -112.228619
 0.515000   37.754156   -108.265786
 0.520000   37.221292   -105.169305
 0.525000   36.702463   -102.609790
 0.530000   36.195194   -100.393674
 0.535000   35.698526   -98.195642
 0.540000   35.213238   -95.755043
 0.545000   34.740976   -93.281845
 0.550000   34.280419   -90.964230
 0.555000   33.831333   -88.560425
 0.560000   33.394815   -85.974955
 0.565000   32.971584   -83.454229
 0.570000   32.560273   -81.017429
 0.575000   32.161410   -78.636322
 0.580000   31.773910   -76.413037
 0.585000   31.397279   -74.281556
 0.590000   31.031094   -72.190575
 0.595000   30.675373   -70.118158
 0.600000   30.329913   -68.164112
 0.605000   29.993732   -66.296615
 0.610000   29.666946   -64.393713
 0.615000   29.349795   -62.541142
 0.620000   29.041535   -60.812204
 0.625000   28.741673   -59.181123
 0.630000   28.449724   -57.742427
 0.635000   28.164249   -56.516714
 0.640000   27.884557   -55.243267
 0.645000   27.611816   -54.026956
 0.650000   27.344287   -53.070850
 0.655000   27.081108   -52.485785
 0.660000   26.819429   -52.509159
 0.665000   26.556016   -53.347373
 0.670000   26.285955   -54.778381
 0.675000   26.008232   -57.006674
 0.680000   25.715889   -60.189673
 0.685000   25.406336   -63.618245
 0.690000   25.079706   -67.200100
 0.695000   24.734335   -71.570622
 0.700000   24.364000   -73.622889
 0.705000   23.998106   -73.763853
 0.710000   23.626362   -74.763792
 0.715000   23.250468   -75.277816
 0.720000   22.873583   -75.233852
 0.725000   22.498129   -74.960897
 0.730000   22.123974   -72.120724
 0.735000   21.776922   -67.802561
 0.740000   21.445949   -64.477452
 0.745000   21.132147   -61.197832
 0.750000   20.833970   -58.399654
 0.755000   20.548151   -55.071928
 0.760000   20.283251   -53.710456
 0.765000   20.011046   -55.226986
 0.770000   19.730981   -57.427865
 0.775000   19.436768   -60.661498
 0.780000   19.124366   -64.197116
 0.785000   18.794797   -66.633139
 0.790000   18.458035   -70.397848
 0.795000   18.090818   -75.346823
 0.800000   17.704567   -78.847951
 0.805000   17.302339   -81.816395
 0.810000   16.886403   -84.123854
 0.815000   16.461100   -85.602149
 0.820000   16.030381   -86.027271
 0.825000   15.600827   -85.281188
 0.830000   15.177569   -83.743435
 0.835000   14.763393   -81.754448
 0.840000   14.360025   -79.415858
 0.845000   13.969234   -77.559549
 0.850000   13.584429   -76.459484
 0.855000   13.204640   -75.793651
 0.860000   12.826493   -76.413381
 0.865000   12.440506   -79.084155
 0.870000   12.035651   -83.782968
 0.875000   11.602676   -91.810627
 0.880000   11.117545   -103.277924
 0.885000   10.569897   -117.544224
 0.890000   9.942103   -137.131553
 0.895000   9.198581   -164.129162
 0.900000   8.300811   -197.794895
 0.905000   7.220632   -239.304696
 0.910000   5.907764   -288.181086
 0.915000   4.338822   -338.212620
 0.920000   2.525638   -390.000778
 0.925000   0.438814   -446.057363
 0.930000   -1.934936   -504.416390
 0.935000   -4.605350   -570.398928
 0.940000   -7.638925   -647.821776
 0.945000   -11.083568   -713.987769
 0.950000   -14.778803   -759.244064
 0.955000   -18.676009   -771.427616
 0.960000   -22.493079   -716.827891
 0.965000   -25.844287   -566.572350
 0.970000   -28.158802   -288.178503
 0.975000   -28.726073   132.327598
 0.980000   -26.835526   608.842679
 0.985000   -22.637646   1010.141329
 0.990000   -16.734113   1242.072665
 0.995000   -10.216919   1241.876298
 1.000000   -4.315350   1118.751361
201 psinorm er(kV/m) der/dpsiN
 0.000000   0.948081   1094.413840
 0.005000   5.364352   672.094718
 0.010000   7.669028   409.049995
 0.015000   9.454852   327.562253
 0.020000   10.944651   281.187577
 0.025000   12.266728   251.881218
 0.030000   13.463463   229.348790
 0.035000   14.560216   211.409534
 0.040000   15.577558   196.787856
 0.045000   16.528094   184.701034
 0.050000   17.424568   175.411304
 0.055000   18.282208   166.938933
 0.060000   19.093958   158.191618
 0.065000   19.864124   151.079685
 0.070000   20.604755   146.794552
 0.075000   21.332069   141.042135
 0.080000   22.015176   134.920848
 0.085000   22.681278   132.291227
 0.090000   23.338088   125.517450
 0.095000   23.936452   121.871332
 0.100000   24.556802   118.411695
 0.105000   25.120569   113.436320
 0.110000   25.691165   110.184082
 0.115000   26.222410   105.553061
 0.120000   26.746695   102.640741
 0.125000   27.248817   99.026828
 0.130000   27.736964   96.016044
 0.135000   28.208978   93.511079
 0.140000   28.672074   90.214601
 0.145000   29.111124   88.542180
 0.150000   29.557496   85.138022
 0.155000   29.962504   84.208057
 0.160000   30.399577   80.391338
 0.165000   30.766417   79.321478
 0.170000   31.192792   76.364835
 0.175000   31.530066   72.937499
 0.180000   31.922167   73.725187
 0.185000   32.267318   67.541846
 0.190000   32.597585   67.800433
 0.195000   32.945322   61.657241
 0.200000   33.214157   59.249052
 0.205000   33.537812   58.096090
 0.210000   33.795118   51.776699
 0.215000   34.055579   53.184072
 0.220000   34.326959   46.588808
 0.225000   34.521468   44.585685
 0.230000   34.772816   45.855741
 0.235000   34.980025   39.027199
 0.240000   35.163088   40.110144
 0.245000   35.381126   36.760333
 0.250000   35.530691   33.445554
 0.255000   35.715582   37.285591
 0.260000   35.903547   30.816983
 0.265000   36.023752   29.304362
 0.270000   36.196591   32.397454
 0.275000   36.347726   26.209453
 0.280000   36.458685   25.980697
 0.285000   36.607533   26.604238
 0.290000   36.724728   20.917178
 0.295000   36.816705   20.860821
 0.300000   36.933336   19.393437
 0.305000   37.010639   13.413202
 0.310000   37.067468   12.416694
 0.315000   37.134806   9.144887
 0.320000   37.158917   3.133043
 0.325000   37.166137   2.008560
 0.330000   37.179002   -1.169297
 0.335000   37.154444   -6.149469
 0.340000   37.117508   -6.286659
 0.345000   37.091577   -7.600925
 0.350000   37.041498   -11.162580
 0.355000   36.979951   -10.914515
 0.360000   36.932353   -11.280415
 0.365000   36.867147   -14.656058
 0.370000   36.785793   -14.775157
 0.375000   36.719396   -14.388317
 0.380000   36.641910   -18.081154
 0.385000   36.538584   -19.437338
 0.390000   36.447536   -18.679605
 0.395000   36.351788   -22.307220
 0.400000   36.224464   -24.458526
 0.405000   36.107203   -24.305693
 0.410000   35.981407   -28.570183
 0.415000   35.821501   -33.302237
 0.420000   35.648385   -36.756118
 0.425000   35.453940   -43.360323
 0.430000   35.214781   -51.715499
 0.435000   34.936785   -58.740535
 0.440000   34.627376   -66.149910
 0.445000   34.275286   -74.759291
 0.450000   33.879783   -81.169285
 0.455000   33.463593   -85.779930
 0.460000   33.021984   -91.249742
 0.465000   32.551096   -94.851365
 0.470000   32.073470   -95.472715
 0.475000   31.596368   -95.112867
 0.480000   31.122342   -94.066043
 0.485000   30.655708   -90.903976
 0.490000   30.213302   -86.363304
 0.495000   29.792075   -82.639957
 0.500000   29.386902   -78.264314
 0.505000   29.009432   -73.618545
 0.510000   28.650717   -70.857937
 0.515000   28.300852   -68.904990
 0.520000   27.961667   -66.770190
 0.525000   27.633150   -65.174556
 0.530000   27.309921   -64.609089
 0.535000   26.987060   -63.475116
 0.540000   26.675170   -61.521932
 0.545000   26.371840   -60.545600
 0.550000   26.069714   -59.522398
 0.555000   25.776616   -57.654842
 0.560000   25.493166   -55.983330
 0.565000   25.216783   -54.974737
 0.570000   24.943418   -53.424674
 0.575000   24.682536   -51.392717
 0.580000   24.429491   -50.468613
 0.585000   24.177850   -49.406443
 0.590000   23.935427   -47.608941
 0.595000   23.701761   -46.184058
 0.600000   23.473586   -45.521473
 0.605000   23.246546   -44.256828
 0.610000   23.031018   -42.417278
 0.615000   22.822373   -41.649362
 0.620000   22.614524   -40.845154
 0.625000   22.413922   -39.308056
 0.630000   22.221444   -38.117255
 0.635000   22.032749   -38.093157
 0.640000   21.840512   -37.260136
 0.645000   21.660148   -35.707169
 0.650000   21.483441   -35.478898
 0.655000   21.305359   -35.678751
 0.660000   21.126653   -35.466570
 0.665000   20.950693   -35.756681
 0.670000   20.769086   -37.841618
 0.675000   20.572277   -39.917134
 0.680000   20.369915   -41.756613
 0.685000   20.154711   -44.686615
 0.690000   19.923049   -48.529166
 0.695000   19.669419   -51.958630
 0.700000   19.403462   -52.880447
 0.705000   19.140615   -53.796048
 0.710000   18.865502   -55.331870
 0.715000   18.587296   -55.250420
 0.720000   18.312998   -54.796509
 0.725000   18.039331   -55.939723
 0.730000   17.753600   -53.992958
 0.735000   17.499401   -49.468264
 0.740000   17.258918   -47.064265
 0.745000   17.028759   -45.686330
 0.750000   16.802055   -43.316039
 0.755000   16.595598   -39.668674
 0.760000   16.405368   -39.342717
 0.765000   16.202171   -41.386090
 0.770000   15.991507   -42.709634
 0.775000   15.775075   -44.836733
 0.780000   15.543140   -48.713649
 0.785000   15.287938   -51.139299
 0.790000   15.031747   -53.567384
 0.795000   14.752264   -57.564066
 0.800000   14.456106   -61.488350
 0.805000   14.137381   -64.108338
 0.810000   13.815023   -65.328904
 0.815000   13.484092   -66.925203
 0.820000   13.145771   -68.055592
 0.825000   12.803536   -67.472639
 0.830000   12.471044   -65.831613
 0.835000   12.145220   -64.678562
 0.840000   11.824259   -63.318716
 0.845000   11.512033   -61.687425
 0.850000   11.207384   -60.579948
 0.855000   10.906233   -60.588326
 0.860000   10.601501   -61.489087
 0.865000   10.291342   -63.485582
 0.870000   9.966645   -67.327210
 0.875000   9.618070   -74.629643
 0.880000   9.220349   -84.429406
 0.885000   8.773776   -95.987026
 0.890000   8.260478   -112.399394
 0.895000   7.649782   -135.557631
 0.900000   6.904902   -163.837014
 0.905000   6.011412   -198.181247
 0.910000   4.923090   -239.266466
 0.915000   3.618747   -281.737391
 0.920000   2.105716   -325.141957
 0.925000   0.367328   -371.769608
 0.930000   -1.611980   -421.103187
 0.935000   -3.843704   -477.068357
 0.940000   -6.382664   -542.071091
 0.945000   -9.264415   -597.337012
 0.950000   -12.356034   -644.356029
 0.955000   -15.707975   -667.139555
 0.960000   -19.027430   -619.391919
 0.965000   -21.901894   -487.093991
 0.970000   -23.898369   -299.345883
 0.975000   -24.895353   39.591555
 0.980000   -23.502454   501.967544
 0.985000   -19.875678   876.787480
 0.990000   -14.734579   1089.820999
 0.995000   -8.977468   1092.654686
 1.000000   -3.808032   975.119567
201 psinorm ommvb() dommvb/dpsiN
 0.000000   -13.896146   18801.086674
 0.005000   64.907700   12720.451938
 0.010000   113.308373   10476.888560
 0.015000   169.676586   10544.372675
 0.020000   218.752100   8766.951448
 0.025000   257.346101   7023.080883
 0.030000   288.982909   5874.361367
 0.035000   316.089714   5250.162508
 0.040000   341.484534   4748.123913
 0.045000   363.570953   4335.906589
 0.050000   384.843600   3876.618152
 0.055000   402.337135   3300.296431
 0.060000   417.846564   2804.544836
 0.065000   430.382583   2430.081184
 0.070000   442.147376   2116.988972
 0.075000   451.552473   1760.275238
 0.080000   459.750128   1506.648428
 0.085000   466.618957   1258.591325
 0.090000   472.336042   1044.398913
 0.095000   477.062946   837.831767
 0.100000   480.714359   600.262850
 0.105000   483.065575   368.589058
 0.110000   484.400250   212.122165
 0.115000   485.186796   84.994178
 0.120000   485.250192   -69.946842
 0.125000   484.487328   -223.083262
 0.130000   483.019359   -355.486320
 0.135000   480.932465   -519.975786
 0.140000   477.819601   -683.143707
 0.145000   474.101028   -758.489457
 0.150000   470.234707   -807.816855
 0.155000   466.022859   -885.025665
 0.160000   461.384450   -965.954869
 0.165000   456.363311   -1033.428531
 0.170000   451.050165   -1087.661111
 0.175000   445.486699   -1114.249479
 0.180000   439.907670   -1092.942962
 0.185000   434.557270   -1156.088079
 0.190000   428.346789   -1352.348326
 0.195000   421.033787   -1447.440247
 0.200000   413.872387   -1370.744352
 0.205000   407.326343   -1309.121474
 0.210000   400.781172   -1305.992991
 0.215000   394.266413   -1302.948813
 0.220000   387.751684   -1308.740580
 0.225000   381.179007   -1334.746510
 0.230000   374.404219   -1490.174921
 0.235000   366.277258   -1453.085409
 0.240000   359.873365   -1224.158337
 0.245000   354.035675   -1151.328279
 0.250000   348.360082   -1120.750806
 0.255000   342.828167   -1088.882862
 0.260000   337.471253   -1249.603046
 0.265000   330.332136   -1232.354940
 0.270000   325.147704   -963.557443
 0.275000   320.696562   -876.395901
 0.280000   316.383745   -855.745633
 0.285000   312.139105   -960.399194
 0.290000   306.779753   -1006.346701
 0.295000   302.075638   -828.721151
 0.300000   298.492541   -702.409814
 0.305000   295.051540   -673.736866
 0.310000   291.755173   -771.480293
 0.315000   287.336737   -771.782181
 0.320000   284.037351   -589.750600
 0.325000   281.439231   -511.177447
 0.330000   278.925576   -512.304019
 0.335000   276.316191   -605.250143
 0.340000   272.873075   -528.473590
 0.345000   271.031455   -355.868480
 0.350000   269.314390   -331.268482
 0.355000   267.718770   -387.713013
 0.360000   265.437260   -389.234529
 0.365000   263.826425   -268.848152
 0.370000   262.748778   -207.232774
 0.375000   261.754097   -225.010754
 0.380000   260.498671   -260.993409
 0.385000   259.144163   -190.012844
 0.390000   258.598542   -103.847160
 0.395000   258.105692   -105.559057
 0.400000   257.542952   -166.169659
 0.405000   256.443995   -138.553397
 0.410000   256.157418   -56.554791
 0.415000   255.878447   -55.811964
 0.420000   255.599298   -135.782167
 0.425000   254.520626   -146.734922
 0.430000   254.131949   -80.910719
 0.435000   253.711518   -91.267294
 0.440000   253.219276   -168.528682
 0.445000   252.026232   -192.691670
 0.450000   251.292359   -136.010279
 0.455000   250.666129   -128.964066
 0.460000   250.002719   -185.998044
 0.465000   248.806148   -202.379310
 0.470000   247.978926   -135.358464
 0.475000   247.452564   -100.613606
 0.480000   246.972790   -129.177869
 0.485000   246.160785   -135.575563
 0.490000   245.617034   -66.085352
 0.495000   245.499932   -13.801627
 0.500000   245.479018   -15.673673
 0.505000   245.343195   -20.157872
 0.510000   245.277439   27.280464
 0.515000   245.615999   73.834310
 0.520000   246.015782   76.015604
 0.525000   246.376155   65.419196
 0.530000   246.669974   94.498288
 0.535000   247.321138   135.063986
 0.540000   248.020614   144.903740
 0.545000   248.770176   128.204855
 0.550000   249.302662   152.655842
 0.555000   250.296734   204.945982
 0.560000   251.352122   217.035717
 0.565000   252.467091   208.979443
 0.570000   253.441917   222.270584
 0.575000   254.689797   263.267719
 0.580000   256.074594   284.471695
 0.585000   257.534514   296.115513
 0.590000   259.035749   316.477702
 0.595000   260.699291   344.297425
 0.600000   262.478723   365.599025
 0.605000   264.355281   388.151444
 0.610000   266.360238   427.540080
 0.615000   268.630682   470.995042
 0.620000   271.070188   495.888017
 0.625000   273.589562   515.803747
 0.630000   276.228226   548.023656
 0.635000   279.069799   591.084579
 0.640000   282.139071   621.053086
 0.645000   285.280330   642.849536
 0.650000   288.567567   672.570733
 0.655000   292.006037   712.362433
 0.660000   295.691191   752.764141
 0.665000   299.533679   774.077378
 0.670000   303.431965   793.824574
 0.675000   307.471924   825.126960
 0.680000   311.683234   886.481935
 0.685000   316.336744   929.326688
 0.690000   320.976501   938.336665
 0.695000   325.720110   967.015273
 0.700000   330.646654   1007.178916
 0.705000   335.791899   1056.833385
 0.710000   341.214988   1117.873818
 0.715000   346.970638   1154.913417
 0.720000   352.764122   1183.329632
 0.725000   358.803934   1231.987482
 0.730000   365.083997   1281.763156
 0.735000   371.621566   1346.656283
 0.740000   378.550560   1401.444736
 0.745000   385.636013   1440.617600
 0.750000   392.956736   1491.247767
 0.755000   400.548491   1545.377188
 0.760000   408.410508   1595.018508
 0.765000   416.498676   1629.457881
 0.770000   424.705086   1669.450892
 0.775000   433.193185   1729.580788
 0.780000   442.000894   1796.410756
 0.785000   451.157292   1867.625870
 0.790000   460.677153   1939.265127
 0.795000   470.549943   2014.930090
 0.800000   480.826454   2073.526254
 0.805000   491.285206   2142.139273
 0.810000   502.247847   2257.537711
 0.815000   513.860583   2380.438391
 0.820000   526.052231   2501.250539
 0.825000   538.873088   2628.739699
 0.830000   552.339628   2760.347298
 0.835000   566.476561   2899.429534
 0.840000   581.333923   3026.381729
 0.845000   596.740379   3111.201619
 0.850000   612.445939   3265.757473
 0.855000   629.397953   3464.195421
 0.860000   647.087893   3614.194053
 0.865000   665.539894   3778.728839
 0.870000   684.875182   3963.442461
 0.875000   705.174319   4161.120555
 0.880000   726.486387   4369.843538
 0.885000   748.872754   4586.463681
 0.890000   772.351024   4815.734063
 0.895000   797.030095   5077.687070
 0.900000   823.127895   5402.566401
 0.905000   851.055759   5822.755874
 0.910000   881.355453   6404.897897
 0.915000   915.104738   7527.507802
 0.920000   956.630532   9791.162705
 0.925000   1013.016365   13379.709039
 0.930000   1090.427622   18514.963425
 0.935000   1198.165999   25988.071920
 0.940000   1350.308341   36709.863741
 0.945000   1565.264636   51224.506291
 0.950000   1862.553404   66964.217348
 0.955000   2234.906810   73521.814384
 0.960000   2597.771548   65448.504565
 0.965000   2889.391855   60757.707180
 0.970000   3205.348620   85269.919158
 0.975000   3742.091047   115670.085405
 0.980000   4362.049474   105420.015536
 0.985000   4796.291202   70399.669590
 0.990000   5066.046170   29277.357613
 0.995000   5089.064778   210388.106463
 1.000000   7169.927234   621956.875849
201 psinorm ommpp() dommpp/dpsiN
 0.000000   76.819932   -18673.060700
 0.005000   -1.526574   -12665.541943
 0.010000   -49.835487   -10462.623139
 0.015000   -106.152806   -10536.051672
 0.020000   -155.196004   -8761.735309
 0.025000   -193.770159   -7020.265511
 0.030000   -225.398659   -5873.891957
 0.035000   -252.509078   -5251.713151
 0.040000   -277.915791   -4751.223278
 0.045000   -300.021311   -4340.336739
 0.050000   -321.319158   -3881.885795
 0.055000   -338.840169   -3305.642344
 0.060000   -354.375581   -2809.512309
 0.065000   -366.935292   -2434.500428
 0.070000   -378.720586   -2120.783871
 0.075000   -388.143131   -1763.581310
 0.080000   -396.356399   -1509.755055
 0.085000   -403.240682   -1261.875894
 0.090000   -408.975158   -1048.456803
 0.095000   -413.725250   -843.138529
 0.100000   -417.406543   -606.924860
 0.105000   -419.794498   -376.713717
 0.110000   -421.173680   -221.619432
 0.115000   -422.010692   -95.825313
 0.120000   -422.131933   58.010963
 0.125000   -421.430583   210.380125
 0.130000   -420.028132   342.217671
 0.135000   -418.008406   506.296578
 0.140000   -414.965166   669.284785
 0.145000   -411.315558   744.609900
 0.150000   -407.519067   794.027824
 0.155000   -403.375280   871.271209
 0.160000   -398.806355   952.004517
 0.165000   -393.855235   1019.177837
 0.170000   -388.614577   1072.814800
 0.175000   -383.127087   1098.825170
 0.180000   -377.626325   1076.333736
 0.185000   -372.363750   1137.795199
 0.190000   -366.248373   1332.157809
 0.195000   -359.042171   1424.936793
 0.200000   -351.999005   1345.801169
 0.205000   -345.584160   1281.483625
 0.210000   -339.184169   1275.962601
 0.215000   -332.824534   1271.022000
 0.220000   -326.473949   1275.281893
 0.225000   -320.071715   1300.069002
 0.230000   -313.473259   1454.246365
 0.235000   -305.529251   1415.664905
 0.240000   -299.316610   1185.747536
 0.245000   -293.671776   1112.792774
 0.250000   -288.188682   1082.274540
 0.255000   -282.849030   1050.377735
 0.260000   -277.684905   1210.963476
 0.265000   -270.739396   1193.463995
 0.270000   -265.750265   924.477426
 0.275000   -261.494621   837.246784
 0.280000   -257.377797   816.240688
 0.285000   -253.332214   920.130589
 0.290000   -248.176491   965.069559
 0.295000   -243.681519   786.135223
 0.300000   -240.315139   657.908530
 0.305000   -237.102434   626.519623
 0.310000   -234.049943   720.977301
 0.315000   -229.892661   717.735276
 0.320000   -226.872590   532.225641
 0.325000   -224.570404   450.289557
 0.330000   -222.369694   448.273366
 0.335000   -220.087671   539.022941
 0.340000   -216.979465   460.905242
 0.345000   -215.478618   287.419912
 0.350000   -214.105266   262.659326
 0.355000   -212.852025   319.072033
 0.360000   -210.914545   320.192747
 0.365000   -209.650097   199.804283
 0.370000   -208.916503   138.361388
 0.375000   -208.266483   155.913679
 0.380000   -207.357366   191.276267
 0.385000   -206.353721   119.410595
 0.390000   -206.163260   32.766868
 0.395000   -206.026052   33.724634
 0.400000   -205.826014   93.005366
 0.405000   -205.095998   63.897225
 0.410000   -205.187041   -20.848464
 0.415000   -205.304483   -26.001526
 0.420000   -205.447057   48.422299
 0.425000   -204.820260   51.714604
 0.430000   -204.929911   -23.099255
 0.435000   -205.051253   -21.887869
 0.440000   -205.148789   45.507759
 0.445000   -204.596175   60.528308
 0.450000   -204.543506   -3.555656
 0.455000   -204.631732   -16.982787
 0.460000   -204.713334   35.057416
 0.465000   -204.281158   48.392955
 0.470000   -204.229404   -19.314661
 0.475000   -204.474304   -52.116383
 0.480000   -204.750568   -20.026922
 0.485000   -204.674573   -8.459630
 0.490000   -204.835165   -71.419054
 0.495000   -205.388764   -116.719223
 0.500000   -206.002357   -107.798880
 0.505000   -206.466753   -97.113213
 0.510000   -206.973489   -139.509083
 0.515000   -207.861843   -182.100096
 0.520000   -208.794490   -181.184909
 0.525000   -209.673693   -168.028986
 0.530000   -210.474780   -194.891962
 0.535000   -211.622612   -233.259628
 0.540000   -212.807376   -240.658784
 0.545000   -214.029200   -221.486700
 0.550000   -215.022243   -243.620072
 0.555000   -216.465401   -293.506407
 0.560000   -217.957307   -303.010672
 0.565000   -219.495507   -292.433672
 0.570000   -220.881644   -303.288014
 0.575000   -222.528388   -341.904041
 0.580000   -224.300684   -360.884733
 0.585000   -226.137235   -370.397069
 0.590000   -228.004655   -388.668278
 0.595000   -230.023918   -414.415584
 0.600000   -232.148811   -433.763137
 0.605000   -234.361549   -454.448059
 0.610000   -236.693291   -491.933793
 0.615000   -239.280887   -533.536183
 0.620000   -242.028653   -556.700221
 0.625000   -244.847889   -574.984870
 0.630000   -247.778502   -605.766084
 0.635000   -250.905550   -647.601293
 0.640000   -254.254515   -676.296353
 0.645000   -257.668514   -696.876492
 0.650000   -261.223280   -725.641583
 0.655000   -264.924929   -764.848218
 0.660000   -268.871762   -805.273300
 0.665000   -272.977662   -827.424751
 0.670000   -277.146009   -848.602956
 0.675000   -281.463692   -882.133634
 0.680000   -285.967346   -946.671608
 0.685000   -290.930408   -992.944933
 0.690000   -295.896795   -1005.536765
 0.695000   -300.985776   -1038.585895
 0.700000   -306.282654   -1080.801805
 0.705000   -311.793794   -1130.597238
 0.710000   -317.588626   -1192.637610
 0.715000   -323.720170   -1230.191234
 0.720000   -329.890539   -1258.563484
 0.725000   -336.305805   -1306.948379
 0.730000   -342.960023   -1353.883880
 0.735000   -349.844644   -1414.458844
 0.740000   -357.104611   -1465.922188
 0.745000   -364.503865   -1501.815432
 0.750000   -372.122765   -1549.647421
 0.755000   -380.000340   -1600.449116
 0.760000   -388.127256   -1648.728964
 0.765000   -396.487629   -1684.684867
 0.770000   -404.974105   -1726.878757
 0.775000   -413.756417   -1790.242286
 0.780000   -422.876528   -1860.607872
 0.785000   -432.362496   -1934.259009
 0.790000   -442.219118   -2009.662975
 0.795000   -452.459125   -2090.276913
 0.800000   -463.121887   -2152.374205
 0.805000   -473.982867   -2223.955668
 0.810000   -485.361444   -2341.661564
 0.815000   -497.399483   -2466.040540
 0.820000   -510.021849   -2587.277810
 0.825000   -523.272261   -2714.020887
 0.830000   -537.162058   -2844.090733
 0.835000   -551.713168   -2981.183982
 0.840000   -566.973898   -3105.797587
 0.845000   -582.771144   -3188.761168
 0.850000   -598.861510   -3342.216957
 0.855000   -616.193314   -3539.989072
 0.860000   -634.261400   -3690.607434
 0.865000   -653.099388   -3857.812993
 0.870000   -672.839530   -4047.225429
 0.875000   -693.571642   -4252.931182
 0.880000   -715.368842   -4473.121461
 0.885000   -738.302857   -4704.007906
 0.890000   -762.408921   -4952.865615
 0.895000   -787.831513   -5241.816232
 0.900000   -814.827084   -5600.361296
 0.905000   -843.835126   -6062.060570
 0.910000   -875.447689   -6693.078983
 0.915000   -910.765916   -7865.720422
 0.920000   -954.104893   -10181.163483
 0.925000   -1012.577551   -13825.766402
 0.930000   -1092.362557   -19019.379815
 0.935000   -1202.771349   -26558.470848
 0.940000   -1357.947266   -37357.685516
 0.945000   -1576.348204   -51938.494060
 0.950000   -1877.332207   -67723.461412
 0.955000   -2253.582818   -74293.242000
 0.960000   -2620.264627   -66165.332456
 0.965000   -2915.236143   -61324.279529
 0.970000   -3233.507422   -85558.097661
 0.975000   -3770.817119   -115537.757807
 0.980000   -4388.885000   -104811.172856
 0.985000   -4818.928848   -69389.528261
 0.990000   -5082.780282   -28035.284948
 0.995000   -5099.281698   -209146.230165
 1.000000   -7174.242584   -620838.124487
201 psinorm omevb() domevb/dpsiN
 0.000000   40.450307   130.839134
 0.005000   40.924910   59.002189
 0.010000   41.040329   19.097467
 0.015000   41.115885   13.353257
 0.020000   41.173861   10.447667
 0.025000   41.220361   8.245219
 0.030000   41.256313   6.096596
 0.035000   41.281327   4.272880
 0.040000   41.299042   2.919470
 0.045000   41.310522   1.782951
 0.050000   41.316872   1.138654
 0.055000   41.321909   1.252489
 0.060000   41.329397   1.821922
 0.065000   41.340128   2.560010
 0.070000   41.354997   3.373059
 0.075000   41.373858   4.049415
 0.080000   41.395491   4.435194
 0.085000   41.418210   4.442369
 0.090000   41.439914   3.852929
 0.095000   41.456740   2.786683
 0.100000   41.467781   1.612786
 0.105000   41.472867   0.330193
 0.110000   41.471083   -0.863670
 0.115000   41.464231   -2.020126
 0.120000   41.450882   -2.948808
 0.125000   41.434743   -3.541372
 0.130000   41.415468   -3.933574
 0.135000   41.395407   -4.172226
 0.140000   41.373746   -4.181452
 0.145000   41.353592   -4.033036
 0.150000   41.333416   -3.774912
 0.155000   41.315843   -3.574207
 0.160000   41.297674   -3.605458
 0.165000   41.279789   -3.742655
 0.170000   41.260247   -4.176643
 0.175000   41.238022   -4.594542
 0.180000   41.214302   -5.620905
 0.185000   41.181813   -7.147563
 0.190000   41.142826   -8.889777
 0.195000   41.092915   -11.048878
 0.200000   41.032337   -13.336371
 0.205000   40.959552   -15.880413
 0.210000   40.873533   -18.123955
 0.215000   40.778312   -19.873016
 0.220000   40.674803   -21.259179
 0.225000   40.565720   -22.333949
 0.230000   40.451463   -23.442620
 0.235000   40.331294   -24.793873
 0.240000   40.203525   -25.645169
 0.245000   40.074842   -25.632577
 0.250000   39.947199   -25.437755
 0.255000   39.820465   -25.332758
 0.260000   39.693871   -25.335076
 0.265000   39.567114   -25.456067
 0.270000   39.439311   -25.516507
 0.275000   39.311949   -25.458733
 0.280000   39.184723   -25.689454
 0.285000   39.055055   -26.329782
 0.290000   38.921425   -27.216769
 0.295000   38.782887   -28.405794
 0.300000   38.637368   -30.203185
 0.305000   38.480855   -32.802979
 0.310000   38.309338   -35.974372
 0.315000   38.121111   -39.405743
 0.320000   37.915280   -42.773073
 0.325000   37.693381   -46.027103
 0.330000   37.455009   -49.062793
 0.335000   37.202753   -51.154102
 0.340000   36.943468   -52.391845
 0.345000   36.678834   -53.170501
 0.350000   36.411763   -53.231369
 0.355000   36.146521   -53.165320
 0.360000   35.880110   -53.470097
 0.365000   35.611820   -53.378010
 0.370000   35.346330   -53.113208
 0.375000   35.080687   -53.248433
 0.380000   34.813846   -53.779892
 0.385000   34.542889   -54.578248
 0.390000   34.268063   -54.971400
 0.395000   33.993175   -55.642498
 0.400000   33.711638   -56.891193
 0.405000   33.424263   -58.303757
 0.410000   33.128601   -60.973382
 0.415000   32.814529   -65.308017
 0.420000   32.475520   -70.780653
 0.425000   32.106722   -78.369214
 0.430000   31.691828   -87.288834
 0.435000   31.233834   -96.365839
 0.440000   30.728170   -106.165264
 0.445000   30.172181   -115.243213
 0.450000   29.575738   -122.583141
 0.455000   28.946350   -128.903253
 0.460000   28.286705   -133.838060
 0.465000   27.607969   -136.826652
 0.470000   26.918439   -137.458115
 0.475000   26.233388   -135.461497
 0.480000   25.563824   -131.884637
 0.485000   24.914542   -126.665193
 0.490000   24.297172   -120.086370
 0.495000   23.713678   -113.056583
 0.500000   23.166606   -105.963853
 0.505000   22.654040   -99.719746
 0.510000   22.169409   -94.636428
 0.515000   21.707675   -90.634523
 0.520000   21.263063   -87.500744
 0.525000   20.832668   -84.905699
 0.530000   20.414006   -82.655812
 0.535000   20.006110   -80.425761
 0.540000   19.609749   -77.954889
 0.545000   19.226561   -75.453154
 0.550000   18.855217   -73.108730
 0.555000   18.495473   -70.679837
 0.560000   18.148419   -68.070991
 0.565000   17.814764   -65.528592
 0.570000   17.493133   -63.071812
 0.575000   17.184045   -60.672410
 0.580000   16.886409   -58.432506
 0.585000   16.599720   -56.286070
 0.590000   16.323548   -54.181791
 0.595000   16.057902   -52.097721
 0.600000   15.802571   -50.133657
 0.605000   15.556566   -48.257768
 0.610000   15.319993   -46.348087
 0.615000   15.093085   -44.490340
 0.620000   14.875090   -42.757819
 0.625000   14.665507   -41.124736
 0.630000   14.463842   -39.685607
 0.635000   14.268651   -38.461019
 0.640000   14.079232   -37.190244
 0.645000   13.896748   -35.978139
 0.650000   13.719451   -35.027761
 0.655000   13.546471   -34.449935
 0.660000   13.374951   -34.482045
 0.665000   13.201650   -35.330481
 0.670000   13.021647   -36.773183
 0.675000   12.833918   -39.014629
 0.680000   12.631500   -42.212228
 0.685000   12.411796   -45.656834
 0.690000   12.174932   -49.256144
 0.695000   11.919235   -53.645526
 0.700000   11.638477   -55.718047
 0.705000   11.362054   -55.880646
 0.710000   11.079670   -56.903585
 0.715000   10.793018   -57.441961
 0.720000   10.505251   -57.423686
 0.725000   10.218782   -57.177744
 0.730000   9.933473   -54.365892
 0.735000   9.675123   -50.077344
 0.740000   9.432700   -46.783127
 0.745000   9.207291   -43.535661
 0.750000   8.997343   -40.770880
 0.755000   8.799583   -37.477776
 0.760000   8.622565   -36.152130
 0.765000   8.438061   -37.705665
 0.770000   8.245509   -39.944697
 0.775000   8.038614   -43.217594
 0.780000   7.813333   -46.793538
 0.785000   7.570679   -49.270884
 0.790000   7.320624   -53.077823
 0.795000   7.039901   -58.069809
 0.800000   6.739926   -61.614548
 0.805000   6.423755   -64.626946
 0.810000   6.093656   -66.978334
 0.815000   5.753972   -68.499998
 0.820000   5.408656   -68.967167
 0.825000   5.064300   -68.260716
 0.830000   4.726049   -66.758634
 0.835000   4.396714   -64.799185
 0.840000   4.078057   -62.481001
 0.845000   3.771904   -60.631898
 0.850000   3.471739   -59.520476
 0.855000   3.176699   -58.817928
 0.860000   2.883559   -59.367521
 0.865000   2.583024   -61.926249
 0.870000   2.264297   -66.464482
 0.875000   1.918379   -74.283413
 0.880000   1.521463   -85.511849
 0.885000   1.063261   -99.565597
 0.890000   0.525807   -119.100960
 0.895000   -0.127749   -146.492367
 0.900000   -0.939117   -181.567069
 0.905000   -1.943420   -226.595625
 0.910000   -3.205073   -283.153628
 0.915000   -4.774956   -348.819981
 0.920000   -6.693273   -431.131102
 0.925000   -9.086267   -545.250180
 0.930000   -12.145775   -712.360834
 0.935000   -16.209875   -980.503254
 0.940000   -21.950807   -1433.176683
 0.945000   -30.541642   -2196.315381
 0.950000   -43.913961   -3521.996573
 0.955000   -65.761608   -5735.306913
 0.960000   -101.267030   -8615.967466
 0.965000   -151.921283   -9688.229409
 0.970000   -198.149324   -4851.859047
 0.975000   -200.439873   4024.592035
 0.980000   -157.903404   9233.859326
 0.985000   -108.101280   8910.778365
 0.990000   -68.795620   6701.041815
 0.995000   -41.090862   4601.415061
 1.000000   -22.781470   2722.341663
201 psinorm omepp() domepp/dpsiN
 0.000000   22.473479   -2.813160
 0.005000   22.456216   -4.092194
 0.010000   22.432558   -4.832045
 0.015000   22.407896   -5.032254
 0.020000   22.382235   -5.231529
 0.025000   22.355580   -5.429847
 0.030000   22.327937   -5.627186
 0.035000   22.299308   -5.823523
 0.040000   22.269701   -6.018835
 0.045000   22.239120   -6.213100
 0.050000   22.207570   -6.406297
 0.055000   22.175057   -6.598402
 0.060000   22.141586   -6.789395
 0.065000   22.107163   -6.979254
 0.070000   22.071794   -7.167958
 0.075000   22.035484   -7.355488
 0.080000   21.998239   -7.541821
 0.085000   21.960065   -7.726938
 0.090000   21.920969   -7.910819
 0.095000   21.880957   -8.093445
 0.100000   21.840035   -8.274796
 0.105000   21.798209   -8.454852
 0.110000   21.755486   -8.633596
 0.115000   21.711873   -8.811008
 0.120000   21.667376   -8.987070
 0.125000   21.622003   -9.161765
 0.130000   21.575759   -9.335075
 0.135000   21.528652   -9.506982
 0.140000   21.480689   -9.677470
 0.145000   21.431877   -9.846521
 0.150000   21.382224   -10.014119
 0.155000   21.331736   -10.180249
 0.160000   21.280421   -10.344894
 0.165000   21.228287   -10.508038
 0.170000   21.175341   -10.669668
 0.175000   21.121590   -10.829767
 0.180000   21.067043   -10.988322
 0.185000   21.011707   -11.145317
 0.190000   20.955590   -11.300740
 0.195000   20.898700   -11.454576
 0.200000   20.841044   -11.606813
 0.205000   20.782632   -11.757436
 0.210000   20.723470   -11.906435
 0.215000   20.663567   -12.053796
 0.220000   20.602932   -12.199508
 0.225000   20.541572   -12.343558
 0.230000   20.479496   -12.485936
 0.235000   20.416713   -12.626631
 0.240000   20.353230   -12.765632
 0.245000   20.289057   -12.902929
 0.250000   20.224201   -13.038511
 0.255000   20.158671   -13.172369
 0.260000   20.092477   -13.304495
 0.265000   20.025626   -13.434878
 0.270000   19.958128   -13.563511
 0.275000   19.889991   -13.690384
 0.280000   19.821224   -13.815491
 0.285000   19.751836   -13.938823
 0.290000   19.681836   -14.060373
 0.295000   19.611233   -14.180134
 0.300000   19.540035   -14.298099
 0.305000   19.468252   -14.414263
 0.310000   19.395892   -14.528620
 0.315000   19.322966   -14.641163
 0.320000   19.249481   -14.751887
 0.325000   19.175447   -14.860788
 0.330000   19.100873   -14.967860
 0.335000   19.025768   -15.073100
 0.340000   18.950142   -15.176504
 0.345000   18.874003   -15.278067
 0.350000   18.797361   -15.377787
 0.355000   18.720225   -15.475661
 0.360000   18.642604   -15.571685
 0.365000   18.564508   -15.665858
 0.370000   18.485946   -15.758178
 0.375000   18.406927   -15.848642
 0.380000   18.327459   -15.937250
 0.385000   18.247554   -16.024000
 0.390000   18.167219   -16.108892
 0.395000   18.086465   -16.191925
 0.400000   18.005300   -16.273100
 0.405000   17.923734   -16.352415
 0.410000   17.841776   -16.429872
 0.415000   17.759435   -16.505472
 0.420000   17.676721   -16.579216
 0.425000   17.593643   -16.651104
 0.430000   17.510210   -16.721140
 0.435000   17.426432   -16.789324
 0.440000   17.342317   -16.855659
 0.445000   17.257875   -16.920148
 0.450000   17.173116   -16.982794
 0.455000   17.088047   -17.043599
 0.460000   17.002680   -17.102568
 0.465000   16.917022   -17.159703
 0.470000   16.831083   -17.215010
 0.475000   16.744872   -17.268492
 0.480000   16.658398   -17.320153
 0.485000   16.571670   -17.370000
 0.490000   16.484698   -17.418036
 0.495000   16.397490   -17.464268
 0.500000   16.310055   -17.508700
 0.505000   16.222403   -17.551339
 0.510000   16.134542   -17.592191
 0.515000   16.046481   -17.631263
 0.520000   15.958229   -17.668560
 0.525000   15.869795   -17.704091
 0.530000   15.781188   -17.737862
 0.535000   15.692416   -17.769881
 0.540000   15.603489   -17.800154
 0.545000   15.514415   -17.828691
 0.550000   15.425202   -17.855500
 0.555000   15.335860   -17.880588
 0.560000   15.246396   -17.903964
 0.565000   15.156820   -17.925637
 0.570000   15.067140   -17.945617
 0.575000   14.977364   -17.963912
 0.580000   14.887501   -17.980531
 0.585000   14.797559   -17.995485
 0.590000   14.707546   -18.008784
 0.595000   14.617471   -18.020437
 0.600000   14.527342   -18.030455
 0.605000   14.437166   -18.038848
 0.610000   14.346953   -18.045626
 0.615000   14.256710   -18.050802
 0.620000   14.166445   -18.054385
 0.625000   14.076166   -18.056387
 0.630000   13.985881   -18.056820
 0.635000   13.895598   -18.055695
 0.640000   13.805324   -18.053023
 0.645000   13.715068   -18.048817
 0.650000   13.624836   -18.043088
 0.655000   13.534637   -18.035850
 0.660000   13.444478   -18.027114
 0.665000   13.354366   -18.016892
 0.670000   13.264309   -18.005198
 0.675000   13.174314   -17.992045
 0.680000   13.084388   -17.977445
 0.685000   12.994539   -17.961411
 0.690000   12.904774   -17.943957
 0.695000   12.815100   -17.925096
 0.700000   12.725523   -17.904841
 0.705000   12.636051   -17.883207
 0.710000   12.546691   -17.860207
 0.715000   12.457449   -17.835855
 0.720000   12.368333   -17.810166
 0.725000   12.279348   -17.783153
 0.730000   12.190501   -17.754832
 0.735000   12.101799   -17.725217
 0.740000   12.013249   -17.694325
 0.745000   11.924856   -17.662171
 0.750000   11.836627   -17.628774
 0.755000   11.748568   -17.594151
 0.760000   11.660686   -17.558326
 0.765000   11.572985   -17.521321
 0.770000   11.485473   -17.483168
 0.775000   11.398153   -17.443904
 0.780000   11.311033   -17.403578
 0.785000   11.224118   -17.362255
 0.790000   11.137411   -17.320025
 0.795000   11.050917   -17.277015
 0.800000   10.964641   -17.233403
 0.805000   10.878583   -17.189449
 0.810000   10.792746   -17.145520
 0.815000   10.707128   -17.102151
 0.820000   10.621725   -17.060104
 0.825000   10.536527   -17.020472
 0.830000   10.451520   -16.984801
 0.835000   10.366679   -16.955263
 0.840000   10.281967   -16.934857
 0.845000   10.197331   -16.927651
 0.850000   10.112691   -16.939008
 0.855000   10.027941   -16.975723
 0.860000   9.942934   -17.045860
 0.865000   9.857482   -17.157906
 0.870000   9.771355   -17.318486
 0.875000   9.684297   -17.527214
 0.880000   9.596083   -17.766075
 0.885000   9.506636   -17.978627
 0.890000   9.416296   -18.030592
 0.895000   9.326330   -17.636795
 0.900000   9.239928   -16.227826
 0.905000   9.164052   -12.709071
 0.910000   9.112838   -5.027458
 0.915000   9.113778   10.607361
 0.920000   9.218911   41.130323
 0.925000   9.525081   99.192817
 0.930000   10.210839   207.944445
 0.935000   11.604525   410.104326
 0.940000   14.311883   785.354908
 0.945000   19.458074   1482.327612
 0.950000   29.135159   2762.752509
 0.955000   47.085599   4963.879297
 0.960000   78.773952   7899.139574
 0.965000   126.076995   9121.657059
 0.970000   169.990522   4563.680544
 0.975000   171.713801   -3892.264436
 0.980000   131.067878   -8625.016647
 0.985000   85.463634   -7900.637036
 0.990000   52.061508   -5458.969150
 0.995000   30.873943   -3359.538763
 1.000000   18.466120   -1603.590302
201 psinorm kpol(km/s/T) dkpol/dpsiN
 0.000000   -0.016082   151.419866
 0.005000   0.587948   90.191876
 0.010000   0.885837   56.407232
 0.015000   1.152020   52.186779
 0.020000   1.407705   50.592884
 0.025000   1.657949   49.484571
 0.030000   1.902551   48.213635
 0.035000   2.140085   47.053343
 0.040000   2.373084   46.160528
 0.045000   2.601691   45.303352
 0.050000   2.826118   44.742071
 0.055000   3.049111   44.782487
 0.060000   3.273942   45.352648
 0.065000   3.502638   46.110169
 0.070000   3.735044   46.813156
 0.075000   3.970769   47.341742
 0.080000   4.208462   47.545715
 0.085000   4.446226   47.381980
 0.090000   4.682281   46.711472
 0.095000   4.913341   45.478258
 0.100000   5.137064   43.941814
 0.105000   5.352759   42.175320
 0.110000   5.558817   40.400574
 0.115000   5.756765   38.619056
 0.120000   5.945008   37.059252
 0.125000   6.127358   35.892218
 0.130000   6.303930   34.965480
 0.135000   6.477012   34.102577
 0.140000   6.644956   33.314341
 0.145000   6.810156   32.494593
 0.150000   6.969902   31.523874
 0.155000   7.125394   30.384111
 0.160000   7.273743   29.028121
 0.165000   7.415676   27.495658
 0.170000   7.548699   25.559235
 0.175000   7.671268   23.226511
 0.180000   7.780964   20.382422
 0.185000   7.875092   17.494195
 0.190000   7.955906   14.519987
 0.195000   8.020292   11.490387
 0.200000   8.070810   8.737708
 0.205000   8.107669   6.037832
 0.210000   8.131189   3.881880
 0.215000   8.146488   2.126517
 0.220000   8.152454   0.509390
 0.225000   8.151582   -0.948544
 0.230000   8.142968   -2.651289
 0.235000   8.125069   -4.357240
 0.240000   8.099396   -6.309123
 0.245000   8.061978   -8.691253
 0.250000   8.012483   -11.079543
 0.255000   7.951182   -13.695827
 0.260000   7.875525   -16.484869
 0.265000   7.786334   -19.213415
 0.270000   7.683391   -22.105082
 0.275000   7.565283   -25.034594
 0.280000   7.433045   -28.019454
 0.285000   7.285088   -31.268365
 0.290000   7.120361   -34.478112
 0.295000   6.940307   -37.787691
 0.300000   6.742484   -41.322438
 0.305000   6.527083   -44.745224
 0.310000   6.295032   -48.238785
 0.315000   6.044695   -51.882321
 0.320000   5.776209   -55.315649
 0.325000   5.491538   -58.472336
 0.330000   5.191486   -61.181688
 0.335000   4.879722   -63.068758
 0.340000   4.560798   -64.246746
 0.345000   4.237254   -64.860762
 0.350000   3.912190   -64.710415
 0.355000   3.590150   -64.396115
 0.360000   3.268229   -64.537045
 0.365000   2.944780   -65.020723
 0.370000   2.618022   -65.973198
 0.375000   2.285048   -67.573169
 0.380000   1.942290   -70.009006
 0.385000   1.584957   -72.973436
 0.390000   1.212556   -75.809912
 0.395000   0.826858   -78.297206
 0.400000   0.429584   -80.535364
 0.405000   0.021505   -82.849396
 0.410000   -0.398910   -86.339525
 0.415000   -0.841891   -91.335857
 0.420000   -1.312269   -97.322976
 0.425000   -1.815120   -104.163030
 0.430000   -2.353899   -111.589561
 0.435000   -2.931016   -119.380532
 0.440000   -3.547704   -127.369952
 0.445000   -4.204715   -134.062972
 0.450000   -4.888334   -138.395344
 0.455000   -5.588669   -140.571118
 0.460000   -6.294045   -140.354990
 0.465000   -6.992219   -137.440046
 0.470000   -7.668446   -130.993937
 0.475000   -8.302158   -121.495612
 0.480000   -8.883402   -110.495686
 0.485000   -9.407115   -98.524780
 0.490000   -9.868650   -86.119454
 0.495000   -10.268310   -73.728598
 0.500000   -10.605936   -62.099214
 0.505000   -10.889302   -52.560703
 0.510000   -11.131543   -45.255824
 0.515000   -11.341860   -39.813798
 0.520000   -11.529681   -35.913000
 0.525000   -11.700990   -33.166532
 0.530000   -11.861346   -31.321630
 0.535000   -12.014206   -29.779412
 0.540000   -12.159140   -28.178102
 0.545000   -12.295987   -26.582039
 0.550000   -12.424960   -25.040458
 0.555000   -12.546392   -23.428692
 0.560000   -12.659247   -21.609582
 0.565000   -12.762488   -19.699784
 0.570000   -12.856245   -17.679436
 0.575000   -12.939282   -15.452517
 0.580000   -13.010770   -13.162231
 0.585000   -13.070904   -10.922453
 0.590000   -13.119995   -8.636638
 0.595000   -13.157271   -6.331537
 0.600000   -13.183310   -4.227971
 0.605000   -13.199550   -2.288337
 0.610000   -13.206194   -0.438669
 0.615000   -13.203937   1.253620
 0.620000   -13.193657   2.702442
 0.625000   -13.176913   4.000860
 0.630000   -13.153649   5.232162
 0.635000   -13.124591   6.311924
 0.640000   -13.090530   7.297398
 0.645000   -13.051617   8.249060
 0.650000   -13.008039   9.160104
 0.655000   -12.960016   9.976873
 0.660000   -12.908270   10.712051
 0.665000   -12.852896   11.406385
 0.670000   -12.794206   12.056510
 0.675000   -12.732330   12.655081
 0.680000   -12.667656   13.287023
 0.685000   -12.599460   14.004491
 0.690000   -12.527611   14.738036
 0.695000   -12.452080   15.498765
 0.700000   -12.372623   16.307009
 0.705000   -12.289010   17.115683
 0.710000   -12.201466   17.764887
 0.715000   -12.111361   18.204575
 0.720000   -12.019420   18.474330
 0.725000   -11.926618   18.501200
 0.730000   -11.834408   18.242856
 0.735000   -11.744189   17.709072
 0.740000   -11.657318   16.902703
 0.745000   -11.575162   15.865811
 0.750000   -11.498660   14.690454
 0.755000   -11.428257   13.424116
 0.760000   -11.364418   12.084220
 0.765000   -11.307415   10.762853
 0.770000   -11.256790   9.574625
 0.775000   -11.211669   8.517224
 0.780000   -11.171618   7.530419
 0.785000   -11.136365   6.563855
 0.790000   -11.105979   5.638965
 0.795000   -11.079975   4.670041
 0.800000   -11.059279   3.540424
 0.805000   -11.044571   2.275717
 0.810000   -11.036522   0.911486
 0.815000   -11.035456   -0.504075
 0.820000   -11.041562   -2.015459
 0.825000   -11.055611   -3.553074
 0.830000   -11.077093   -4.966606
 0.835000   -11.105277   -6.279541
 0.840000   -11.139888   -7.549533
 0.845000   -11.180772   -8.651916
 0.850000   -11.226408   -9.518095
 0.855000   -11.275953   -10.324603
 0.860000   -11.329654   -11.283499
 0.865000   -11.388788   -12.355900
 0.870000   -11.453213   -13.501062
 0.875000   -11.523799   -14.956790
 0.880000   -11.602780   -16.805902
 0.885000   -11.691858   -18.782668
 0.890000   -11.790607   -20.778739
 0.895000   -11.899645   -23.042195
 0.900000   -12.021029   -25.625242
 0.905000   -12.155897   -28.592557
 0.910000   -12.306955   -32.031005
 0.915000   -12.476207   -35.702115
 0.920000   -12.663976   -39.359324
 0.925000   -12.869801   -42.811489
 0.930000   -13.092091   -45.580087
 0.935000   -13.325602   -45.283939
 0.940000   -13.544930   -40.101043
 0.945000   -13.726612   -26.706752
 0.950000   -13.811998   1.413484
 0.955000   -13.712477   55.974217
 0.960000   -13.252255   139.634871
 0.965000   -12.316128   260.231539
 0.970000   -10.649940   430.558671
 0.975000   -8.010542   641.944360
 0.980000   -4.230496   864.290383
 0.985000   0.632362   1029.564886
 0.990000   6.065152   1051.285301
 0.995000   11.145215   880.083035
 1.000000   14.865983   608.224027
201 psinorm omghb() domghb/dpsiN
 0.000000   -0.000085   0.010018
 0.005000   -0.000140   -0.031815
 0.010000   -0.000403   -0.023510
 0.015000   -0.000375   0.010525
 0.020000   -0.000298   0.018784
 0.025000   -0.000187   0.024167
 0.030000   -0.000057   0.034234
 0.035000   0.000155   0.042915
 0.040000   0.000373   0.047571
 0.045000   0.000631   0.044885
 0.050000   0.000821   0.030897
 0.055000   0.000940   0.014849
 0.060000   0.000970   -0.003480
 0.065000   0.000905   -0.020629
 0.070000   0.000764   -0.014860
 0.075000   0.000757   0.002128
 0.080000   0.000785   0.013999
 0.085000   0.000897   0.038148
 0.090000   0.001166   0.061152
 0.095000   0.001508   0.087458
 0.100000   0.002041   0.124656
 0.105000   0.002755   0.134334
 0.110000   0.003384   0.118420
 0.115000   0.003939   0.109117
 0.120000   0.004475   0.105429
 0.125000   0.004993   0.109133
 0.130000   0.005567   0.091836
 0.135000   0.005911   0.053609
 0.140000   0.006103   0.039402
 0.145000   0.006305   0.046825
 0.150000   0.006571   0.047686
 0.155000   0.006782   0.050452
 0.160000   0.007076   0.048180
 0.165000   0.007264   0.085335
 0.170000   0.007929   0.129173
 0.175000   0.008556   0.161344
 0.180000   0.009542   0.205373
 0.185000   0.010610   0.222341
 0.190000   0.011766   0.300979
 0.195000   0.013619   0.404054
 0.200000   0.015806   0.423630
 0.205000   0.017856   0.375731
 0.210000   0.019564   0.334851
 0.215000   0.021204   0.334338
 0.220000   0.022907   0.334384
 0.225000   0.024548   0.283119
 0.230000   0.025738   0.246773
 0.235000   0.027016   0.225492
 0.240000   0.027993   0.196309
 0.245000   0.028979   0.162485
 0.250000   0.029618   0.151445
 0.255000   0.030493   0.107123
 0.260000   0.030689   0.069137
 0.265000   0.031185   0.118248
 0.270000   0.031872   0.142466
 0.275000   0.032609   0.156961
 0.280000   0.033441   0.183275
 0.285000   0.034442   0.237503
 0.290000   0.035816   0.312716
 0.295000   0.037569   0.417179
 0.300000   0.039988   0.530438
 0.305000   0.042874   0.629709
 0.310000   0.046285   0.733077
 0.315000   0.050204   0.818259
 0.320000   0.054468   0.806434
 0.325000   0.058269   0.740759
 0.330000   0.061876   0.655968
 0.335000   0.064828   0.476801
 0.340000   0.066644   0.416891
 0.345000   0.068997   0.292785
 0.350000   0.069571   0.122943
 0.355000   0.070227   0.144620
 0.360000   0.071018   0.148771
 0.365000   0.071714   0.173333
 0.370000   0.072751   0.247453
 0.375000   0.074189   0.190123
 0.380000   0.074652   0.191164
 0.385000   0.076101   0.336126
 0.390000   0.078013   0.385585
 0.395000   0.079956   0.379108
 0.400000   0.081804   0.300850
 0.405000   0.082965   0.518983
 0.410000   0.086994   1.011947
 0.415000   0.093084   1.345997
 0.420000   0.100454   1.774783
 0.425000   0.110832   2.198373
 0.430000   0.122438   2.272089
 0.435000   0.133553   2.303811
 0.440000   0.145476   2.369176
 0.445000   0.157245   2.237069
 0.450000   0.167847   2.117022
 0.455000   0.178415   1.727820
 0.460000   0.185125   1.103019
 0.465000   0.189445   0.638108
 0.470000   0.191506   0.134975
 0.475000   0.190795   -0.389506
 0.480000   0.187611   -0.954673
 0.485000   0.181248   -1.368233
 0.490000   0.173929   -1.500059
 0.495000   0.166248   -1.520980
 0.500000   0.158719   -1.457171
 0.505000   0.151676   -1.311480
 0.510000   0.145604   -1.097134
 0.515000   0.140705   -0.783739
 0.520000   0.137767   -0.548393
 0.525000   0.135221   -0.494566
 0.530000   0.132821   -0.441320
 0.535000   0.130808   -0.451120
 0.540000   0.128310   -0.518403
 0.545000   0.125624   -0.533902
 0.550000   0.122971   -0.551610
 0.555000   0.120107   -0.607031
 0.560000   0.116901   -0.568975
 0.565000   0.114418   -0.520633
 0.570000   0.111694   -0.564033
 0.575000   0.108777   -0.572800
 0.580000   0.105966   -0.526655
 0.585000   0.103511   -0.491813
 0.590000   0.101048   -0.487908
 0.595000   0.098632   -0.480169
 0.600000   0.096246   -0.470842
 0.605000   0.093923   -0.476409
 0.610000   0.091482   -0.474334
 0.615000   0.089180   -0.400363
 0.620000   0.087479   -0.382736
 0.625000   0.085353   -0.394681
 0.630000   0.083532   -0.360791
 0.635000   0.081745   -0.334947
 0.640000   0.080182   -0.295304
 0.645000   0.078792   -0.195369
 0.650000   0.078229   -0.124047
 0.655000   0.077551   -0.059517
 0.660000   0.077633   0.090363
 0.665000   0.078455   0.295337
 0.670000   0.080587   0.574370
 0.675000   0.084199   1.169517
 0.680000   0.092282   1.326845
 0.685000   0.097467   0.926841
 0.690000   0.101550   0.851273
 0.695000   0.105980   0.822567
 0.700000   0.109776   0.684320
 0.705000   0.112823   0.856903
 0.710000   0.118345   0.466521
 0.715000   0.117488   -0.317102
 0.720000   0.115174   -0.370528
 0.725000   0.113783   -0.407258
 0.730000   0.111102   -0.662159
 0.735000   0.107161   -0.916673
 0.740000   0.101935   -1.241768
 0.745000   0.094744   -1.160645
 0.750000   0.090328   -0.735837
 0.755000   0.087385   -0.321153
 0.760000   0.087117   0.113830
 0.765000   0.088524   0.271884
 0.770000   0.089836   0.532315
 0.775000   0.093847   1.255954
 0.780000   0.102395   1.507025
 0.785000   0.108917   1.379373
 0.790000   0.116189   1.313261
 0.795000   0.122050   1.034373
 0.800000   0.126533   1.044678
 0.805000   0.132496   1.194134
 0.810000   0.138474   0.796014
 0.815000   0.140456   0.299270
 0.820000   0.141467   0.029946
 0.825000   0.140756   -0.250453
 0.830000   0.138962   -0.438309
 0.835000   0.136373   -0.706830
 0.840000   0.131894   -0.769992
 0.845000   0.128673   -0.514455
 0.850000   0.126749   -0.224081
 0.855000   0.126432   0.166251
 0.860000   0.128412   0.925373
 0.865000   0.135686   1.272626
 0.870000   0.141138   1.767836
 0.875000   0.153364   3.109166
 0.880000   0.172230   4.481958
 0.885000   0.198184   6.018865
 0.890000   0.232418   8.705644
 0.895000   0.285240   10.646137
 0.900000   0.338880   12.322299
 0.905000   0.408463   15.008334
 0.910000   0.488963   16.880480
 0.915000   0.577268   18.081043
 0.920000   0.669774   21.410711
 0.925000   0.791375   21.195783
 0.930000   0.881731   19.953583
 0.935000   0.990911   22.799876
 0.940000   1.109730   24.016959
 0.945000   1.231081   22.566258
 0.950000   1.335393   21.033415
 0.955000   1.441415   -0.965645
 0.960000   1.325736   -40.500725
 0.965000   1.036407   -81.003492
 0.970000   0.515701   -126.966027
 0.975000   -0.233253   -163.809979
 0.980000   -1.122398   -170.084817
 0.985000   -1.934101   -132.285920
 0.990000   -2.445258   -51.207016
 0.995000   -2.446171   44.923174
 1.000000   -1.996026   135.134937
201 psinorm nz1(10^20/m^3) dnz1/dpsiN
 0.000000   0.017638   -0.000000
 0.005000   0.017638   -0.000175
 0.010000   0.017636   -0.000351
 0.015000   0.017634   -0.000528
 0.020000   0.017631   -0.000706
 0.025000   0.017627   -0.000885
 0.030000   0.017622   -0.001064
 0.035000   0.017617   -0.001242
 0.040000   0.017610   -0.001419
 0.045000   0.017602   -0.001593
 0.050000   0.017594   -0.001765
 0.055000   0.017585   -0.001933
 0.060000   0.017575   -0.002098
 0.065000   0.017564   -0.002257
 0.070000   0.017552   -0.002411
 0.075000   0.017540   -0.002560
 0.080000   0.017526   -0.002704
 0.085000   0.017513   -0.002843
 0.090000   0.017498   -0.002976
 0.095000   0.017483   -0.003104
 0.100000   0.017467   -0.003226
 0.105000   0.017451   -0.003343
 0.110000   0.017434   -0.003456
 0.115000   0.017416   -0.003562
 0.120000   0.017398   -0.003663
 0.125000   0.017379   -0.003757
 0.130000   0.017360   -0.003843
 0.135000   0.017341   -0.003921
 0.140000   0.017321   -0.003991
 0.145000   0.017301   -0.004051
 0.150000   0.017281   -0.004103
 0.155000   0.017260   -0.004144
 0.160000   0.017239   -0.004177
 0.165000   0.017218   -0.004199
 0.170000   0.017197   -0.004211
 0.175000   0.017176   -0.004214
 0.180000   0.017155   -0.004208
 0.185000   0.017134   -0.004191
 0.190000   0.017113   -0.004164
 0.195000   0.017092   -0.004128
 0.200000   0.017072   -0.004081
 0.205000   0.017052   -0.004026
 0.210000   0.017032   -0.003962
 0.215000   0.017012   -0.003891
 0.220000   0.016993   -0.003814
 0.225000   0.016974   -0.003732
 0.230000   0.016955   -0.003644
 0.235000   0.016937   -0.003548
 0.240000   0.016920   -0.003443
 0.245000   0.016903   -0.003329
 0.250000   0.016887   -0.003206
 0.255000   0.016871   -0.003073
 0.260000   0.016856   -0.002927
 0.265000   0.016842   -0.002769
 0.270000   0.016828   -0.002599
 0.275000   0.016816   -0.002418
 0.280000   0.016804   -0.002225
 0.285000   0.016793   -0.002021
 0.290000   0.016784   -0.001807
 0.295000   0.016775   -0.001584
 0.300000   0.016768   -0.001355
 0.305000   0.016762   -0.001121
 0.310000   0.016757   -0.000884
 0.315000   0.016753   -0.000644
 0.320000   0.016750   -0.000405
 0.325000   0.016749   -0.000166
 0.330000   0.016749   0.000073
 0.335000   0.016750   0.000313
 0.340000   0.016752   0.000556
 0.345000   0.016755   0.000804
 0.350000   0.016760   0.001060
 0.355000   0.016766   0.001324
 0.360000   0.016773   0.001595
 0.365000   0.016782   0.001872
 0.370000   0.016792   0.002153
 0.375000   0.016803   0.002437
 0.380000   0.016816   0.002718
 0.385000   0.016830   0.002991
 0.390000   0.016846   0.003253
 0.395000   0.016863   0.003501
 0.400000   0.016881   0.003731
 0.405000   0.016900   0.003937
 0.410000   0.016920   0.004116
 0.415000   0.016941   0.004271
 0.420000   0.016963   0.004401
 0.425000   0.016985   0.004506
 0.430000   0.017008   0.004589
 0.435000   0.017031   0.004649
 0.440000   0.017055   0.004696
 0.445000   0.017078   0.004739
 0.450000   0.017102   0.004780
 0.455000   0.017126   0.004815
 0.460000   0.017150   0.004845
 0.465000   0.017175   0.004869
 0.470000   0.017199   0.004881
 0.475000   0.017223   0.004869
 0.480000   0.017248   0.004827
 0.485000   0.017272   0.004754
 0.490000   0.017295   0.004647
 0.495000   0.017318   0.004506
 0.500000   0.017340   0.004326
 0.505000   0.017361   0.004108
 0.510000   0.017381   0.003853
 0.515000   0.017400   0.003564
 0.520000   0.017417   0.003244
 0.525000   0.017432   0.002895
 0.530000   0.017446   0.002520
 0.535000   0.017458   0.002126
 0.540000   0.017467   0.001714
 0.545000   0.017475   0.001285
 0.550000   0.017480   0.000839
 0.555000   0.017483   0.000378
 0.560000   0.017484   -0.000100
 0.565000   0.017482   -0.000596
 0.570000   0.017478   -0.001112
 0.575000   0.017471   -0.001648
 0.580000   0.017461   -0.002205
 0.585000   0.017449   -0.002779
 0.590000   0.017434   -0.003369
 0.595000   0.017415   -0.003969
 0.600000   0.017394   -0.004576
 0.605000   0.017369   -0.005187
 0.610000   0.017342   -0.005799
 0.615000   0.017311   -0.006411
 0.620000   0.017278   -0.007020
 0.625000   0.017241   -0.007629
 0.630000   0.017202   -0.008240
 0.635000   0.017159   -0.008849
 0.640000   0.017113   -0.009458
 0.645000   0.017064   -0.010066
 0.650000   0.017012   -0.010674
 0.655000   0.016958   -0.011282
 0.660000   0.016900   -0.011884
 0.665000   0.016839   -0.012486
 0.670000   0.016775   -0.013106
 0.675000   0.016708   -0.013783
 0.680000   0.016637   -0.014623
 0.685000   0.016561   -0.015682
 0.690000   0.016480   -0.016909
 0.695000   0.016392   -0.018280
 0.700000   0.016297   -0.019784
 0.705000   0.016194   -0.021391
 0.710000   0.016083   -0.023144
 0.715000   0.015963   -0.024953
 0.720000   0.015834   -0.026625
 0.725000   0.015697   -0.028124
 0.730000   0.015553   -0.029429
 0.735000   0.015402   -0.030473
 0.740000   0.015248   -0.031202
 0.745000   0.015090   -0.031512
 0.750000   0.014933   -0.031346
 0.755000   0.014777   -0.030763
 0.760000   0.014625   -0.029821
 0.765000   0.014479   -0.028575
 0.770000   0.014339   -0.027046
 0.775000   0.014208   -0.025293
 0.780000   0.014086   -0.023511
 0.785000   0.013973   -0.021795
 0.790000   0.013868   -0.020136
 0.795000   0.013772   -0.018572
 0.800000   0.013683   -0.017116
 0.805000   0.013601   -0.015803
 0.810000   0.013525   -0.014681
 0.815000   0.013454   -0.013696
 0.820000   0.013388   -0.012760
 0.825000   0.013326   -0.011850
 0.830000   0.013269   -0.010956
 0.835000   0.013217   -0.010082
 0.840000   0.013168   -0.009247
 0.845000   0.013124   -0.008461
 0.850000   0.013084   -0.007715
 0.855000   0.013047   -0.007010
 0.860000   0.013014   -0.006352
 0.865000   0.012984   -0.005761
 0.870000   0.012956   -0.005248
 0.875000   0.012931   -0.004799
 0.880000   0.012908   -0.004402
 0.885000   0.012887   -0.004054
 0.890000   0.012868   -0.003764
 0.895000   0.012849   -0.003583
 0.900000   0.012832   -0.003529
 0.905000   0.012814   -0.003631
 0.910000   0.012795   -0.004024
 0.915000   0.012774   -0.004910
 0.920000   0.012746   -0.006639
 0.925000   0.012708   -0.010035
 0.930000   0.012646   -0.016180
 0.935000   0.012546   -0.026527
 0.940000   0.012381   -0.043173
 0.945000   0.012114   -0.068206
 0.950000   0.011699   -0.102810
 0.955000   0.011086   -0.147242
 0.960000   0.010226   -0.195631
 0.965000   0.009130   -0.236749
 0.970000   0.007859   -0.260514
 0.975000   0.006524   -0.260367
 0.980000   0.005255   -0.237022
 0.985000   0.004154   -0.198181
 0.990000   0.003273   -0.153917
 0.995000   0.002615   -0.112978
 1.000000   0.002144   -0.075642
201 psinorm vtor1(km/s) dvtor1/dpsiN
 0.000000   110.337500   543.073370
 0.005000   112.444873   299.875727
 0.010000   113.336258   156.977087
 0.015000   114.014644   124.016430
 0.020000   114.576422   104.902784
 0.025000   115.063672   92.596514
 0.030000   115.502387   83.900918
 0.035000   115.902681   76.573728
 0.040000   116.268124   70.408219
 0.045000   116.606763   65.485408
 0.050000   116.922978   61.147880
 0.055000   117.218242   57.061094
 0.060000   117.493589   53.386629
 0.065000   117.752108   50.107680
 0.070000   117.994666   46.925111
 0.075000   118.221359   43.875081
 0.080000   118.433417   41.067700
 0.085000   118.632036   38.364754
 0.090000   118.817064   35.668020
 0.095000   118.988717   33.075144
 0.100000   119.147816   30.628670
 0.105000   119.295003   28.218171
 0.110000   119.429998   25.823607
 0.115000   119.553239   23.504538
 0.120000   119.665043   21.265424
 0.125000   119.765894   18.962702
 0.130000   119.854670   16.622588
 0.135000   119.932119   14.321970
 0.140000   119.997890   11.915280
 0.145000   120.051272   9.401830
 0.150000   120.091908   6.864919
 0.155000   120.119921   4.298106
 0.160000   120.134889   1.594698
 0.165000   120.135868   -1.216938
 0.170000   120.122720   -4.053152
 0.175000   120.095337   -6.921531
 0.180000   120.053504   -9.842590
 0.185000   119.996911   -12.779352
 0.190000   119.925711   -15.707394
 0.195000   119.839837   -18.651356
 0.200000   119.739197   -21.558735
 0.205000   119.624250   -24.357377
 0.210000   119.495624   -27.017895
 0.215000   119.354071   -29.519437
 0.220000   119.200429   -31.759814
 0.225000   119.036473   -33.607384
 0.230000   118.864355   -35.195226
 0.235000   118.684520   -36.607505
 0.240000   118.498280   -37.743250
 0.245000   118.307088   -38.589608
 0.250000   118.112384   -39.114714
 0.255000   117.915941   -39.140433
 0.260000   117.720980   -38.948982
 0.265000   117.526451   -38.826032
 0.270000   117.332720   -38.646996
 0.275000   117.139981   -38.455638
 0.280000   116.948163   -38.316313
 0.285000   116.756818   -38.287277
 0.290000   116.565290   -38.617866
 0.295000   116.370639   -39.401759
 0.300000   116.171273   -40.494477
 0.305000   115.965694   -41.837351
 0.310000   115.752899   -43.320612
 0.315000   115.532488   -44.912019
 0.320000   115.303779   -46.517313
 0.325000   115.067315   -48.052427
 0.330000   114.823255   -49.546852
 0.335000   114.571847   -50.983550
 0.340000   114.313419   -52.358241
 0.345000   114.048264   -53.663250
 0.350000   113.776787   -54.845627
 0.355000   113.499808   -55.882627
 0.360000   113.217961   -56.788160
 0.365000   112.931926   -57.554794
 0.370000   112.642413   -58.189396
 0.375000   112.350032   -58.645772
 0.380000   112.055955   -58.913483
 0.385000   111.760898   -59.057938
 0.390000   111.465376   -59.105155
 0.395000   111.169846   -59.050151
 0.400000   110.874874   -58.889251
 0.405000   110.580953   -58.592305
 0.410000   110.288951   -58.375602
 0.415000   109.997197   -58.682470
 0.420000   109.702126   -59.821379
 0.425000   109.398984   -61.990819
 0.430000   109.082218   -65.286867
 0.435000   108.746115   -70.080908
 0.440000   108.381409   -76.376873
 0.445000   107.982346   -83.371540
 0.450000   107.547694   -90.770852
 0.455000   107.074638   -98.662913
 0.460000   106.561064   -106.898045
 0.465000   106.005657   -115.697750
 0.470000   105.404087   -124.808359
 0.475000   104.757574   -133.005296
 0.480000   104.074034   -139.995182
 0.485000   103.357622   -146.047345
 0.490000   102.613561   -150.966460
 0.495000   101.847957   -154.639084
 0.500000   101.067170   -156.804455
 0.505000   100.279913   -157.393009
 0.510000   99.493240   -156.923228
 0.515000   98.710680   -155.807958
 0.520000   97.935160   -154.154358
 0.525000   97.169137   -151.995208
 0.530000   96.415208   -149.286952
 0.535000   95.676267   -146.221820
 0.540000   94.952990   -142.983016
 0.545000   94.246437   -139.571642
 0.550000   93.557273   -136.071806
 0.555000   92.885719   -132.531640
 0.560000   92.231957   -128.944387
 0.565000   91.596275   -125.554374
 0.570000   90.976413   -122.506210
 0.575000   90.371213   -119.710805
 0.580000   89.779305   -117.206487
 0.585000   89.199148   -115.019880
 0.590000   88.629106   -113.169526
 0.595000   88.067453   -111.498395
 0.600000   87.514122   -109.806459
 0.605000   86.969388   -108.075222
 0.610000   86.433370   -106.327494
 0.615000   85.906113   -104.592162
 0.620000   85.387449   -102.776884
 0.625000   84.878345   -101.018439
 0.630000   84.377264   -99.510726
 0.635000   83.883237   -98.206791
 0.640000   83.395196   -97.127045
 0.645000   82.911967   -96.299519
 0.650000   82.432201   -95.667968
 0.655000   81.955287   -95.493839
 0.660000   81.477263   -96.070200
 0.665000   80.994585   -97.347203
 0.670000   80.503791   -99.343431
 0.675000   80.001151   -102.092268
 0.680000   79.482868   -105.727342
 0.685000   78.943878   -109.894015
 0.690000   78.383928   -113.995939
 0.695000   77.803918   -117.986340
 0.700000   77.204064   -121.947226
 0.705000   76.584446   -125.903328
 0.710000   75.945031   -129.870179
 0.715000   75.285744   -133.762461
 0.720000   74.607407   -137.495799
 0.725000   73.910786   -141.067128
 0.730000   73.196735   -144.442728
 0.735000   72.466359   -147.591613
 0.740000   71.720819   -150.537627
 0.745000   70.960983   -153.738940
 0.750000   70.183430   -157.819575
 0.755000   69.382787   -162.973633
 0.760000   68.553693   -169.198477
 0.765000   67.690802   -176.428719
 0.770000   66.789406   -184.867300
 0.775000   65.842129   -194.200041
 0.780000   64.847406   -202.742493
 0.785000   63.814704   -209.662931
 0.790000   62.750776   -215.057723
 0.795000   61.664127   -218.637039
 0.800000   60.564406   -220.365976
 0.805000   59.460467   -220.451770
 0.810000   58.359888   -218.862885
 0.815000   57.271838   -215.747707
 0.820000   56.202411   -211.408205
 0.825000   55.157756   -205.846073
 0.830000   54.143951   -199.201304
 0.835000   53.165743   -191.696883
 0.840000   52.226982   -183.270829
 0.845000   51.333035   -174.582079
 0.850000   50.481161   -166.818016
 0.855000   49.664855   -160.711077
 0.860000   48.874050   -157.070910
 0.865000   48.094146   -157.292628
 0.870000   47.301124   -161.789771
 0.875000   46.476248   -171.272957
 0.880000   45.588394   -187.785088
 0.885000   44.598397   -212.898365
 0.890000   43.459411   -247.998393
 0.895000   42.118413   -295.082283
 0.900000   40.508588   -352.828774
 0.905000   38.590125   -418.402997
 0.910000   36.324558   -489.630360
 0.915000   33.693822   -561.530651
 0.920000   30.709251   -627.473654
 0.925000   27.419085   -679.539988
 0.930000   23.913851   -707.709856
 0.935000   20.341987   -705.501871
 0.940000   16.858833   -672.421145
 0.945000   13.617775   -610.810006
 0.950000   10.750733   -526.596612
 0.955000   8.351809   -426.905605
 0.960000   6.481677   -323.036456
 0.965000   5.121444   -225.817446
 0.970000   4.223502   -140.254768
 0.975000   3.718897   -69.713621
 0.980000   3.526366   -15.610455
 0.985000   3.562792   22.175411
 0.990000   3.748120   45.175381
 0.995000   4.014546   56.187804
 1.000000   4.309998   61.993024
201 psinorm vpol1(km/s) dvpol1/dpsiN
 0.000000   -0.000116   5.228830
 0.005000   0.027876   5.967972
 0.010000   0.059563   6.698389
 0.015000   0.094860   7.395938
 0.020000   0.133523   8.041742
 0.025000   0.175277   8.627512
 0.030000   0.219798   9.118552
 0.035000   0.266463   9.524261
 0.040000   0.315041   9.894720
 0.045000   0.365410   10.238208
 0.050000   0.417423   10.583762
 0.055000   0.471247   10.975671
 0.060000   0.527179   11.436523
 0.065000   0.585613   11.934900
 0.070000   0.646528   12.413232
 0.075000   0.709745   12.844394
 0.080000   0.774972   13.222559
 0.085000   0.841971   13.517773
 0.090000   0.910150   13.683679
 0.095000   0.978807   13.725882
 0.100000   1.047409   13.673477
 0.105000   1.115542   13.547266
 0.110000   1.182882   13.374753
 0.115000   1.249290   13.178012
 0.120000   1.314662   13.006012
 0.125000   1.379350   12.890781
 0.130000   1.443569   12.808621
 0.135000   1.507436   12.740659
 0.140000   1.570976   12.666476
 0.145000   1.634101   12.566217
 0.150000   1.696638   12.425238
 0.155000   1.758353   12.227057
 0.160000   1.818909   11.965378
 0.165000   1.878007   11.627554
 0.170000   1.935184   11.189020
 0.175000   1.989897   10.608273
 0.180000   2.041267   9.891342
 0.185000   2.088810   9.113405
 0.190000   2.132401   8.293422
 0.195000   2.171745   7.452461
 0.200000   2.206926   6.635954
 0.205000   2.238104   5.850964
 0.210000   2.265435   5.164059
 0.215000   2.289745   4.582771
 0.220000   2.311263   4.048918
 0.225000   2.330234   3.524104
 0.230000   2.346504   2.962417
 0.235000   2.359858   2.346851
 0.240000   2.369973   1.650039
 0.245000   2.376359   0.866715
 0.250000   2.378640   0.018014
 0.255000   2.376539   -0.888967
 0.260000   2.369750   -1.849223
 0.265000   2.358046   -2.835810
 0.270000   2.341392   -3.845755
 0.275000   2.319589   -4.900826
 0.280000   2.292384   -5.999102
 0.285000   2.259598   -7.141621
 0.290000   2.220968   -8.327928
 0.295000   2.176319   -9.561043
 0.300000   2.125357   -10.822351
 0.305000   2.068095   -12.112883
 0.310000   2.004228   -13.434694
 0.315000   1.933748   -14.763185
 0.320000   1.856596   -16.083263
 0.325000   1.772916   -17.320299
 0.330000   1.683393   -18.376291
 0.335000   1.589153   -19.209459
 0.340000   1.491299   -19.809482
 0.345000   1.391058   -20.185471
 0.350000   1.289444   -20.338849
 0.355000   1.187669   -20.431720
 0.360000   1.085127   -20.638916
 0.365000   0.981280   -20.977637
 0.370000   0.875351   -21.471646
 0.375000   0.766564   -22.161865
 0.380000   0.653732   -23.144254
 0.385000   0.535121   -24.310324
 0.390000   0.410629   -25.426657
 0.395000   0.280855   -26.429642
 0.400000   0.146332   -27.350922
 0.405000   0.007345   -28.295999
 0.410000   -0.136628   -29.645639
 0.415000   -0.289111   -31.513062
 0.420000   -0.451758   -33.729721
 0.425000   -0.626408   -36.256781
 0.430000   -0.814326   -38.983124
 0.435000   -1.016239   -41.845996
 0.440000   -1.232786   -44.807532
 0.445000   -1.464315   -47.309552
 0.450000   -1.705882   -48.984534
 0.455000   -1.954160   -49.928497
 0.460000   -2.205167   -50.026886
 0.465000   -2.454429   -49.142395
 0.470000   -2.696591   -47.017932
 0.475000   -2.924608   -43.827954
 0.480000   -3.134870   -40.033777
 0.485000   -3.324946   -35.871301
 0.490000   -3.493583   -31.583582
 0.495000   -3.640782   -27.242444
 0.500000   -3.766008   -23.126428
 0.505000   -3.872046   -19.770215
 0.510000   -3.963710   -17.205530
 0.515000   -4.044101   -15.246216
 0.520000   -4.116172   -13.839246
 0.525000   -4.182494   -12.886426
 0.530000   -4.245036   -12.210815
 0.535000   -4.304602   -11.625195
 0.540000   -4.361288   -11.057275
 0.545000   -4.415175   -10.490356
 0.550000   -4.466192   -9.901611
 0.555000   -4.514191   -9.298608
 0.560000   -4.559178   -8.657837
 0.565000   -4.600769   -7.946362
 0.570000   -4.638641   -7.181079
 0.575000   -4.672580   -6.374780
 0.580000   -4.702389   -5.545190
 0.585000   -4.728032   -4.700635
 0.590000   -4.749396   -3.846729
 0.595000   -4.766499   -3.014819
 0.600000   -4.779544   -2.231348
 0.605000   -4.788813   -1.495239
 0.610000   -4.794496   -0.813184
 0.615000   -4.796945   -0.194214
 0.620000   -4.796438   0.360522
 0.625000   -4.793339   0.858276
 0.630000   -4.787855   1.309277
 0.635000   -4.780247   1.716870
 0.640000   -4.770687   2.100073
 0.645000   -4.759246   2.460498
 0.650000   -4.746082   2.797266
 0.655000   -4.731273   3.114600
 0.660000   -4.714936   3.403638
 0.665000   -4.697237   3.663452
 0.670000   -4.678301   3.910132
 0.675000   -4.658135   4.146655
 0.680000   -4.636835   4.391797
 0.685000   -4.614218   4.660205
 0.690000   -4.590233   4.941479
 0.695000   -4.564803   5.236230
 0.700000   -4.537870   5.542139
 0.705000   -4.509381   5.845386
 0.710000   -4.479417   6.099121
 0.715000   -4.448390   6.276025
 0.720000   -4.416656   6.381836
 0.725000   -4.384572   6.401416
 0.730000   -4.352642   6.321777
 0.735000   -4.321354   6.137549
 0.740000   -4.291267   5.846826
 0.745000   -4.262886   5.476904
 0.750000   -4.236498   5.058838
 0.755000   -4.212297   4.600342
 0.760000   -4.190494   4.110645
 0.765000   -4.171191   3.637744
 0.770000   -4.154117   3.214014
 0.775000   -4.139051   2.827441
 0.780000   -4.125842   2.468555
 0.785000   -4.114365   2.127734
 0.790000   -4.104565   1.798975
 0.795000   -4.096375   1.442432
 0.800000   -4.090141   1.034131
 0.805000   -4.086034   0.584668
 0.810000   -4.084294   0.089844
 0.815000   -4.085136   -0.433789
 0.820000   -4.088632   -0.978076
 0.825000   -4.094917   -1.526074
 0.830000   -4.103893   -2.043848
 0.835000   -4.115355   -2.531152
 0.840000   -4.129204   -2.977539
 0.845000   -4.145130   -3.360010
 0.850000   -4.162804   -3.680322
 0.855000   -4.181934   -3.975830
 0.860000   -4.202562   -4.298730
 0.865000   -4.224921   -4.668359
 0.870000   -4.249246   -5.094092
 0.875000   -4.275862   -5.620996
 0.880000   -4.305456   -6.265918
 0.885000   -4.338521   -6.971924
 0.890000   -4.375175   -7.712646
 0.895000   -4.415647   -8.525439
 0.900000   -4.460430   -9.431348
 0.905000   -4.509961   -10.505713
 0.910000   -4.565487   -11.778857
 0.915000   -4.627750   -13.093018
 0.920000   -4.696417   -14.380566
 0.925000   -4.771555   -15.634180
 0.930000   -4.852759   -16.652441
 0.935000   -4.938080   -17.161035
 0.940000   -5.024369   -15.973779
 0.945000   -5.097817   -11.124609
 0.950000   -5.135615   -0.736816
 0.955000   -5.105186   17.596875
 0.960000   -4.959646   47.203516
 0.965000   -4.633150   93.283496
 0.970000   -4.026812   158.993164
 0.975000   -3.043219   241.510156
 0.980000   -1.611710   328.480566
 0.985000   0.241587   393.526562
 0.990000   2.323556   403.751367
 0.995000   4.279101   337.167676
 1.000000   5.695232   229.285059
3 N Z A of ION SPECIES
 6.000000   6.000000   12.010700
 1.000000   1.000000   2.000000
 1.000000   1.000000   2.000000
