201 psinorm ne(10^20/m^3) dne/dpsiN
 0.000000   0.454475   -0.168268
 0.005000   0.453633   -0.168691
 0.010000   0.452788   -0.169112
 0.015000   0.451942   -0.169530
 0.020000   0.451093   -0.169944
 0.025000   0.450242   -0.170355
 0.030000   0.449390   -0.170762
 0.035000   0.448535   -0.171166
 0.040000   0.447678   -0.171566
 0.045000   0.446819   -0.171963
 0.050000   0.445958   -0.172356
 0.055000   0.445095   -0.172745
 0.060000   0.444231   -0.173131
 0.065000   0.443364   -0.173513
 0.070000   0.442496   -0.173892
 0.075000   0.441625   -0.174267
 0.080000   0.440753   -0.174639
 0.085000   0.439879   -0.175007
 0.090000   0.439003   -0.175372
 0.095000   0.438125   -0.175732
 0.100000   0.437246   -0.176090
 0.105000   0.436364   -0.176444
 0.110000   0.435481   -0.176794
 0.115000   0.434596   -0.177140
 0.120000   0.433710   -0.177483
 0.125000   0.432821   -0.177823
 0.130000   0.431932   -0.178159
 0.135000   0.431040   -0.178491
 0.140000   0.430147   -0.178820
 0.145000   0.429252   -0.179145
 0.150000   0.428355   -0.179467
 0.155000   0.427457   -0.179785
 0.160000   0.426557   -0.180099
 0.165000   0.425656   -0.180410
 0.170000   0.424753   -0.180717
 0.175000   0.423849   -0.181021
 0.180000   0.422943   -0.181321
 0.185000   0.422036   -0.181617
 0.190000   0.421127   -0.181910
 0.195000   0.420217   -0.182199
 0.200000   0.419305   -0.182485
 0.205000   0.418392   -0.182767
 0.210000   0.417477   -0.183046
 0.215000   0.416561   -0.183321
 0.220000   0.415644   -0.183592
 0.225000   0.414725   -0.183860
 0.230000   0.413805   -0.184124
 0.235000   0.412884   -0.184385
 0.240000   0.411962   -0.184642
 0.245000   0.411038   -0.184895
 0.250000   0.410113   -0.185145
 0.255000   0.409186   -0.185392
 0.260000   0.408259   -0.185634
 0.265000   0.407330   -0.185874
 0.270000   0.406400   -0.186109
 0.275000   0.405469   -0.186341
 0.280000   0.404536   -0.186570
 0.285000   0.403603   -0.186795
 0.290000   0.402669   -0.187017
 0.295000   0.401733   -0.187234
 0.300000   0.400796   -0.187449
 0.305000   0.399858   -0.187660
 0.310000   0.398920   -0.187867
 0.315000   0.397980   -0.188071
 0.320000   0.397039   -0.188271
 0.325000   0.396097   -0.188468
 0.330000   0.395154   -0.188661
 0.335000   0.394210   -0.188851
 0.340000   0.393266   -0.189037
 0.345000   0.392320   -0.189219
 0.350000   0.391374   -0.189398
 0.355000   0.390426   -0.189574
 0.360000   0.389478   -0.189746
 0.365000   0.388529   -0.189915
 0.370000   0.387579   -0.190080
 0.375000   0.386628   -0.190242
 0.380000   0.385676   -0.190400
 0.385000   0.384724   -0.190554
 0.390000   0.383771   -0.190706
 0.395000   0.382817   -0.190853
 0.400000   0.381862   -0.190998
 0.405000   0.380907   -0.191138
 0.410000   0.379951   -0.191276
 0.415000   0.378994   -0.191410
 0.420000   0.378037   -0.191540
 0.425000   0.377079   -0.191667
 0.430000   0.376120   -0.191791
 0.435000   0.375161   -0.191911
 0.440000   0.374201   -0.192028
 0.445000   0.373240   -0.192141
 0.450000   0.372279   -0.192251
 0.455000   0.371318   -0.192358
 0.460000   0.370356   -0.192461
 0.465000   0.369393   -0.192560
 0.470000   0.368430   -0.192657
 0.475000   0.367467   -0.192750
 0.480000   0.366503   -0.192839
 0.485000   0.365538   -0.192926
 0.490000   0.364574   -0.193009
 0.495000   0.363608   -0.193088
 0.500000   0.362643   -0.193164
 0.505000   0.361677   -0.193237
 0.510000   0.360710   -0.193307
 0.515000   0.359744   -0.193373
 0.520000   0.358777   -0.193436
 0.525000   0.357809   -0.193495
 0.530000   0.356842   -0.193552
 0.535000   0.355874   -0.193605
 0.540000   0.354906   -0.193654
 0.545000   0.353937   -0.193701
 0.550000   0.352969   -0.193744
 0.555000   0.352000   -0.193784
 0.560000   0.351031   -0.193821
 0.565000   0.350062   -0.193854
 0.570000   0.349092   -0.193884
 0.575000   0.348123   -0.193911
 0.580000   0.347153   -0.193935
 0.585000   0.346183   -0.193955
 0.590000   0.345213   -0.193973
 0.595000   0.344244   -0.193987
 0.600000   0.343274   -0.193998
 0.605000   0.342304   -0.194006
 0.610000   0.341334   -0.194010
 0.615000   0.340364   -0.194012
 0.620000   0.339393   -0.194010
 0.625000   0.338423   -0.194005
 0.630000   0.337453   -0.193997
 0.635000   0.336483   -0.193986
 0.640000   0.335514   -0.193972
 0.645000   0.334544   -0.193954
 0.650000   0.333574   -0.193934
 0.655000   0.332604   -0.193910
 0.660000   0.331635   -0.193884
 0.665000   0.330666   -0.193854
 0.670000   0.329696   -0.193821
 0.675000   0.328727   -0.193786
 0.680000   0.327758   -0.193747
 0.685000   0.326790   -0.193705
 0.690000   0.325821   -0.193660
 0.695000   0.324853   -0.193612
 0.700000   0.323885   -0.193561
 0.705000   0.322918   -0.193508
 0.710000   0.321950   -0.193451
 0.715000   0.320983   -0.193391
 0.720000   0.320016   -0.193328
 0.725000   0.319050   -0.193263
 0.730000   0.318084   -0.193194
 0.735000   0.317118   -0.193122
 0.740000   0.316152   -0.193048
 0.745000   0.315187   -0.192971
 0.750000   0.314223   -0.192890
 0.755000   0.313259   -0.192807
 0.760000   0.312295   -0.192721
 0.765000   0.311331   -0.192632
 0.770000   0.310368   -0.192541
 0.775000   0.309406   -0.192446
 0.780000   0.308444   -0.192349
 0.785000   0.307482   -0.192249
 0.790000   0.306521   -0.192146
 0.795000   0.305561   -0.192040
 0.800000   0.304601   -0.191931
 0.805000   0.303642   -0.191820
 0.810000   0.302683   -0.191706
 0.815000   0.301725   -0.191589
 0.820000   0.300767   -0.191469
 0.825000   0.299810   -0.191347
 0.830000   0.298853   -0.191222
 0.835000   0.297898   -0.191094
 0.840000   0.296943   -0.190964
 0.845000   0.295988   -0.190831
 0.850000   0.295034   -0.190695
 0.855000   0.294081   -0.190556
 0.860000   0.293129   -0.190415
 0.865000   0.292177   -0.190270
 0.870000   0.291226   -0.190122
 0.875000   0.290276   -0.189968
 0.880000   0.289326   -0.189804
 0.885000   0.288378   -0.189621
 0.890000   0.287430   -0.189395
 0.895000   0.286484   -0.189070
 0.900000   0.285539   -0.188522
 0.905000   0.284599   -0.187466
 0.910000   0.283665   -0.185280
 0.915000   0.282746   -0.180648
 0.920000   0.281858   -0.170959
 0.925000   0.281036   -0.151583
 0.930000   0.280342   -0.116263
 0.935000   0.279874   -0.064326
 0.940000   0.279699   -0.034624
 0.945000   0.279527   -0.213488
 0.950000   0.277564   -1.099756
 0.955000   0.268530   -3.160015
 0.960000   0.245964   -5.485979
 0.965000   0.213670   -6.249596
 0.970000   0.183468   -5.349382
 0.975000   0.160176   -4.093809
 0.980000   0.142530   -3.159051
 0.985000   0.128586   -2.542299
 0.990000   0.117107   -2.118221
 0.995000   0.107403   -1.803847
 1.000000   0.099069   -1.530055
201 psinorm te(KeV) dte/dpsiN
 0.000000   3.925938   -3.981590
 0.005000   3.906043   -3.976271
 0.010000   3.886175   -3.970890
 0.015000   3.866334   -3.965386
 0.020000   3.846521   -3.959758
 0.025000   3.826736   -3.954009
 0.030000   3.806981   -3.948138
 0.035000   3.787255   -3.942148
 0.040000   3.767559   -3.936038
 0.045000   3.747895   -3.929810
 0.050000   3.728261   -3.923465
 0.055000   3.708660   -3.917004
 0.060000   3.689091   -3.910428
 0.065000   3.669556   -3.903737
 0.070000   3.650054   -3.896934
 0.075000   3.630586   -3.890018
 0.080000   3.611154   -3.882990
 0.085000   3.591756   -3.875853
 0.090000   3.572395   -3.868606
 0.095000   3.553070   -3.861251
 0.100000   3.533783   -3.853789
 0.105000   3.514533   -3.846221
 0.110000   3.495320   -3.838547
 0.115000   3.476147   -3.830769
 0.120000   3.457013   -3.822888
 0.125000   3.437918   -3.814905
 0.130000   3.418864   -3.806821
 0.135000   3.399850   -3.798636
 0.140000   3.380877   -3.790353
 0.145000   3.361946   -3.781971
 0.150000   3.343058   -3.773492
 0.155000   3.324212   -3.764918
 0.160000   3.305408   -3.756248
 0.165000   3.286649   -3.747484
 0.170000   3.267934   -3.738628
 0.175000   3.249263   -3.729679
 0.180000   3.230637   -3.720640
 0.185000   3.212056   -3.711511
 0.190000   3.193522   -3.702293
 0.195000   3.175033   -3.692988
 0.200000   3.156592   -3.683595
 0.205000   3.138197   -3.674117
 0.210000   3.119851   -3.664555
 0.215000   3.101552   -3.654909
 0.220000   3.083302   -3.645180
 0.225000   3.065100   -3.635370
 0.230000   3.046948   -3.625479
 0.235000   3.028845   -3.615509
 0.240000   3.010793   -3.605461
 0.245000   2.992791   -3.595335
 0.250000   2.974839   -3.585133
 0.255000   2.956939   -3.574856
 0.260000   2.939091   -3.564505
 0.265000   2.921294   -3.554080
 0.270000   2.903550   -3.543583
 0.275000   2.885858   -3.533016
 0.280000   2.868220   -3.522378
 0.285000   2.850635   -3.511671
 0.290000   2.833103   -3.500896
 0.295000   2.815626   -3.490054
 0.300000   2.798203   -3.479147
 0.305000   2.780834   -3.468174
 0.310000   2.763521   -3.457138
 0.315000   2.746263   -3.446038
 0.320000   2.729061   -3.434877
 0.325000   2.711914   -3.423655
 0.330000   2.694824   -3.412374
 0.335000   2.677790   -3.401034
 0.340000   2.660814   -3.389636
 0.345000   2.643894   -3.378181
 0.350000   2.627032   -3.366670
 0.355000   2.610227   -3.355105
 0.360000   2.593481   -3.343487
 0.365000   2.576792   -3.331815
 0.370000   2.560163   -3.320092
 0.375000   2.543592   -3.308318
 0.380000   2.527079   -3.296495
 0.385000   2.510627   -3.284623
 0.390000   2.494233   -3.272704
 0.395000   2.477900   -3.260737
 0.400000   2.461626   -3.248725
 0.405000   2.445412   -3.236669
 0.410000   2.429259   -3.224568
 0.415000   2.413167   -3.212425
 0.420000   2.397135   -3.200241
 0.425000   2.381164   -3.188015
 0.430000   2.365255   -3.175750
 0.435000   2.349407   -3.163445
 0.440000   2.333620   -3.151103
 0.445000   2.317896   -3.138724
 0.450000   2.302233   -3.126309
 0.455000   2.286633   -3.113860
 0.460000   2.271094   -3.101376
 0.465000   2.255619   -3.088858
 0.470000   2.240206   -3.076309
 0.475000   2.224856   -3.063729
 0.480000   2.209569   -3.051118
 0.485000   2.194345   -3.038478
 0.490000   2.179184   -3.025809
 0.495000   2.164086   -3.013113
 0.500000   2.149053   -3.000390
 0.505000   2.134083   -2.987641
 0.510000   2.119176   -2.974868
 0.515000   2.104334   -2.962071
 0.520000   2.089556   -2.949251
 0.525000   2.074841   -2.936408
 0.530000   2.060191   -2.923545
 0.535000   2.045606   -2.910661
 0.540000   2.031085   -2.897758
 0.545000   2.016628   -2.884836
 0.550000   2.002237   -2.871896
 0.555000   1.987909   -2.858940
 0.560000   1.973647   -2.845967
 0.565000   1.959450   -2.832980
 0.570000   1.945317   -2.819978
 0.575000   1.931250   -2.806963
 0.580000   1.917248   -2.793935
 0.585000   1.903311   -2.780896
 0.590000   1.889439   -2.767845
 0.595000   1.875632   -2.754784
 0.600000   1.861891   -2.741715
 0.605000   1.848215   -2.728636
 0.610000   1.834605   -2.715550
 0.615000   1.821060   -2.702457
 0.620000   1.807580   -2.689358
 0.625000   1.794166   -2.676254
 0.630000   1.780817   -2.663146
 0.635000   1.767534   -2.650033
 0.640000   1.754317   -2.636918
 0.645000   1.741165   -2.623800
 0.650000   1.728079   -2.610682
 0.655000   1.715058   -2.597562
 0.660000   1.702103   -2.584443
 0.665000   1.689214   -2.571324
 0.670000   1.676390   -2.558208
 0.675000   1.663632   -2.545093
 0.680000   1.650939   -2.531982
 0.685000   1.638312   -2.518874
 0.690000   1.625751   -2.505771
 0.695000   1.613254   -2.492673
 0.700000   1.600824   -2.479581
 0.705000   1.588459   -2.466496
 0.710000   1.576159   -2.453417
 0.715000   1.563924   -2.440347
 0.720000   1.551755   -2.427285
 0.725000   1.539652   -2.414233
 0.730000   1.527613   -2.401190
 0.735000   1.515640   -2.388157
 0.740000   1.503731   -2.375136
 0.745000   1.491888   -2.362125
 0.750000   1.480110   -2.349126
 0.755000   1.468397   -2.336139
 0.760000   1.456749   -2.323163
 0.765000   1.445165   -2.310199
 0.770000   1.433647   -2.297246
 0.775000   1.422193   -2.284303
 0.780000   1.410804   -2.271370
 0.785000   1.399479   -2.258443
 0.790000   1.388219   -2.245520
 0.795000   1.377024   -2.232596
 0.800000   1.365893   -2.219666
 0.805000   1.354827   -2.206723
 0.810000   1.343826   -2.193755
 0.815000   1.332890   -2.180750
 0.820000   1.322019   -2.167691
 0.825000   1.311213   -2.154554
 0.830000   1.300473   -2.141315
 0.835000   1.289800   -2.127940
 0.840000   1.279194   -2.114394
 0.845000   1.268656   -2.100638
 0.850000   1.258187   -2.086638
 0.855000   1.247790   -2.072375
 0.860000   1.237464   -2.057866
 0.865000   1.227211   -2.043200
 0.870000   1.217032   -2.028598
 0.875000   1.206925   -2.014516
 0.880000   1.196886   -2.001816
 0.885000   1.186907   -1.992032
 0.890000   1.176966   -1.987812
 0.895000   1.167029   -1.993602
 0.900000   1.157030   -2.016733
 0.905000   1.146861   -2.069095
 0.910000   1.136339   -2.169675
 0.915000   1.125165   -2.348330
 0.920000   1.112856   -2.651134
 0.925000   1.098653   -3.147423
 0.930000   1.081382   -3.937751
 0.935000   1.059276   -5.159562
 0.940000   1.029786   -6.982173
 0.945000   0.989454   -9.573661
 0.950000   0.934049   -13.012979
 0.955000   0.859324   -17.128309
 0.960000   0.762766   -21.305083
 0.965000   0.646273   -24.443446
 0.970000   0.518332   -25.325584
 0.975000   0.393017   -23.373438
 0.980000   0.284597   -19.182508
 0.985000   0.201192   -14.177853
 0.990000   0.142819   -9.679070
 0.995000   0.104402   -6.300585
 1.000000   0.079813   -3.534852
201 psinorm ni(10^20/m^3) dni/dpsiN
 0.000000   0.257154   -0.180092
 0.005000   0.256495   -0.083552
 0.010000   0.256318   -0.007080
 0.015000   0.256424   0.043407
 0.020000   0.256752   0.083686
 0.025000   0.257261   0.116254
 0.030000   0.257915   0.143028
 0.035000   0.258691   0.164577
 0.040000   0.259561   0.181141
 0.045000   0.260503   0.193548
 0.050000   0.261496   0.202244
 0.055000   0.262525   0.208314
 0.060000   0.263579   0.211914
 0.065000   0.264644   0.213108
 0.070000   0.265710   0.212488
 0.075000   0.266769   0.210143
 0.080000   0.267812   0.206241
 0.085000   0.268831   0.201131
 0.090000   0.269823   0.195119
 0.095000   0.270783   0.187650
 0.100000   0.271700   0.179300
 0.105000   0.272576   0.170744
 0.110000   0.273407   0.161647
 0.115000   0.274192   0.152132
 0.120000   0.274928   0.142275
 0.125000   0.275615   0.132129
 0.130000   0.276250   0.121585
 0.135000   0.276831   0.110887
 0.140000   0.277359   0.100398
 0.145000   0.277835   0.090017
 0.150000   0.278259   0.079695
 0.155000   0.278632   0.069492
 0.160000   0.278954   0.059452
 0.165000   0.279226   0.049617
 0.170000   0.279450   0.040014
 0.175000   0.279626   0.030537
 0.180000   0.279755   0.021186
 0.185000   0.279838   0.012232
 0.190000   0.279878   0.003713
 0.195000   0.279875   -0.004480
 0.200000   0.279833   -0.012337
 0.205000   0.279752   -0.019855
 0.210000   0.279634   -0.027033
 0.215000   0.279482   -0.033877
 0.220000   0.279295   -0.040388
 0.225000   0.279078   -0.046687
 0.230000   0.278829   -0.053078
 0.235000   0.278547   -0.059023
 0.240000   0.278238   -0.064235
 0.245000   0.277905   -0.069158
 0.250000   0.277547   -0.073808
 0.255000   0.277166   -0.078197
 0.260000   0.276765   -0.082633
 0.265000   0.276340   -0.086967
 0.270000   0.275895   -0.090734
 0.275000   0.275433   -0.094113
 0.280000   0.274954   -0.097309
 0.285000   0.274460   -0.100360
 0.290000   0.273950   -0.103589
 0.295000   0.273424   -0.106593
 0.300000   0.272884   -0.109081
 0.305000   0.272333   -0.111453
 0.310000   0.271770   -0.113726
 0.315000   0.271196   -0.116158
 0.320000   0.270608   -0.118439
 0.325000   0.270011   -0.120336
 0.330000   0.269405   -0.122171
 0.335000   0.268790   -0.124012
 0.340000   0.268165   -0.125907
 0.345000   0.267531   -0.127650
 0.350000   0.266888   -0.129208
 0.355000   0.266238   -0.130747
 0.360000   0.265581   -0.132391
 0.365000   0.264915   -0.134027
 0.370000   0.264241   -0.135515
 0.375000   0.263559   -0.136979
 0.380000   0.262871   -0.138495
 0.385000   0.262174   -0.140047
 0.390000   0.261470   -0.141519
 0.395000   0.260759   -0.142909
 0.400000   0.260041   -0.144291
 0.405000   0.259316   -0.145700
 0.410000   0.258584   -0.147026
 0.415000   0.257846   -0.148216
 0.420000   0.257102   -0.149356
 0.425000   0.256353   -0.150524
 0.430000   0.255597   -0.151617
 0.435000   0.254836   -0.152540
 0.440000   0.254071   -0.153397
 0.445000   0.253302   -0.154324
 0.450000   0.252528   -0.155214
 0.455000   0.251750   -0.155949
 0.460000   0.250969   -0.156638
 0.465000   0.250184   -0.157390
 0.470000   0.249395   -0.158108
 0.475000   0.248603   -0.158655
 0.480000   0.247808   -0.159099
 0.485000   0.247012   -0.159520
 0.490000   0.246213   -0.159815
 0.495000   0.245414   -0.159874
 0.500000   0.244614   -0.159770
 0.505000   0.243816   -0.159589
 0.510000   0.243018   -0.159265
 0.515000   0.242223   -0.158708
 0.520000   0.241431   -0.157992
 0.525000   0.240643   -0.157198
 0.530000   0.239859   -0.156285
 0.535000   0.239081   -0.155186
 0.540000   0.238308   -0.153956
 0.545000   0.237541   -0.152668
 0.550000   0.236781   -0.151284
 0.555000   0.236028   -0.149725
 0.560000   0.235284   -0.148024
 0.565000   0.234548   -0.146239
 0.570000   0.233821   -0.144345
 0.575000   0.233104   -0.142273
 0.580000   0.232399   -0.140040
 0.585000   0.231704   -0.137706
 0.590000   0.231021   -0.135290
 0.595000   0.230351   -0.132751
 0.600000   0.229694   -0.130098
 0.605000   0.229050   -0.127380
 0.610000   0.228420   -0.124619
 0.615000   0.227804   -0.121765
 0.620000   0.227203   -0.118765
 0.625000   0.226616   -0.115629
 0.630000   0.226046   -0.112367
 0.635000   0.225493   -0.108962
 0.640000   0.224957   -0.105396
 0.645000   0.224439   -0.101694
 0.650000   0.223940   -0.097821
 0.655000   0.223461   -0.093835
 0.660000   0.223001   -0.089833
 0.665000   0.222562   -0.085796
 0.670000   0.222143   -0.081654
 0.675000   0.221746   -0.077240
 0.680000   0.221371   -0.072069
 0.685000   0.221025   -0.065926
 0.690000   0.220712   -0.059076
 0.695000   0.220434   -0.051613
 0.700000   0.220196   -0.043574
 0.705000   0.219998   -0.035127
 0.710000   0.219844   -0.026179
 0.715000   0.219737   -0.017229
 0.720000   0.219672   -0.009141
 0.725000   0.219645   -0.001954
 0.730000   0.219652   0.004289
 0.735000   0.219688   0.009345
 0.740000   0.219746   0.013016
 0.745000   0.219818   0.014913
 0.750000   0.219895   0.014882
 0.755000   0.219967   0.013113
 0.760000   0.220026   0.009697
 0.765000   0.220064   0.004782
 0.770000   0.220074   -0.001624
 0.775000   0.220048   -0.009184
 0.780000   0.219982   -0.016772
 0.785000   0.219880   -0.023904
 0.790000   0.219743   -0.030691
 0.795000   0.219573   -0.036967
 0.800000   0.219373   -0.042647
 0.805000   0.219147   -0.047523
 0.810000   0.218898   -0.051473
 0.815000   0.218632   -0.054914
 0.820000   0.218349   -0.058307
 0.825000   0.218049   -0.061841
 0.830000   0.217731   -0.065593
 0.835000   0.217393   -0.069552
 0.840000   0.217035   -0.073573
 0.845000   0.216657   -0.077522
 0.850000   0.216260   -0.081372
 0.855000   0.215844   -0.085082
 0.860000   0.215409   -0.088601
 0.865000   0.214958   -0.091905
 0.870000   0.214490   -0.094823
 0.875000   0.214009   -0.097162
 0.880000   0.213518   -0.098866
 0.885000   0.213021   -0.099846
 0.890000   0.212520   -0.099957
 0.895000   0.212021   -0.098463
 0.900000   0.211535   -0.095021
 0.905000   0.211071   -0.089404
 0.910000   0.210641   -0.080246
 0.915000   0.210268   -0.065202
 0.920000   0.209989   -0.040106
 0.925000   0.209867   0.003843
 0.930000   0.210028   0.075357
 0.935000   0.210621   0.177872
 0.940000   0.211806   0.279024
 0.945000   0.213411   0.197655
 0.950000   0.213783   -0.562557
 0.955000   0.207786   -2.464455
 0.960000   0.189138   -4.614686
 0.965000   0.161639   -5.217828
 0.970000   0.136960   -4.203194
 0.975000   0.119607   -2.906883
 0.980000   0.107891   -2.014995
 0.985000   0.099457   -1.510275
 0.990000   0.092789   -1.240653
 0.995000   0.087050   -1.091346
 1.000000   0.081875   -0.978742
201 psinorm ti(KeV) dti/dpsiN
 0.000000   5.394333   0.001788
 0.005000   5.393643   -0.277835
 0.010000   5.391555   -0.559974
 0.015000   5.388043   -0.846803
 0.020000   5.383087   -1.137594
 0.025000   5.376667   -1.431529
 0.030000   5.368771   -1.727740
 0.035000   5.359390   -2.025355
 0.040000   5.348518   -2.323282
 0.045000   5.336157   -2.620812
 0.050000   5.322310   -2.917446
 0.055000   5.306983   -3.212370
 0.060000   5.290186   -3.504850
 0.065000   5.271934   -3.794104
 0.070000   5.252245   -4.078826
 0.075000   5.231146   -4.358664
 0.080000   5.208658   -4.634088
 0.085000   5.184805   -4.904919
 0.090000   5.159609   -5.170997
 0.095000   5.133095   -5.432199
 0.100000   5.105287   -5.688420
 0.105000   5.076211   -5.939170
 0.110000   5.045895   -6.183472
 0.115000   5.014376   -6.420698
 0.120000   4.981689   -6.650748
 0.125000   4.947869   -6.873834
 0.130000   4.912950   -7.091178
 0.135000   4.876957   -7.302792
 0.140000   4.839922   -7.506185
 0.145000   4.801895   -7.699809
 0.150000   4.762924   -7.883168
 0.155000   4.723063   -8.055449
 0.160000   4.682370   -8.215893
 0.165000   4.640904   -8.362969
 0.170000   4.598740   -8.495361
 0.175000   4.555951   -8.612888
 0.180000   4.512611   -8.715340
 0.185000   4.468797   -8.802421
 0.190000   4.424587   -8.873114
 0.195000   4.380066   -8.926511
 0.200000   4.335322   -8.965667
 0.205000   4.290410   -8.993612
 0.210000   4.245386   -9.011354
 0.215000   4.200296   -9.020860
 0.220000   4.155177   -9.023787
 0.225000   4.110058   -9.022549
 0.230000   4.064952   -9.018548
 0.235000   4.019873   -9.011102
 0.240000   3.974841   -8.999885
 0.245000   3.929874   -8.984901
 0.250000   3.884992   -8.966485
 0.255000   3.840209   -8.945844
 0.260000   3.795533   -8.916688
 0.265000   3.751042   -8.874513
 0.270000   3.706788   -8.821627
 0.275000   3.662826   -8.757554
 0.280000   3.619212   -8.682022
 0.285000   3.576006   -8.594965
 0.290000   3.533263   -8.494185
 0.295000   3.491064   -8.379257
 0.300000   3.449470   -8.251436
 0.305000   3.408549   -8.110039
 0.310000   3.368370   -7.955108
 0.315000   3.328998   -7.786364
 0.320000   3.290506   -7.615497
 0.325000   3.252843   -7.452278
 0.330000   3.215983   -7.294436
 0.335000   3.179899   -7.142244
 0.340000   3.144561   -6.995853
 0.345000   3.109940   -6.858398
 0.350000   3.075977   -6.728594
 0.355000   3.042654   -6.601784
 0.360000   3.009959   -6.477574
 0.365000   2.977879   -6.355345
 0.370000   2.946406   -6.234119
 0.375000   2.915538   -6.117042
 0.380000   2.885235   -5.997883
 0.385000   2.855559   -5.866430
 0.390000   2.826571   -5.722873
 0.395000   2.798330   -5.567669
 0.400000   2.770894   -5.401185
 0.405000   2.744318   -5.221932
 0.410000   2.718675   -5.030956
 0.415000   2.694009   -4.835741
 0.420000   2.670318   -4.641439
 0.425000   2.647594   -4.449705
 0.430000   2.625821   -4.262280
 0.435000   2.604971   -4.076974
 0.440000   2.585051   -3.895623
 0.445000   2.566015   -3.725570
 0.450000   2.547795   -3.567241
 0.455000   2.530343   -3.418805
 0.460000   2.513607   -3.280848
 0.465000   2.497534   -3.152549
 0.470000   2.482082   -3.035512
 0.475000   2.467179   -2.933348
 0.480000   2.452748   -2.844875
 0.485000   2.438730   -2.767530
 0.490000   2.425073   -2.700104
 0.495000   2.411729   -2.640635
 0.500000   2.398666   -2.585886
 0.505000   2.385870   -2.533874
 0.510000   2.373328   -2.485471
 0.515000   2.361016   -2.441627
 0.520000   2.348911   -2.402503
 0.525000   2.336991   -2.368135
 0.530000   2.325230   -2.338575
 0.535000   2.313605   -2.313438
 0.540000   2.302096   -2.292371
 0.545000   2.290681   -2.275359
 0.550000   2.279342   -2.262221
 0.555000   2.268059   -2.252814
 0.560000   2.256814   -2.247107
 0.565000   2.245588   -2.244522
 0.570000   2.234369   -2.244610
 0.575000   2.223142   -2.247402
 0.580000   2.211895   -2.252642
 0.585000   2.200615   -2.260054
 0.590000   2.189294   -2.269377
 0.595000   2.177922   -2.280495
 0.600000   2.166489   -2.293556
 0.605000   2.154986   -2.308638
 0.610000   2.143403   -2.325568
 0.615000   2.131730   -2.344114
 0.620000   2.119962   -2.364400
 0.625000   2.108086   -2.385845
 0.630000   2.096103   -2.407682
 0.635000   2.084010   -2.429843
 0.640000   2.071805   -2.452019
 0.645000   2.059489   -2.473891
 0.650000   2.047066   -2.495715
 0.655000   2.034532   -2.517517
 0.660000   2.021891   -2.539263
 0.665000   2.009140   -2.561305
 0.670000   1.996278   -2.583500
 0.675000   1.983305   -2.605505
 0.680000   1.970223   -2.627620
 0.685000   1.957028   -2.647050
 0.690000   1.943752   -2.660087
 0.695000   1.930428   -2.666563
 0.700000   1.917086   -2.666910
 0.705000   1.903758   -2.661766
 0.710000   1.890469   -2.651740
 0.715000   1.877241   -2.638352
 0.720000   1.864085   -2.623242
 0.725000   1.851009   -2.606535
 0.730000   1.838020   -2.588205
 0.735000   1.825127   -2.568533
 0.740000   1.812335   -2.547631
 0.745000   1.799650   -2.526194
 0.750000   1.787073   -2.505689
 0.755000   1.774593   -2.487532
 0.760000   1.762197   -2.473016
 0.765000   1.749863   -2.463092
 0.770000   1.737566   -2.459283
 0.775000   1.725270   -2.460932
 0.780000   1.712957   -2.462485
 0.785000   1.700646   -2.461528
 0.790000   1.688342   -2.459308
 0.795000   1.676053   -2.455801
 0.800000   1.663784   -2.451482
 0.805000   1.651538   -2.446196
 0.810000   1.639322   -2.439150
 0.815000   1.627146   -2.432146
 0.820000   1.615000   -2.427835
 0.825000   1.602868   -2.427348
 0.830000   1.590727   -2.431466
 0.835000   1.578553   -2.440046
 0.840000   1.566326   -2.451940
 0.845000   1.554034   -2.467453
 0.850000   1.541652   -2.489054
 0.855000   1.529143   -2.520075
 0.860000   1.516451   -2.565245
 0.865000   1.503491   -2.634035
 0.870000   1.490111   -2.728654
 0.875000   1.476204   -2.848262
 0.880000   1.461628   -2.997843
 0.885000   1.446226   -3.180252
 0.890000   1.429826   -3.398802
 0.895000   1.412238   -3.681079
 0.900000   1.393015   -4.022518
 0.905000   1.372013   -4.409384
 0.910000   1.348921   -4.860875
 0.915000   1.323404   -5.382203
 0.920000   1.295099   -5.977875
 0.925000   1.263625   -6.695269
 0.930000   1.228146   -7.490285
 0.935000   1.188722   -8.293384
 0.940000   1.145213   -9.112900
 0.945000   1.097593   -9.916537
 0.950000   1.046047   -10.658509
 0.955000   0.991008   -11.318851
 0.960000   0.932859   -11.807928
 0.965000   0.872929   -12.051878
 0.970000   0.812340   -12.075199
 0.975000   0.752177   -11.881273
 0.980000   0.693527   -11.476072
 0.985000   0.637416   -10.890042
 0.990000   0.584627   -10.138115
 0.995000   0.536035   -9.247779
 1.000000   0.492149   -8.306671
201 psinorm nb(10^20/m^3) dnb/dpsiN
 0.000000   0.101664   0.011826
 0.005000   0.101480   -0.085595
 0.010000   0.100808   -0.162945
 0.015000   0.099850   -0.214303
 0.020000   0.098665   -0.255445
 0.025000   0.097296   -0.288867
 0.030000   0.095776   -0.316482
 0.035000   0.094131   -0.338860
 0.040000   0.092388   -0.356238
 0.045000   0.090569   -0.369443
 0.050000   0.088693   -0.378919
 0.055000   0.086779   -0.385750
 0.060000   0.084836   -0.390092
 0.065000   0.082879   -0.392005
 0.070000   0.080916   -0.392080
 0.075000   0.078958   -0.390407
 0.080000   0.077012   -0.387148
 0.085000   0.075086   -0.382653
 0.090000   0.073185   -0.377227
 0.095000   0.071314   -0.370312
 0.100000   0.069482   -0.362482
 0.105000   0.067689   -0.354413
 0.110000   0.065938   -0.345768
 0.115000   0.064231   -0.336671
 0.120000   0.062571   -0.327196
 0.125000   0.060960   -0.317398
 0.130000   0.059397   -0.307166
 0.135000   0.057888   -0.296746
 0.140000   0.056430   -0.286503
 0.145000   0.055023   -0.276337
 0.150000   0.053667   -0.266201
 0.155000   0.052361   -0.256155
 0.160000   0.051105   -0.246244
 0.165000   0.049898   -0.236513
 0.170000   0.048740   -0.226992
 0.175000   0.047628   -0.217578
 0.180000   0.046564   -0.208271
 0.185000   0.045546   -0.199344
 0.190000   0.044571   -0.190837
 0.195000   0.043637   -0.182643
 0.200000   0.042744   -0.174772
 0.205000   0.041890   -0.167233
 0.210000   0.041072   -0.160027
 0.215000   0.040289   -0.153153
 0.220000   0.039540   -0.146610
 0.225000   0.038823   -0.140283
 0.230000   0.038138   -0.133870
 0.235000   0.037485   -0.127910
 0.240000   0.036858   -0.122693
 0.245000   0.036258   -0.117774
 0.250000   0.035681   -0.113142
 0.255000   0.035126   -0.108785
 0.260000   0.034593   -0.104398
 0.265000   0.034082   -0.100130
 0.270000   0.033592   -0.096451
 0.275000   0.033118   -0.093183
 0.280000   0.032660   -0.090125
 0.285000   0.032216   -0.087240
 0.290000   0.031787   -0.084210
 0.295000   0.031374   -0.081436
 0.300000   0.030973   -0.079212
 0.305000   0.030582   -0.077140
 0.310000   0.030202   -0.075202
 0.315000   0.029830   -0.073141
 0.320000   0.029470   -0.071265
 0.325000   0.029118   -0.069807
 0.330000   0.028772   -0.068445
 0.335000   0.028433   -0.067110
 0.340000   0.028101   -0.065753
 0.345000   0.027776   -0.064587
 0.350000   0.027455   -0.063645
 0.355000   0.027139   -0.062765
 0.360000   0.026827   -0.061822
 0.365000   0.026521   -0.060929
 0.370000   0.026218   -0.060225
 0.375000   0.025919   -0.059586
 0.380000   0.025622   -0.058926
 0.385000   0.025329   -0.058245
 0.390000   0.025040   -0.057655
 0.395000   0.024753   -0.057149
 0.400000   0.024468   -0.056641
 0.405000   0.024186   -0.056080
 0.410000   0.023908   -0.055561
 0.415000   0.023631   -0.055128
 0.420000   0.023356   -0.054687
 0.425000   0.023084   -0.054152
 0.430000   0.022815   -0.053621
 0.435000   0.022548   -0.053179
 0.440000   0.022283   -0.052734
 0.445000   0.022020   -0.052175
 0.450000   0.021761   -0.051611
 0.455000   0.021504   -0.051156
 0.460000   0.021250   -0.050703
 0.465000   0.020997   -0.050143
 0.470000   0.020748   -0.049579
 0.475000   0.020501   -0.049125
 0.480000   0.020257   -0.048682
 0.485000   0.020015   -0.048152
 0.490000   0.019775   -0.047623
 0.495000   0.019538   -0.047197
 0.500000   0.019304   -0.046788
 0.505000   0.019071   -0.046306
 0.510000   0.018840   -0.045819
 0.515000   0.018612   -0.045419
 0.520000   0.018386   -0.045039
 0.525000   0.018162   -0.044600
 0.530000   0.017940   -0.044153
 0.535000   0.017720   -0.043775
 0.540000   0.017502   -0.043418
 0.545000   0.017286   -0.043009
 0.550000   0.017072   -0.042588
 0.555000   0.016860   -0.042233
 0.560000   0.016650   -0.041909
 0.565000   0.016441   -0.041552
 0.570000   0.016235   -0.041179
 0.575000   0.016030   -0.040861
 0.580000   0.015826   -0.040582
 0.585000   0.015624   -0.040291
 0.590000   0.015423   -0.039982
 0.595000   0.015224   -0.039712
 0.600000   0.015026   -0.039488
 0.605000   0.014829   -0.039269
 0.610000   0.014633   -0.039038
 0.615000   0.014439   -0.038839
 0.620000   0.014245   -0.038692
 0.625000   0.014052   -0.038557
 0.630000   0.013859   -0.038423
 0.635000   0.013667   -0.038308
 0.640000   0.013476   -0.038231
 0.645000   0.013285   -0.038171
 0.650000   0.013094   -0.038126
 0.655000   0.012904   -0.038098
 0.660000   0.012713   -0.038092
 0.665000   0.012523   -0.038104
 0.670000   0.012332   -0.038126
 0.675000   0.012142   -0.038170
 0.680000   0.011951   -0.038238
 0.685000   0.011759   -0.038317
 0.690000   0.011568   -0.038403
 0.695000   0.011375   -0.038499
 0.700000   0.011183   -0.038627
 0.705000   0.010989   -0.038772
 0.710000   0.010795   -0.038910
 0.715000   0.010600   -0.039053
 0.720000   0.010404   -0.039202
 0.725000   0.010208   -0.039380
 0.730000   0.010011   -0.039568
 0.735000   0.009812   -0.039742
 0.740000   0.009613   -0.039914
 0.745000   0.009413   -0.040089
 0.750000   0.009212   -0.040276
 0.755000   0.009010   -0.040473
 0.760000   0.008808   -0.040650
 0.765000   0.008604   -0.040806
 0.770000   0.008399   -0.040951
 0.775000   0.008194   -0.041091
 0.780000   0.007989   -0.041233
 0.785000   0.007782   -0.041368
 0.790000   0.007575   -0.041480
 0.795000   0.007367   -0.041576
 0.800000   0.007159   -0.041659
 0.805000   0.006951   -0.041729
 0.810000   0.006742   -0.041787
 0.815000   0.006533   -0.041829
 0.820000   0.006324   -0.041845
 0.825000   0.006114   -0.041833
 0.830000   0.005905   -0.041794
 0.835000   0.005696   -0.041725
 0.840000   0.005488   -0.041622
 0.845000   0.005280   -0.041482
 0.850000   0.005073   -0.041289
 0.855000   0.004867   -0.041037
 0.860000   0.004663   -0.040746
 0.865000   0.004460   -0.040439
 0.870000   0.004258   -0.040132
 0.875000   0.004058   -0.039830
 0.880000   0.003860   -0.039533
 0.885000   0.003663   -0.039239
 0.890000   0.003468   -0.038950
 0.895000   0.003274   -0.038669
 0.900000   0.003081   -0.038403
 0.905000   0.002890   -0.038158
 0.910000   0.002699   -0.037954
 0.915000   0.002510   -0.037836
 0.920000   0.002321   -0.037848
 0.925000   0.002132   -0.038003
 0.930000   0.001941   -0.038275
 0.935000   0.001749   -0.038576
 0.940000   0.001555   -0.038679
 0.945000   0.001362   -0.038152
 0.950000   0.001174   -0.036454
 0.955000   0.000998   -0.033500
 0.960000   0.000839   -0.030228
 0.965000   0.000695   -0.027265
 0.970000   0.000566   -0.023924
 0.975000   0.000456   -0.019794
 0.980000   0.000368   -0.015776
 0.985000   0.000298   -0.013092
 0.990000   0.000237   -0.011761
 0.995000   0.000181   -0.011622
 1.000000   0.000121   -0.012219
201 psinorm pb(KPa) dpb/dpsiN
 0.000000   41.184099   -12.981274
 0.005000   41.029332   -48.925547
 0.010000   40.694844   -78.385303
 0.015000   40.245479   -98.795774
 0.020000   39.706886   -114.918350
 0.025000   39.096296   -127.880614
 0.030000   38.428080   -138.534357
 0.035000   37.710952   -147.038769
 0.040000   36.957692   -153.352129
 0.045000   36.177431   -157.925179
 0.050000   35.378440   -160.922833
 0.055000   34.568202   -162.864886
 0.060000   33.749791   -163.925076
 0.065000   32.928952   -164.054296
 0.070000   32.109249   -163.466972
 0.075000   31.294282   -162.253732
 0.080000   30.486711   -160.439857
 0.085000   29.689883   -158.131628
 0.090000   28.905395   -155.481534
 0.095000   28.135068   -152.264751
 0.100000   27.382747   -148.719190
 0.105000   26.647876   -145.103616
 0.110000   25.931711   -141.285824
 0.115000   25.235018   -137.333934
 0.120000   24.558372   -133.266968
 0.125000   23.902348   -129.098359
 0.130000   23.267388   -124.783098
 0.135000   22.654517   -120.415598
 0.140000   22.063232   -116.142009
 0.145000   21.493097   -111.921234
 0.150000   20.944020   -107.730230
 0.155000   20.415795   -103.592764
 0.160000   19.908092   -99.527298
 0.165000   19.420522   -95.546248
 0.170000   18.952630   -91.662280
 0.175000   18.503899   -87.834087
 0.180000   18.074289   -84.084039
 0.185000   17.663059   -80.497451
 0.190000   17.269314   -77.060993
 0.195000   16.892449   -73.753017
 0.200000   16.531784   -70.581125
 0.205000   16.186637   -67.547497
 0.210000   15.856309   -64.653288
 0.215000   15.540105   -61.896711
 0.220000   15.237342   -59.275236
 0.225000   14.947352   -56.745152
 0.230000   14.669891   -54.192932
 0.235000   14.405423   -51.822193
 0.240000   14.151669   -49.742090
 0.245000   13.908002   -47.782407
 0.250000   13.673845   -45.936546
 0.255000   13.448637   -44.202047
 0.260000   13.231824   -42.461846
 0.265000   13.024018   -40.772252
 0.270000   12.824102   -39.307819
 0.275000   12.630940   -37.997632
 0.280000   12.444125   -36.768959
 0.285000   12.263250   -35.613854
 0.290000   12.087987   -34.411300
 0.295000   11.919137   -33.307686
 0.300000   11.754910   -32.413264
 0.305000   11.595005   -31.577616
 0.310000   11.439134   -30.794979
 0.315000   11.287055   -29.969196
 0.320000   11.139442   -29.215301
 0.325000   10.994902   -28.620900
 0.330000   10.853233   -28.065770
 0.335000   10.714244   -27.523983
 0.340000   10.577993   -26.974925
 0.345000   10.444495   -26.495926
 0.350000   10.313034   -26.100869
 0.355000   10.183486   -25.729609
 0.360000   10.055738   -25.337511
 0.365000   9.930111   -24.965368
 0.370000   9.806084   -24.662791
 0.375000   9.683483   -24.384325
 0.380000   9.562241   -24.099559
 0.385000   9.442488   -23.806978
 0.390000   9.324171   -23.543090
 0.395000   9.207057   -23.307986
 0.400000   9.091091   -23.078178
 0.405000   8.976275   -22.834031
 0.410000   8.862751   -22.604898
 0.415000   8.750226   -22.405337
 0.420000   8.638697   -22.202573
 0.425000   8.528200   -21.963478
 0.430000   8.419063   -21.723638
 0.435000   8.310964   -21.514936
 0.440000   8.203913   -21.304304
 0.445000   8.097921   -21.050370
 0.450000   7.993410   -20.794631
 0.455000   7.889974   -20.580372
 0.460000   7.787606   -20.367811
 0.465000   7.686296   -20.116168
 0.470000   7.586444   -19.864650
 0.475000   7.487650   -19.656961
 0.480000   7.389875   -19.454432
 0.485000   7.293106   -19.223918
 0.490000   7.197635   -18.997700
 0.495000   7.103129   -18.811171
 0.500000   7.009524   -18.632688
 0.505000   6.916802   -18.432318
 0.510000   6.825201   -18.232589
 0.515000   6.734476   -18.062748
 0.520000   6.644573   -17.899562
 0.525000   6.555480   -17.723509
 0.530000   6.467338   -17.548085
 0.535000   6.379999   -17.391966
 0.540000   6.293418   -17.239911
 0.545000   6.207600   -17.069435
 0.550000   6.122724   -16.894957
 0.555000   6.038651   -16.742861
 0.560000   5.955295   -16.600122
 0.565000   5.872649   -16.446601
 0.570000   5.790829   -16.287859
 0.575000   5.709771   -16.147464
 0.580000   5.629355   -16.020267
 0.585000   5.549568   -15.887858
 0.590000   5.470476   -15.748603
 0.595000   5.392082   -15.621367
 0.600000   5.314262   -15.508447
 0.605000   5.236998   -15.398123
 0.610000   5.160281   -15.284935
 0.615000   5.084148   -15.181919
 0.620000   5.008462   -15.094913
 0.625000   4.933199   -15.012601
 0.630000   4.858336   -14.931179
 0.635000   4.783887   -14.856127
 0.640000   4.709775   -14.792316
 0.645000   4.635964   -14.734114
 0.650000   4.562434   -14.680630
 0.655000   4.489158   -14.632119
 0.660000   4.416112   -14.589874
 0.665000   4.343259   -14.552752
 0.670000   4.270585   -14.518283
 0.675000   4.198076   -14.489613
 0.680000   4.125689   -14.469136
 0.685000   4.053385   -14.451880
 0.690000   3.981170   -14.435458
 0.695000   3.909030   -14.422109
 0.700000   3.836949   -14.417577
 0.705000   3.764855   -14.418114
 0.710000   3.692768   -14.416948
 0.715000   3.620685   -14.417146
 0.720000   3.548596   -14.419494
 0.725000   3.476490   -14.429716
 0.730000   3.404299   -14.443032
 0.735000   3.332060   -14.452271
 0.740000   3.259776   -14.461477
 0.745000   3.187445   -14.471145
 0.750000   3.115065   -14.484335
 0.755000   3.042602   -14.499045
 0.760000   2.970074   -14.507192
 0.765000   2.897530   -14.507943
 0.770000   2.824995   -14.504333
 0.775000   2.752487   -14.498969
 0.780000   2.680005   -14.494091
 0.785000   2.607546   -14.486301
 0.790000   2.535142   -14.472974
 0.795000   2.462816   -14.455830
 0.800000   2.390584   -14.434988
 0.805000   2.318466   -14.410326
 0.810000   2.246481   -14.381243
 0.815000   2.174654   -14.344488
 0.820000   2.103036   -14.298906
 0.825000   2.031664   -14.245353
 0.830000   1.960582   -14.182599
 0.835000   1.889839   -14.109463
 0.840000   1.819488   -14.024734
 0.845000   1.749591   -13.927114
 0.850000   1.680217   -13.809561
 0.855000   1.611496   -13.670010
 0.860000   1.543516   -13.517829
 0.865000   1.476317   -13.358378
 0.870000   1.409933   -13.193427
 0.875000   1.344383   -13.024332
 0.880000   1.279689   -12.850526
 0.885000   1.215878   -12.672207
 0.890000   1.152967   -12.491658
 0.895000   1.090961   -12.311431
 0.900000   1.029853   -12.135433
 0.905000   0.969607   -11.966074
 0.910000   0.910192   -11.814745
 0.915000   0.851459   -11.709160
 0.920000   0.793101   -11.674265
 0.925000   0.734717   -11.723444
 0.930000   0.675866   -11.868448
 0.935000   0.616032   -12.104405
 0.940000   0.554822   -12.363393
 0.945000   0.492398   -12.452986
 0.950000   0.430292   -12.059562
 0.955000   0.371803   -11.061521
 0.960000   0.319677   -10.000094
 0.965000   0.271802   -9.497191
 0.970000   0.224705   -9.251060
 0.975000   0.179291   -8.569530
 0.980000   0.139010   -7.387005
 0.985000   0.105421   -6.083750
 0.990000   0.078172   -4.838028
 0.995000   0.057041   -3.941861
 1.000000   0.038754   -3.372951
201 psinorm ptot(KPa) dptot/dpsiN
 0.000000   93.373663   -68.115166
 0.005000   92.961354   -96.808480
 0.010000   92.405578   -120.763762
 0.015000   91.753716   -137.940835
 0.020000   91.026170   -151.739224
 0.025000   90.236324   -163.070436
 0.030000   89.395466   -172.619481
 0.035000   88.510129   -180.493669
 0.040000   87.590529   -186.626118
 0.045000   86.643868   -191.392637
 0.050000   85.676603   -194.916517
 0.055000   84.694703   -197.619821
 0.060000   83.700404   -199.657793
 0.065000   82.698125   -200.970358
 0.070000   81.690701   -201.713453
 0.075000   80.680991   -201.965898
 0.080000   79.671042   -201.738376
 0.085000   78.663607   -201.104337
 0.090000   77.659998   -200.187474
 0.095000   76.661732   -198.805407
 0.100000   75.671944   -197.145267
 0.105000   74.690279   -195.405542
 0.110000   73.717889   -193.474901
 0.115000   72.755530   -191.406222
 0.120000   71.803827   -189.209862
 0.125000   70.863432   -186.893772
 0.130000   69.934889   -184.425288
 0.135000   69.019179   -181.877757
 0.140000   68.116111   -179.355687
 0.145000   67.225622   -176.817734
 0.150000   66.347934   -174.241113
 0.155000   65.483211   -171.640286
 0.160000   64.631531   -169.025962
 0.165000   63.792951   -166.399629
 0.170000   62.967535   -163.765251
 0.175000   62.155299   -161.088166
 0.180000   61.356653   -158.389413
 0.185000   60.571405   -155.733404
 0.190000   59.799319   -153.099820
 0.195000   59.040406   -150.471193
 0.200000   58.294607   -147.869724
 0.205000   57.561709   -145.312513
 0.210000   56.841482   -142.806412
 0.215000   56.133645   -140.360148
 0.220000   55.437881   -137.980300
 0.225000   54.753842   -135.643339
 0.230000   54.081447   -133.262710
 0.235000   53.421215   -131.004520
 0.240000   52.771402   -128.959107
 0.245000   52.131624   -126.986504
 0.250000   51.501537   -125.083610
 0.255000   50.880788   -123.255246
 0.260000   50.268985   -121.374281
 0.265000   49.667045   -119.467442
 0.270000   49.074310   -117.693152
 0.275000   48.490113   -115.990736
 0.280000   47.914403   -114.299468
 0.285000   47.347119   -112.614385
 0.290000   46.788259   -110.823123
 0.295000   46.238888   -109.048280
 0.300000   45.697776   -107.390758
 0.305000   45.164980   -105.720862
 0.310000   44.640568   -104.034863
 0.315000   44.124631   -102.249877
 0.320000   43.618069   -100.518920
 0.325000   43.119442   -98.962714
 0.330000   42.628442   -97.468065
 0.335000   42.144761   -96.013767
 0.340000   41.668304   -94.582365
 0.345000   41.198938   -93.254891
 0.350000   40.735755   -92.037938
 0.355000   40.278558   -90.858514
 0.360000   39.827170   -89.676154
 0.365000   39.381797   -88.523407
 0.370000   38.941936   -87.438896
 0.375000   38.507408   -86.397389
 0.380000   38.077962   -85.344220
 0.385000   37.653966   -84.231927
 0.390000   37.235643   -83.093195
 0.395000   36.823034   -81.930881
 0.400000   36.416334   -80.727264
 0.405000   36.015761   -79.458506
 0.410000   35.621749   -78.154472
 0.415000   35.234216   -76.861161
 0.420000   34.853137   -75.572527
 0.425000   34.478491   -74.266197
 0.430000   34.110475   -72.980976
 0.435000   33.748681   -71.735339
 0.440000   33.393122   -70.508543
 0.445000   33.043596   -69.296273
 0.450000   32.700159   -68.137001
 0.455000   32.362226   -67.060878
 0.460000   32.029550   -66.034721
 0.465000   31.701879   -65.018250
 0.470000   31.379368   -64.053088
 0.475000   31.061348   -63.192487
 0.480000   30.747443   -62.395157
 0.485000   30.437396   -61.619743
 0.490000   30.131246   -60.889129
 0.495000   29.828505   -60.225807
 0.500000   29.528987   -59.587384
 0.505000   29.232631   -58.938789
 0.510000   28.939600   -58.303585
 0.515000   28.649595   -57.711489
 0.520000   28.362485   -57.142587
 0.525000   28.078169   -56.580386
 0.530000   27.796681   -56.036824
 0.535000   27.517801   -55.526292
 0.540000   27.241418   -55.034010
 0.545000   26.967461   -54.539953
 0.550000   26.696018   -54.056297
 0.555000   26.426898   -53.605784
 0.560000   26.159961   -53.176490
 0.565000   25.895133   -52.747918
 0.570000   25.632481   -52.322963
 0.575000   25.371904   -51.922728
 0.580000   25.113254   -51.541676
 0.585000   24.856487   -51.162366
 0.590000   24.601630   -50.782692
 0.595000   24.348660   -50.419535
 0.600000   24.097435   -50.075957
 0.605000   23.847900   -49.742248
 0.610000   23.600013   -49.412988
 0.615000   23.353770   -49.098565
 0.620000   23.109027   -48.803770
 0.625000   22.865733   -48.515542
 0.630000   22.623872   -48.227558
 0.635000   22.383457   -47.944527
 0.640000   22.144426   -47.669692
 0.645000   21.906760   -47.397110
 0.650000   21.670455   -47.126087
 0.655000   21.435499   -46.858670
 0.660000   21.201868   -46.598738
 0.665000   20.969512   -46.346091
 0.670000   20.738408   -46.095931
 0.675000   20.508553   -45.845767
 0.680000   20.279950   -45.586675
 0.685000   20.052686   -45.298073
 0.690000   19.826969   -44.971234
 0.695000   19.602974   -44.610912
 0.700000   19.380860   -44.225867
 0.705000   19.160715   -43.819660
 0.710000   18.942663   -43.386019
 0.715000   18.726855   -42.946430
 0.720000   18.513199   -42.529319
 0.725000   18.301562   -42.141168
 0.730000   18.091787   -41.777494
 0.735000   17.883787   -41.437587
 0.740000   17.677412   -41.129736
 0.745000   17.472489   -40.865390
 0.750000   17.268758   -40.655525
 0.755000   17.065934   -40.497701
 0.760000   16.863781   -40.385473
 0.765000   16.662079   -40.317092
 0.770000   16.460610   -40.300021
 0.775000   16.259079   -40.325694
 0.780000   16.057353   -40.349070
 0.785000   15.855588   -40.346725
 0.790000   15.653886   -40.323621
 0.795000   15.452352   -40.277863
 0.800000   15.251107   -40.209796
 0.805000   15.050254   -40.114529
 0.810000   14.849962   -39.986361
 0.815000   14.650391   -39.838273
 0.820000   14.451579   -39.689192
 0.825000   14.253499   -39.548050
 0.830000   14.056098   -39.417797
 0.835000   13.859321   -39.296132
 0.840000   13.663137   -39.174184
 0.845000   13.467579   -39.048673
 0.850000   13.272650   -38.920894
 0.855000   13.078370   -38.799890
 0.860000   12.884651   -38.710976
 0.865000   12.691260   -38.693399
 0.870000   12.497717   -38.753879
 0.875000   12.303721   -38.888258
 0.880000   12.108835   -39.116215
 0.885000   11.912559   -39.452708
 0.890000   11.714308   -39.920016
 0.895000   11.513359   -40.624030
 0.900000   11.308068   -41.575816
 0.905000   11.097601   -42.772106
 0.910000   10.880346   -44.341602
 0.915000   10.654185   -46.398928
 0.920000   10.416357   -49.074768
 0.925000   10.163437   -52.641496
 0.930000   9.889942   -57.190161
 0.935000   9.591536   -63.120880
 0.940000   9.258733   -72.514284
 0.945000   8.866393   -91.687844
 0.950000   8.341855   -134.023824
 0.955000   7.526154   -204.994873
 0.960000   6.291906   -266.160020
 0.965000   4.864554   -266.136345
 0.970000   3.630543   -215.468604
 0.975000   2.709868   -157.932665
 0.980000   2.051216   -112.517838
 0.985000   1.584690   -79.835639
 0.990000   1.252860   -57.151310
 0.995000   1.013177   -41.939288
 1.000000   0.833467   -29.944662
201 psinorm omeg(kRad/s) domeg/dpsiN
 0.000000   62.719047   0.013126
 0.005000   62.718582   -0.198882
 0.010000   62.717058   -0.431606
 0.015000   62.714266   -0.707340
 0.020000   62.709985   -1.028609
 0.025000   62.703980   -1.396879
 0.030000   62.696016   -1.812857
 0.035000   62.685852   -2.276595
 0.040000   62.673250   -2.785849
 0.045000   62.657993   -3.339566
 0.050000   62.639854   -3.937976
 0.055000   62.618613   -4.579420
 0.060000   62.594060   -5.262004
 0.065000   62.565993   -5.982813
 0.070000   62.534232   -6.731352
 0.075000   62.498680   -7.505454
 0.080000   62.459177   -8.312083
 0.085000   62.415559   -9.151457
 0.090000   62.367663   -10.024273
 0.095000   62.315316   -10.932110
 0.100000   62.258342   -11.870058
 0.105000   62.196616   -12.836572
 0.110000   62.129976   -13.832990
 0.115000   62.058286   -14.854899
 0.120000   61.981427   -15.903448
 0.125000   61.899251   -16.987137
 0.130000   61.811556   -18.120133
 0.135000   61.718050   -19.313688
 0.140000   61.618419   -20.558552
 0.145000   61.512465   -21.840038
 0.150000   61.400018   -23.154273
 0.155000   61.280922   -24.499492
 0.160000   61.155023   -25.872644
 0.165000   61.022195   -27.264596
 0.170000   60.882377   -28.665353
 0.175000   60.735542   -30.068400
 0.180000   60.581693   -31.468164
 0.185000   60.420860   -32.860545
 0.190000   60.253088   -34.236110
 0.195000   60.078499   -35.584872
 0.200000   59.897239   -36.907758
 0.205000   59.709422   -38.180939
 0.210000   59.515430   -39.362497
 0.215000   59.315797   -40.425337
 0.220000   59.111177   -41.327933
 0.225000   58.902517   -42.012712
 0.230000   58.691049   -42.556133
 0.235000   58.476956   -43.021494
 0.240000   58.260834   -43.374872
 0.245000   58.043207   -43.631852
 0.250000   57.824516   -43.790586
 0.255000   57.605301   -43.796663
 0.260000   57.386549   -43.750608
 0.265000   57.167795   -43.726506
 0.270000   56.949284   -43.665633
 0.275000   56.731139   -43.593628
 0.280000   56.513348   -43.533687
 0.285000   56.295802   -43.493183
 0.290000   56.078416   -43.581058
 0.295000   55.859991   -43.842834
 0.300000   55.639988   -44.197657
 0.305000   55.418015   -44.608528
 0.310000   55.193903   -45.024688
 0.315000   54.967768   -45.387225
 0.320000   54.740030   -45.666713
 0.325000   54.511101   -45.869225
 0.330000   54.281338   -46.000044
 0.335000   54.051100   -46.059732
 0.340000   53.820741   -46.050098
 0.345000   53.590599   -45.941814
 0.350000   53.361323   -45.763696
 0.355000   53.132963   -45.563229
 0.360000   52.905690   -45.328239
 0.365000   52.679680   -45.062651
 0.370000   52.455064   -44.775114
 0.375000   52.231929   -44.451835
 0.380000   52.010545   -44.120335
 0.385000   51.790726   -43.805428
 0.390000   51.572491   -43.476184
 0.395000   51.355964   -43.122918
 0.400000   51.141262   -42.748277
 0.405000   50.928481   -42.344427
 0.410000   50.717818   -41.999149
 0.415000   50.508490   -41.907504
 0.420000   50.298743   -42.215408
 0.425000   50.086335   -42.996565
 0.430000   49.868777   -44.277134
 0.435000   49.643564   -46.226386
 0.440000   49.406513   -48.816550
 0.445000   49.155399   -51.625384
 0.450000   48.890259   -54.505743
 0.455000   48.610341   -57.491238
 0.460000   48.315347   -60.487641
 0.465000   48.005465   -63.573424
 0.470000   47.679613   -66.616296
 0.475000   47.339302   -69.071938
 0.480000   46.988893   -70.837511
 0.485000   46.630927   -72.064509
 0.490000   46.268248   -72.700265
 0.495000   45.903924   -72.731529
 0.500000   45.540933   -72.093275
 0.505000   45.182991   -70.803259
 0.510000   44.832900   -69.103007
 0.515000   44.491961   -67.177274
 0.520000   44.161128   -65.086224
 0.525000   43.841099   -62.861876
 0.530000   43.532509   -60.509872
 0.535000   43.236000   -58.117484
 0.540000   42.951334   -55.765613
 0.545000   42.678344   -53.464304
 0.550000   42.416691   -51.246698
 0.555000   42.165877   -49.135457
 0.560000   41.925336   -47.134521
 0.565000   41.694532   -45.325401
 0.570000   41.472082   -43.755675
 0.575000   41.256975   -42.395143
 0.580000   41.048131   -41.256052
 0.585000   40.844415   -40.349178
 0.590000   40.644639   -39.682855
 0.595000   40.447586   -39.219987
 0.600000   40.252439   -38.911034
 0.605000   40.058476   -38.748735
 0.610000   39.864952   -38.737434
 0.615000   39.671101   -38.881534
 0.620000   39.476137   -39.147662
 0.625000   39.279625   -39.559682
 0.630000   39.080540   -40.156993
 0.635000   38.878055   -40.915996
 0.640000   38.671380   -41.830653
 0.645000   38.459748   -42.896809
 0.650000   38.242412   -44.090503
 0.655000   38.018843   -45.500945
 0.660000   37.787402   -47.236105
 0.665000   37.546482   -49.301843
 0.670000   37.294384   -51.722069
 0.675000   37.029262   -54.521024
 0.680000   36.749174   -57.784425
 0.685000   36.451417   -61.341492
 0.690000   36.135759   -64.851427
 0.695000   35.802903   -68.205988
 0.700000   35.453699   -71.372035
 0.705000   35.089183   -74.335532
 0.710000   34.710344   -77.128076
 0.715000   34.317902   -79.821437
 0.720000   33.912129   -82.452019
 0.725000   33.493382   -84.995691
 0.730000   33.062172   -87.425998
 0.735000   32.619122   -89.720909
 0.740000   32.164963   -91.877028
 0.745000   31.700352   -93.900233
 0.750000   31.225961   -95.832793
 0.755000   30.742024   -97.827548
 0.760000   30.247685   -100.054094
 0.765000   29.741483   -102.592087
 0.770000   29.221764   -105.604855
 0.775000   28.685434   -108.948599
 0.780000   28.132278   -111.742343
 0.785000   27.568011   -113.512042
 0.790000   26.997158   -114.291969
 0.795000   26.425091   -113.936823
 0.800000   25.857790   -112.423999
 0.805000   25.300851   -109.694992
 0.810000   24.760840   -105.555284
 0.815000   24.245298   -100.228375
 0.820000   23.758556   -94.161650
 0.825000   23.303682   -87.608215
 0.830000   22.882474   -80.823000
 0.835000   22.495452   -74.006055
 0.840000   22.142413   -67.361118
 0.845000   21.821840   -61.233714
 0.850000   21.530076   -56.014287
 0.855000   21.261698   -52.025684
 0.860000   21.009819   -49.554340
 0.865000   20.766154   -48.972443
 0.870000   20.520095   -50.506186
 0.875000   20.261092   -54.323555
 0.880000   19.976860   -60.802527
 0.885000   19.653067   -70.377870
 0.890000   19.273081   -83.507596
 0.895000   18.817991   -101.188803
 0.900000   18.261193   -123.176431
 0.905000   17.586227   -148.677568
 0.910000   16.774417   -177.415559
 0.915000   15.812071   -208.050334
 0.920000   14.693914   -238.549947
 0.925000   13.426572   -267.011357
 0.930000   12.023800   -289.070432
 0.935000   10.535867   -300.183629
 0.940000   9.021964   -298.505402
 0.945000   7.550813   -282.975928
 0.950000   6.192205   -254.423468
 0.955000   5.006579   -215.185161
 0.960000   4.040353   -169.861717
 0.965000   3.307962   -124.150864
 0.970000   2.798844   -82.377487
 0.975000   2.484187   -47.539601
 0.980000   2.323448   -21.216484
 0.985000   2.272022   -3.612775
 0.990000   2.287321   6.166019
 0.995000   2.333682   9.820535
 1.000000   2.385526   10.917044
201 psinorm omegp(kRad/s) domegp/dpsiN
 0.000000   0.002559   133.136873
 0.005000   0.540047   81.858254
 0.010000   0.821142   54.135921
 0.015000   1.081406   51.655346
 0.020000   1.337695   51.115269
 0.025000   1.592559   50.474385
 0.030000   1.842439   49.041228
 0.035000   2.082971   47.388393
 0.040000   2.316323   45.696284
 0.045000   2.539934   43.760050
 0.050000   2.753923   41.971814
 0.055000   2.959652   40.493510
 0.060000   3.158859   39.240071
 0.065000   3.352053   38.057812
 0.070000   3.539437   36.864825
 0.075000   3.720701   35.507207
 0.080000   3.894509   33.911628
 0.085000   4.059817   31.997337
 0.090000   4.214482   29.967314
 0.095000   4.359491   27.926698
 0.100000   4.493749   25.873981
 0.105000   4.618230   24.001304
 0.110000   4.733762   22.300025
 0.115000   4.841231   20.828982
 0.120000   4.942052   19.593874
 0.125000   5.037169   18.650849
 0.130000   5.128560   17.871382
 0.135000   5.215883   17.205681
 0.140000   5.300617   16.642096
 0.145000   5.382304   16.128681
 0.150000   5.461904   15.517908
 0.155000   5.537483   14.603499
 0.160000   5.607939   13.506871
 0.165000   5.672552   12.188937
 0.170000   5.729828   10.751917
 0.175000   5.780071   9.114412
 0.180000   5.820973   7.419112
 0.185000   5.854262   5.706285
 0.190000   5.878035   3.918800
 0.195000   5.893450   2.252530
 0.200000   5.900561   0.576435
 0.205000   5.899215   -0.926876
 0.210000   5.891292   -2.304289
 0.215000   5.876172   -3.569369
 0.220000   5.855598   -4.714722
 0.225000   5.829024   -5.981668
 0.230000   5.795782   -7.197781
 0.235000   5.757047   -8.502099
 0.240000   5.710761   -9.982131
 0.245000   5.657225   -11.427836
 0.250000   5.596482   -12.963552
 0.255000   5.527590   -14.460966
 0.260000   5.451873   -15.879849
 0.265000   5.368791   -17.326303
 0.270000   5.278610   -18.557764
 0.275000   5.183214   -19.723718
 0.280000   5.081372   -20.953584
 0.285000   4.973678   -22.033420
 0.290000   4.861038   -23.124902
 0.295000   4.742429   -24.284981
 0.300000   4.618188   -25.398357
 0.305000   4.488445   -26.598706
 0.310000   4.352201   -27.878672
 0.315000   4.209659   -29.162839
 0.320000   4.060573   -30.578938
 0.325000   3.903869   -32.026699
 0.330000   3.740306   -33.319259
 0.335000   3.570677   -34.489667
 0.340000   3.395409   -35.463656
 0.345000   3.216040   -36.164938
 0.350000   3.033760   -36.598171
 0.355000   2.850058   -36.831010
 0.360000   2.665450   -37.034613
 0.365000   2.479712   -37.332403
 0.370000   2.292126   -37.751927
 0.375000   2.102193   -38.289577
 0.380000   1.909230   -39.108357
 0.385000   1.711109   -40.243560
 0.390000   1.506794   -41.517837
 0.395000   1.295931   -42.864541
 0.400000   1.078149   -44.207411
 0.405000   0.853857   -45.398892
 0.410000   0.624160   -46.609267
 0.415000   0.387764   -48.376736
 0.420000   0.140393   -51.244349
 0.425000   -0.124679   -55.494767
 0.430000   -0.414555   -61.143068
 0.435000   -0.736110   -68.275310
 0.440000   -1.097308   -77.300610
 0.445000   -1.509116   -86.692054
 0.450000   -1.964229   -95.061397
 0.455000   -2.459730   -102.584436
 0.460000   -2.990073   -108.630080
 0.465000   -3.546031   -112.665806
 0.470000   -4.116731   -113.909826
 0.475000   -4.685129   -111.501060
 0.480000   -5.231742   -105.722873
 0.485000   -5.742358   -97.447861
 0.490000   -6.206220   -87.347156
 0.495000   -6.615829   -75.594927
 0.500000   -6.962170   -62.986734
 0.505000   -7.245697   -51.552051
 0.510000   -7.477690   -41.860240
 0.515000   -7.664299   -33.578033
 0.520000   -7.813470   -26.975047
 0.525000   -7.934050   -21.980740
 0.530000   -8.033278   -18.680826
 0.535000   -8.120858   -16.819532
 0.540000   -8.201473   -15.672950
 0.545000   -8.277587   -14.753033
 0.550000   -8.349003   -13.834141
 0.555000   -8.415929   -13.067938
 0.560000   -8.479683   -12.303795
 0.565000   -8.538967   -11.285633
 0.570000   -8.592539   -10.085034
 0.575000   -8.639817   -8.809485
 0.580000   -8.680634   -7.360673
 0.585000   -8.713424   -5.703793
 0.590000   -8.737672   -4.000217
 0.595000   -8.753426   -2.272467
 0.600000   -8.760397   -0.518580
 0.605000   -8.758612   1.164459
 0.610000   -8.748752   2.642080
 0.615000   -8.732191   3.958475
 0.620000   -8.709167   5.151759
 0.625000   -8.680673   6.113305
 0.630000   -8.648034   6.874632
 0.635000   -8.611927   7.536230
 0.640000   -8.572672   8.114675
 0.645000   -8.530780   8.555736
 0.650000   -8.487115   8.966286
 0.655000   -8.441117   9.421639
 0.660000   -8.392898   9.828231
 0.665000   -8.342835   10.166506
 0.670000   -8.291233   10.484398
 0.675000   -8.237991   10.799860
 0.680000   -8.183235   11.086385
 0.685000   -8.127127   11.433602
 0.690000   -8.068898   11.944858
 0.695000   -8.007679   12.631717
 0.700000   -7.942581   13.536169
 0.705000   -7.872317   14.679746
 0.710000   -7.795784   15.872904
 0.715000   -7.713588   16.936515
 0.720000   -7.626419   17.819876
 0.725000   -7.535389   18.447553
 0.730000   -7.441943   18.753851
 0.735000   -7.347851   18.553527
 0.740000   -7.256408   17.775805
 0.745000   -7.170093   16.562211
 0.750000   -7.090786   15.018568
 0.755000   -7.019907   13.245305
 0.760000   -6.958333   11.338925
 0.765000   -6.906518   9.488919
 0.770000   -6.863444   7.866067
 0.775000   -6.827857   6.496240
 0.780000   -6.798481   5.371276
 0.785000   -6.774144   4.436507
 0.790000   -6.754116   3.593688
 0.795000   -6.738207   2.721833
 0.800000   -6.726898   1.709859
 0.805000   -6.721109   0.488303
 0.810000   -6.722015   -0.980345
 0.815000   -6.730912   -2.668198
 0.820000   -6.748697   -4.579794
 0.825000   -6.776710   -6.585584
 0.830000   -6.814553   -8.491195
 0.835000   -6.861622   -10.173139
 0.840000   -6.916284   -11.467022
 0.845000   -6.976292   -12.267409
 0.850000   -7.038958   -12.462114
 0.855000   -7.100914   -12.020752
 0.860000   -7.159166   -11.078345
 0.865000   -7.211697   -9.818430
 0.870000   -7.257350   -8.377105
 0.875000   -7.295468   -6.840014
 0.880000   -7.325750   -5.315341
 0.885000   -7.348621   -3.962326
 0.890000   -7.365373   -2.778860
 0.895000   -7.376410   -1.685720
 0.900000   -7.382230   -0.686491
 0.905000   -7.383275   0.211691
 0.910000   -7.380114   1.056498
 0.915000   -7.372710   1.900728
 0.920000   -7.361106   2.790834
 0.925000   -7.344802   3.833317
 0.930000   -7.322773   5.028775
 0.935000   -7.294514   6.568855
 0.940000   -7.257085   10.069438
 0.945000   -7.193820   16.244236
 0.950000   -7.094642   23.523229
 0.955000   -6.958587   33.111183
 0.960000   -6.763530   48.476307
 0.965000   -6.473824   73.427510
 0.970000   -6.029255   110.717306
 0.975000   -5.366651   161.566525
 0.980000   -4.413590   224.720721
 0.985000   -3.119444   295.694778
 0.990000   -1.456642   362.845906
 0.995000   0.509015   404.437906
 1.000000   2.587737   427.050761
201 psinorm omgvb(kRad/s) domgvb/dpsiN
 0.000000   62.721606   133.149998
 0.005000   63.258629   81.659372
 0.010000   63.538200   53.704315
 0.015000   63.795673   50.948006
 0.020000   64.047680   50.086661
 0.025000   64.296539   49.077506
 0.030000   64.538455   47.228372
 0.035000   64.768823   45.111798
 0.040000   64.989573   42.910435
 0.045000   65.197927   40.420484
 0.050000   65.393778   38.033838
 0.055000   65.578266   35.914090
 0.060000   65.752919   33.978067
 0.065000   65.918046   32.074999
 0.070000   66.073669   30.133473
 0.075000   66.219381   28.001753
 0.080000   66.353686   25.599546
 0.085000   66.475376   22.845880
 0.090000   66.582145   19.943041
 0.095000   66.674807   16.994587
 0.100000   66.752091   14.003923
 0.105000   66.814846   11.164733
 0.110000   66.863738   8.467035
 0.115000   66.899516   5.974083
 0.120000   66.923479   3.690426
 0.125000   66.936421   1.663712
 0.130000   66.940116   -0.248751
 0.135000   66.933933   -2.108007
 0.140000   66.919036   -3.916456
 0.145000   66.894769   -5.711357
 0.150000   66.861922   -7.636365
 0.155000   66.818405   -9.895994
 0.160000   66.762962   -12.365772
 0.165000   66.694747   -15.075659
 0.170000   66.612206   -17.913436
 0.175000   66.515613   -20.953988
 0.180000   66.402666   -24.049053
 0.185000   66.275122   -27.154260
 0.190000   66.131123   -30.317309
 0.195000   65.971949   -33.332342
 0.200000   65.797800   -36.331322
 0.205000   65.608636   -39.107815
 0.210000   65.406722   -41.666785
 0.215000   65.191968   -43.994707
 0.220000   64.966775   -46.042654
 0.225000   64.731542   -47.994380
 0.230000   64.486831   -49.753913
 0.235000   64.234003   -51.523593
 0.240000   63.971595   -53.357003
 0.245000   63.700433   -55.059689
 0.250000   63.420998   -56.754138
 0.255000   63.132891   -58.257629
 0.260000   62.838422   -59.630458
 0.265000   62.536587   -61.052809
 0.270000   62.227894   -62.223397
 0.275000   61.914353   -63.317347
 0.280000   61.594720   -64.487271
 0.285000   61.269480   -65.526603
 0.290000   60.939454   -66.705960
 0.295000   60.602420   -68.127814
 0.300000   60.258176   -69.596014
 0.305000   59.906460   -71.207234
 0.310000   59.546104   -72.903359
 0.315000   59.177427   -74.550064
 0.320000   58.800603   -76.245651
 0.325000   58.414970   -77.895923
 0.330000   58.021644   -79.319303
 0.335000   57.621777   -80.549399
 0.340000   57.216150   -81.513755
 0.345000   56.806639   -82.106752
 0.350000   56.395082   -82.361867
 0.355000   55.983021   -82.394240
 0.360000   55.571140   -82.362852
 0.365000   55.159392   -82.395054
 0.370000   54.747189   -82.527041
 0.375000   54.334122   -82.741412
 0.380000   53.919775   -83.228693
 0.385000   53.501835   -84.048988
 0.390000   53.079285   -84.994021
 0.395000   52.651895   -85.987459
 0.400000   52.219411   -86.955688
 0.405000   51.782338   -87.743319
 0.410000   51.341978   -88.608415
 0.415000   50.896254   -90.284240
 0.420000   50.439135   -93.459758
 0.425000   49.961656   -98.491333
 0.430000   49.454222   -105.420202
 0.435000   48.907454   -114.501696
 0.440000   48.309205   -126.117161
 0.445000   47.646283   -138.317438
 0.450000   46.926031   -149.567140
 0.455000   46.150611   -160.075674
 0.460000   45.325274   -169.117721
 0.465000   44.459434   -176.239230
 0.470000   43.562882   -180.526122
 0.475000   42.654173   -180.572997
 0.480000   41.757152   -176.560384
 0.485000   40.888569   -169.512370
 0.490000   40.062028   -160.047421
 0.495000   39.288095   -148.326456
 0.500000   38.578763   -135.080009
 0.505000   37.937295   -122.355311
 0.510000   37.355210   -110.963246
 0.515000   36.827662   -100.755306
 0.520000   36.347657   -92.061271
 0.525000   35.907049   -84.842616
 0.530000   35.499231   -79.190699
 0.535000   35.115142   -74.937016
 0.540000   34.749861   -71.438562
 0.545000   34.400757   -68.217336
 0.550000   34.067688   -65.080839
 0.555000   33.749948   -62.203395
 0.560000   33.445654   -59.438317
 0.565000   33.155565   -56.611034
 0.570000   32.879543   -53.840708
 0.575000   32.617158   -51.204628
 0.580000   32.367497   -48.616725
 0.585000   32.130991   -46.052971
 0.590000   31.906967   -43.683072
 0.595000   31.694160   -41.492455
 0.600000   31.492043   -39.429614
 0.605000   31.299864   -37.584276
 0.610000   31.116200   -36.095354
 0.615000   30.938910   -34.923059
 0.620000   30.766969   -33.995904
 0.625000   30.598951   -33.446376
 0.630000   30.432506   -33.282361
 0.635000   30.266128   -33.379766
 0.640000   30.098708   -33.715979
 0.645000   29.928968   -34.341073
 0.650000   29.755297   -35.124217
 0.655000   29.577726   -36.079305
 0.660000   29.394504   -37.407874
 0.665000   29.203647   -39.135338
 0.670000   29.003151   -41.237671
 0.675000   28.791270   -43.721163
 0.680000   28.565939   -46.698041
 0.685000   28.324290   -49.907890
 0.690000   28.066860   -52.906569
 0.695000   27.795224   -55.574270
 0.700000   27.511118   -57.835866
 0.705000   27.216866   -59.655786
 0.710000   26.914560   -61.255172
 0.715000   26.604314   -62.884922
 0.720000   26.285710   -64.632143
 0.725000   25.957992   -66.548137
 0.730000   25.620229   -68.672147
 0.735000   25.271271   -71.167382
 0.740000   24.908555   -74.101223
 0.745000   24.530259   -77.338023
 0.750000   24.135175   -80.814224
 0.755000   23.722117   -84.582243
 0.760000   23.289353   -88.715169
 0.765000   22.834965   -93.103168
 0.770000   22.358321   -97.738788
 0.775000   21.857577   -102.452359
 0.780000   21.333797   -106.371067
 0.785000   20.793866   -109.075536
 0.790000   20.243042   -110.698281
 0.795000   19.686883   -111.214989
 0.800000   19.130892   -110.714140
 0.805000   18.579742   -109.206689
 0.810000   18.038825   -106.535629
 0.815000   17.514386   -102.896574
 0.820000   17.009859   -98.741444
 0.825000   16.526971   -94.193799
 0.830000   16.067921   -89.314194
 0.835000   15.633829   -84.179193
 0.840000   15.226130   -78.828139
 0.845000   14.845548   -73.501124
 0.850000   14.491118   -68.476400
 0.855000   14.160784   -64.046435
 0.860000   13.850654   -60.632685
 0.865000   13.554457   -58.790873
 0.870000   13.262745   -58.883291
 0.875000   12.965624   -61.163569
 0.880000   12.651110   -66.117868
 0.885000   12.304446   -74.340196
 0.890000   11.907708   -86.286455
 0.895000   11.441581   -102.874523
 0.900000   10.878962   -123.862922
 0.905000   10.202952   -148.465878
 0.910000   9.394304   -176.359062
 0.915000   8.439361   -206.149606
 0.920000   7.332807   -235.759112
 0.925000   6.081770   -263.178040
 0.930000   4.701027   -284.041657
 0.935000   3.241354   -293.614774
 0.940000   1.764879   -288.435964
 0.945000   0.356994   -266.731692
 0.950000   -0.902438   -230.900239
 0.955000   -1.952009   -182.073978
 0.960000   -2.723177   -121.385410
 0.965000   -3.165863   -50.723353
 0.970000   -3.230411   28.339819
 0.975000   -2.882464   114.026924
 0.980000   -2.090142   203.504237
 0.985000   -0.847422   292.082004
 0.990000   0.830678   369.011925
 0.995000   2.842697   414.258441
 1.000000   4.973263   437.967805
201 psinorm omgpp(kRad/s) domgpp/dpsiN
 0.000000   -0.034889   -17.357024
 0.005000   -0.140510   -24.891534
 0.010000   -0.283804   -28.935284
 0.015000   -0.429863   -29.454563
 0.020000   -0.578350   -29.895289
 0.025000   -0.728816   -30.243259
 0.030000   -0.880782   -30.512735
 0.035000   -1.033943   -30.705445
 0.040000   -1.187837   -30.811521
 0.045000   -1.342058   -30.838533
 0.050000   -1.496222   -30.780414
 0.055000   -1.649862   -30.639108
 0.060000   -1.802613   -30.460855
 0.065000   -1.954471   -30.212038
 0.070000   -2.104733   -29.867445
 0.075000   -2.253145   -29.485679
 0.080000   -2.399590   -29.095070
 0.085000   -2.544096   -28.743146
 0.090000   -2.687022   -28.447089
 0.095000   -2.828567   -28.114024
 0.100000   -2.968162   -27.695662
 0.105000   -3.105524   -27.216236
 0.110000   -3.240324   -26.671409
 0.115000   -3.372238   -26.107619
 0.120000   -3.501401   -25.534038
 0.125000   -3.627578   -24.985020
 0.130000   -3.751251   -24.450124
 0.135000   -3.872079   -23.824543
 0.140000   -3.989496   -23.064004
 0.145000   -4.102719   -22.228733
 0.150000   -4.211783   -21.124367
 0.155000   -4.313963   -19.819223
 0.160000   -4.409976   -18.528916
 0.165000   -4.499252   -17.128353
 0.170000   -4.581259   -15.623954
 0.175000   -4.655492   -13.885422
 0.180000   -4.720113   -12.111108
 0.185000   -4.776603   -10.462183
 0.190000   -4.824735   -8.784711
 0.195000   -4.864450   -7.128823
 0.200000   -4.896024   -5.554640
 0.205000   -4.919996   -4.003074
 0.210000   -4.936054   -3.004702
 0.215000   -4.950043   -2.474612
 0.220000   -4.960800   -1.824421
 0.225000   -4.968288   -1.204907
 0.230000   -4.972849   -0.649612
 0.235000   -4.974784   -0.371917
 0.240000   -4.976569   -0.126295
 0.245000   -4.976047   0.476656
 0.250000   -4.971802   1.253557
 0.255000   -4.963511   2.153108
 0.260000   -4.950271   3.225382
 0.265000   -4.931257   4.251318
 0.270000   -4.907758   5.568836
 0.275000   -4.875569   7.306718
 0.280000   -4.834691   8.921873
 0.285000   -4.786350   10.413951
 0.290000   -4.730551   11.904424
 0.295000   -4.667306   13.489456
 0.300000   -4.595657   15.392130
 0.305000   -4.513385   17.270420
 0.310000   -4.422952   18.602491
 0.315000   -4.327360   19.319560
 0.320000   -4.229757   19.449067
 0.325000   -4.132869   19.145600
 0.330000   -4.038301   18.431363
 0.335000   -3.948555   17.600476
 0.340000   -3.862296   17.005451
 0.345000   -3.778501   16.541871
 0.350000   -3.696877   16.142794
 0.355000   -3.617073   15.639181
 0.360000   -3.540485   14.966032
 0.365000   -3.467413   14.990325
 0.370000   -3.390582   15.465046
 0.375000   -3.312762   15.773784
 0.380000   -3.232844   16.325910
 0.385000   -3.149503   17.132773
 0.390000   -3.061517   18.412034
 0.395000   -2.965383   20.162729
 0.400000   -2.859889   21.586708
 0.405000   -2.749516   22.413120
 0.410000   -2.635758   22.918682
 0.415000   -2.520329   23.132559
 0.420000   -2.404433   23.443594
 0.425000   -2.285893   22.840121
 0.430000   -2.176031   21.541974
 0.435000   -2.070473   20.643221
 0.440000   -1.969599   19.672428
 0.445000   -1.873749   18.633146
 0.450000   -1.783268   17.992971
 0.455000   -1.693819   16.630184
 0.460000   -1.616966   14.677922
 0.465000   -1.547040   13.276283
 0.470000   -1.484203   11.836635
 0.475000   -1.428674   10.354830
 0.480000   -1.380655   8.803758
 0.485000   -1.340636   7.091734
 0.490000   -1.309737   5.654766
 0.495000   -1.284088   4.729238
 0.500000   -1.262445   3.967348
 0.505000   -1.244415   3.235419
 0.510000   -1.230091   2.415304
 0.515000   -1.220262   1.533427
 0.520000   -1.214757   0.693831
 0.525000   -1.213324   -0.106241
 0.530000   -1.215819   -0.874950
 0.535000   -1.222073   -1.610497
 0.540000   -1.231924   -2.340398
 0.545000   -1.245477   -3.020722
 0.550000   -1.262131   -3.635340
 0.555000   -1.281830   -4.247093
 0.560000   -1.304602   -4.853041
 0.565000   -1.330361   -5.441988
 0.570000   -1.359022   -6.031098
 0.575000   -1.390672   -6.577503
 0.580000   -1.424797   -7.040059
 0.585000   -1.461072   -7.454736
 0.590000   -1.499344   -7.834243
 0.595000   -1.539415   -8.177935
 0.600000   -1.581124   -8.495834
 0.605000   -1.624373   -8.798776
 0.610000   -1.669111   -9.093658
 0.615000   -1.715310   -9.394884
 0.620000   -1.763060   -9.706492
 0.625000   -1.812375   -10.017429
 0.630000   -1.863235   -10.374199
 0.635000   -1.916117   -10.769875
 0.640000   -1.970933   -10.981779
 0.645000   -2.025934   -11.068876
 0.650000   -2.081622   -11.192057
 0.655000   -2.137855   -11.282419
 0.660000   -2.194446   -11.400931
 0.665000   -2.251864   -11.706774
 0.670000   -2.311514   -12.168522
 0.675000   -2.373550   -13.015592
 0.680000   -2.441670   -14.280971
 0.685000   -2.516359   -15.565949
 0.690000   -2.597329   -16.923075
 0.695000   -2.685590   -18.765945
 0.700000   -2.784989   -19.160950
 0.705000   -2.877200   -18.383033
 0.710000   -2.968819   -18.042334
 0.715000   -3.057623   -17.224112
 0.720000   -3.141060   -15.955834
 0.725000   -3.217181   -14.576355
 0.730000   -3.286824   -11.638408
 0.735000   -3.333565   -7.693393
 0.740000   -3.363758   -4.225274
 0.745000   -3.375818   -0.509406
 0.750000   -3.368852   3.302375
 0.755000   -3.342794   7.898300
 0.760000   -3.289869   11.730791
 0.765000   -3.225486   14.012445
 0.770000   -3.149744   15.924877
 0.775000   -3.066238   17.117860
 0.780000   -2.978566   17.609019
 0.785000   -2.890147   18.013478
 0.790000   -2.798431   16.988307
 0.795000   -2.720264   14.840190
 0.800000   -2.650029   13.276078
 0.805000   -2.587504   11.754219
 0.810000   -2.532487   10.351332
 0.815000   -2.483990   9.237871
 0.820000   -2.440108   8.927565
 0.825000   -2.394715   9.127690
 0.830000   -2.348831   9.073658
 0.835000   -2.303978   8.769016
 0.840000   -2.261141   8.270748
 0.845000   -2.221271   7.673313
 0.850000   -2.184408   6.487567
 0.855000   -2.156395   4.349181
 0.860000   -2.140916   1.704065
 0.865000   -2.139354   -1.314911
 0.870000   -2.154065   -4.843541
 0.875000   -2.187790   -9.917647
 0.880000   -2.253242   -16.214520
 0.885000   -2.349935   -21.844548
 0.890000   -2.471687   -27.979236
 0.895000   -2.629727   -35.899424
 0.900000   -2.830682   -45.216414
 0.905000   -3.081891   -58.678638
 0.910000   -3.417468   -76.128733
 0.915000   -3.843179   -91.685827
 0.920000   -4.334326   -108.907285
 0.925000   -4.932251   -132.603264
 0.930000   -5.660359   -161.648005
 0.935000   -6.548732   -202.543736
 0.940000   -7.685796   -256.099825
 0.945000   -9.109730   -300.341538
 0.950000   -10.689212   -336.090461
 0.955000   -12.470634   -368.565771
 0.960000   -14.374869   -377.940797
 0.965000   -16.250042   -354.421403
 0.970000   -17.919083   -284.907083
 0.975000   -19.099113   -142.754029
 0.980000   -19.346624   35.566566
 0.985000   -18.743448   195.355503
 0.990000   -17.393069   320.992602
 0.995000   -15.533521   390.962294
 1.000000   -13.483446   429.068044
201 psinorm omgeb(kRad/s) domgeb/dpsiN
 0.000000   62.686717   115.792974
 0.005000   63.118119   56.767839
 0.010000   63.254396   24.769031
 0.015000   63.365810   21.493443
 0.020000   63.469330   20.191372
 0.025000   63.567723   18.834247
 0.030000   63.657673   16.715637
 0.035000   63.734880   14.406353
 0.040000   63.801736   12.098915
 0.045000   63.855869   9.581951
 0.050000   63.897556   7.253424
 0.055000   63.928403   5.274982
 0.060000   63.950305   3.517212
 0.065000   63.963575   1.862961
 0.070000   63.968935   0.266029
 0.075000   63.966236   -1.483926
 0.080000   63.954096   -3.495524
 0.085000   63.931280   -5.897266
 0.090000   63.895123   -8.504048
 0.095000   63.846240   -11.119436
 0.100000   63.783929   -13.691739
 0.105000   63.709322   -16.051504
 0.110000   63.623414   -18.204374
 0.115000   63.527279   -20.133536
 0.120000   63.422078   -21.843612
 0.125000   63.308843   -23.321308
 0.130000   63.188865   -24.698876
 0.135000   63.061854   -25.932551
 0.140000   62.929540   -26.980460
 0.145000   62.792049   -27.940090
 0.150000   62.650139   -28.760732
 0.155000   62.504442   -29.715217
 0.160000   62.352987   -30.894688
 0.165000   62.195495   -32.204012
 0.170000   62.030947   -33.537389
 0.175000   61.860121   -34.839410
 0.180000   61.682553   -36.160161
 0.185000   61.498520   -37.616443
 0.190000   61.306388   -39.102020
 0.195000   61.107499   -40.461165
 0.200000   60.901776   -41.885963
 0.205000   60.688640   -43.110889
 0.210000   60.470668   -44.671487
 0.215000   60.241925   -46.469318
 0.220000   60.005974   -47.867075
 0.225000   59.763254   -49.199286
 0.230000   59.513982   -50.403526
 0.235000   59.259219   -51.895510
 0.240000   58.995026   -53.483298
 0.245000   58.724386   -54.583032
 0.250000   58.449196   -55.500580
 0.255000   58.169380   -56.104520
 0.260000   57.888151   -56.405075
 0.265000   57.605329   -56.801491
 0.270000   57.320136   -56.654561
 0.275000   57.038784   -56.010629
 0.280000   56.760030   -55.565398
 0.285000   56.483130   -55.112652
 0.290000   56.208903   -54.801536
 0.295000   55.935114   -54.638359
 0.300000   55.662520   -54.203883
 0.305000   55.393075   -53.936814
 0.310000   55.123151   -54.300868
 0.315000   54.850067   -55.230504
 0.320000   54.570846   -56.796584
 0.325000   54.282101   -58.750324
 0.330000   53.983343   -60.887941
 0.335000   53.673222   -62.948923
 0.340000   53.353854   -64.508304
 0.345000   53.028139   -65.564881
 0.350000   52.698205   -66.219073
 0.355000   52.365948   -66.755059
 0.360000   52.030655   -67.396820
 0.365000   51.691980   -67.404729
 0.370000   51.356607   -67.061995
 0.375000   51.021360   -66.967627
 0.380000   50.686931   -66.902782
 0.385000   50.352332   -66.916215
 0.390000   50.017769   -66.581986
 0.395000   49.686512   -65.824729
 0.400000   49.359522   -65.368979
 0.405000   49.032822   -65.330199
 0.410000   48.706220   -65.689734
 0.415000   48.375925   -67.151681
 0.420000   48.034703   -70.016164
 0.425000   47.675763   -75.651211
 0.430000   47.278191   -83.878228
 0.435000   46.836981   -93.858475
 0.440000   46.339606   -106.444733
 0.445000   45.772534   -119.684291
 0.450000   45.142763   -131.574169
 0.455000   44.456792   -143.445489
 0.460000   43.708308   -154.439798
 0.465000   42.912394   -162.962947
 0.470000   42.078679   -168.689487
 0.475000   41.225499   -170.218167
 0.480000   40.376497   -167.756626
 0.485000   39.547933   -162.420636
 0.490000   38.752291   -154.392656
 0.495000   38.004006   -143.597218
 0.500000   37.316318   -131.112661
 0.505000   36.692880   -119.119891
 0.510000   36.125119   -108.547942
 0.515000   35.607400   -99.221879
 0.520000   35.132901   -91.367440
 0.525000   34.693726   -84.948857
 0.530000   34.283412   -80.065648
 0.535000   33.893069   -76.547513
 0.540000   33.517937   -73.778960
 0.545000   33.155280   -71.238059
 0.550000   32.805556   -68.716179
 0.555000   32.468118   -66.450488
 0.560000   32.141051   -64.291358
 0.565000   31.825204   -62.053022
 0.570000   31.520521   -59.871806
 0.575000   31.226486   -57.782131
 0.580000   30.942700   -55.656784
 0.585000   30.669918   -53.507707
 0.590000   30.407623   -51.517316
 0.595000   30.154745   -49.670390
 0.600000   29.910919   -47.925448
 0.605000   29.675491   -46.383052
 0.610000   29.447088   -45.189012
 0.615000   29.223601   -44.317943
 0.620000   29.003909   -43.702396
 0.625000   28.786577   -43.463806
 0.630000   28.569271   -43.656560
 0.635000   28.350011   -44.149641
 0.640000   28.127775   -44.697757
 0.645000   27.903034   -45.409949
 0.650000   27.673675   -46.316274
 0.655000   27.439871   -47.361724
 0.660000   27.200058   -48.808805
 0.665000   26.951783   -50.842111
 0.670000   26.691637   -53.406193
 0.675000   26.417721   -56.736755
 0.680000   26.124269   -60.979012
 0.685000   25.807931   -65.473839
 0.690000   25.469531   -69.829643
 0.695000   25.109634   -74.340215
 0.700000   24.726129   -76.996816
 0.705000   24.339666   -78.038819
 0.710000   23.945740   -79.297506
 0.715000   23.546691   -80.109034
 0.720000   23.144650   -80.587977
 0.725000   22.740811   -81.124493
 0.730000   22.333405   -80.310555
 0.735000   21.937706   -78.860775
 0.740000   21.544797   -78.326497
 0.745000   21.154441   -77.847429
 0.750000   20.766323   -77.511849
 0.755000   20.379322   -76.683943
 0.760000   19.999484   -76.984378
 0.765000   19.609479   -79.090723
 0.770000   19.208576   -81.813911
 0.775000   18.791339   -85.334499
 0.780000   18.355232   -88.762048
 0.785000   17.903719   -91.062057
 0.790000   17.444611   -93.709974
 0.795000   16.966619   -96.374800
 0.800000   16.480863   -97.438061
 0.805000   15.992239   -97.452470
 0.810000   15.506338   -96.184297
 0.815000   15.030396   -93.658703
 0.820000   14.569751   -89.813878
 0.825000   14.132257   -85.066109
 0.830000   13.719090   -80.240536
 0.835000   13.329851   -75.410177
 0.840000   12.964988   -70.557391
 0.845000   12.624278   -65.827811
 0.850000   12.306710   -61.988834
 0.855000   12.004389   -59.697254
 0.860000   11.709738   -58.928620
 0.865000   11.415103   -60.105784
 0.870000   11.108680   -63.726832
 0.875000   10.777835   -71.081216
 0.880000   10.397868   -82.332387
 0.885000   9.954511   -96.184744
 0.890000   9.436020   -114.265692
 0.895000   8.811854   -138.773947
 0.900000   8.048281   -169.079336
 0.905000   7.121061   -207.144515
 0.910000   5.976836   -252.487795
 0.915000   4.596183   -297.835434
 0.920000   2.998481   -344.666397
 0.925000   1.149519   -395.781304
 0.930000   -0.959332   -445.689661
 0.935000   -3.307378   -496.158510
 0.940000   -5.920917   -544.535789
 0.945000   -8.752736   -567.073230
 0.950000   -11.591649   -566.990700
 0.955000   -14.422643   -550.639749
 0.960000   -17.098047   -499.326207
 0.965000   -19.415905   -405.144756
 0.970000   -21.149494   -256.567264
 0.975000   -21.981578   -28.727105
 0.980000   -21.436765   239.070803
 0.985000   -19.590870   487.437506
 0.990000   -16.562390   690.004527
 0.995000   -12.690824   805.220735
 1.000000   -8.510183   867.035848
201 psinorm er(kV/m) der/dpsiN
 0.000000   0.952266   1106.019823
 0.005000   5.419512   680.878283
 0.010000   7.761049   415.766443
 0.015000   9.577176   334.818365
 0.020000   11.109233   289.910852
 0.025000   12.476285   260.738252
 0.030000   13.716615   238.039075
 0.035000   14.856675   220.008501
 0.040000   15.916700   205.486279
 0.045000   16.911538   193.385084
 0.050000   17.850551   182.925003
 0.055000   18.740788   174.780110
 0.060000   19.598352   166.908546
 0.065000   20.409874   158.163974
 0.070000   21.179992   151.774220
 0.075000   21.927616   146.925142
 0.080000   22.649243   139.669218
 0.085000   23.324308   134.467027
 0.090000   23.993914   130.028989
 0.095000   24.624598   122.773387
 0.100000   25.221648   119.584891
 0.105000   25.820447   113.508199
 0.110000   26.356730   109.554250
 0.115000   26.915989   105.555642
 0.120000   27.412286   101.289152
 0.125000   27.928881   97.511167
 0.130000   28.387398   93.879152
 0.135000   28.867672   90.131780
 0.140000   29.288715   87.227471
 0.145000   29.739947   83.419683
 0.150000   30.122912   81.185918
 0.155000   30.551806   77.242000
 0.160000   30.895332   73.883066
 0.165000   31.290637   72.608366
 0.170000   31.621416   67.608887
 0.175000   31.966726   67.012942
 0.180000   32.291545   61.619042
 0.185000   32.582916   60.855547
 0.190000   32.900101   55.715010
 0.195000   33.140066   53.147877
 0.200000   33.431580   52.568418
 0.205000   33.665750   46.962640
 0.210000   33.901206   47.564157
 0.215000   34.141392   41.305743
 0.220000   34.314263   39.257651
 0.225000   34.533968   38.960626
 0.230000   34.703870   33.126269
 0.235000   34.865231   34.273182
 0.240000   35.046601   28.142678
 0.245000   35.146658   25.075761
 0.250000   35.297359   27.843915
 0.255000   35.425097   21.115819
 0.260000   35.508517   20.647431
 0.265000   35.631571   20.710802
 0.270000   35.715625   15.844393
 0.275000   35.790015   17.658759
 0.280000   35.892213   15.512405
 0.285000   35.945139   12.296192
 0.290000   36.015175   15.303968
 0.295000   36.098179   10.969406
 0.300000   36.124869   8.759164
 0.305000   36.185771   12.506159
 0.310000   36.249930   6.816898
 0.315000   36.253940   4.311663
 0.320000   36.293047   6.947032
 0.325000   36.323410   0.150132
 0.330000   36.294548   -2.927721
 0.335000   36.294133   -0.998096
 0.340000   36.284567   -7.196888
 0.345000   36.222164   -9.550047
 0.350000   36.189067   -7.032985
 0.355000   36.151834   -11.845357
 0.360000   36.070613   -14.053597
 0.365000   36.011298   -11.683821
 0.370000   35.953775   -14.829153
 0.375000   35.863007   -16.752213
 0.380000   35.786253   -15.082279
 0.385000   35.712184   -17.220280
 0.390000   35.614050   -19.244430
 0.395000   35.519739   -17.907901
 0.400000   35.434971   -18.397807
 0.405000   35.335761   -20.876670
 0.410000   35.226205   -21.189672
 0.415000   35.123865   -22.045354
 0.420000   35.005751   -26.633390
 0.425000   34.857531   -31.430820
 0.430000   34.691443   -36.688355
 0.435000   34.490647   -46.511199
 0.440000   34.226331   -57.058730
 0.445000   33.920060   -66.209806
 0.450000   33.564233   -76.748084
 0.455000   33.152579   -87.318235
 0.460000   32.691050   -95.840334
 0.465000   32.194176   -102.981648
 0.470000   31.661234   -109.237037
 0.475000   31.101805   -111.345839
 0.480000   30.547776   -109.619404
 0.485000   30.005611   -107.439350
 0.490000   29.473382   -102.531550
 0.495000   28.980296   -94.271799
 0.500000   28.530664   -85.809603
 0.505000   28.122200   -77.915187
 0.510000   27.751512   -70.174498
 0.515000   27.420455   -63.188512
 0.520000   27.119627   -58.374991
 0.525000   26.836705   -54.032773
 0.530000   26.579299   -50.056078
 0.535000   26.336144   -48.178931
 0.540000   26.097510   -46.857541
 0.545000   25.867569   -44.891432
 0.550000   25.648596   -43.102652
 0.555000   25.436542   -42.318487
 0.560000   25.225411   -41.002430
 0.565000   25.026518   -38.977134
 0.570000   24.835640   -38.023656
 0.575000   24.646281   -37.030477
 0.580000   24.465335   -35.208428
 0.585000   24.294197   -33.617126
 0.590000   24.129163   -32.932171
 0.595000   23.964875   -31.713089
 0.600000   23.812033   -29.945093
 0.605000   23.665424   -29.369135
 0.610000   23.518341   -29.008971
 0.615000   23.375335   -28.099154
 0.620000   23.237350   -27.538453
 0.625000   23.099950   -28.258965
 0.630000   22.954760   -28.629651
 0.635000   22.813654   -28.494983
 0.640000   22.669810   -29.455086
 0.645000   22.519103   -30.688672
 0.650000   22.362924   -31.247380
 0.655000   22.206629   -31.781142
 0.660000   22.045112   -33.917143
 0.665000   21.867458   -35.874266
 0.670000   21.686369   -37.319056
 0.675000   21.494267   -40.339956
 0.680000   21.282970   -44.641996
 0.685000   21.047847   -48.267685
 0.690000   20.800293   -51.317081
 0.695000   20.534676   -55.812322
 0.700000   20.242170   -58.547785
 0.705000   19.949198   -58.936585
 0.710000   19.652804   -59.792351
 0.715000   19.351275   -61.711787
 0.720000   19.035686   -62.303969
 0.725000   18.728235   -61.842561
 0.730000   18.417260   -61.709692
 0.735000   18.111138   -61.456932
 0.740000   17.802691   -60.809320
 0.745000   17.503045   -59.813078
 0.750000   17.204560   -60.460872
 0.755000   16.898436   -60.333495
 0.760000   16.601225   -59.995714
 0.765000   16.298479   -61.538992
 0.770000   15.985836   -65.007126
 0.775000   15.648408   -68.147171
 0.780000   15.304364   -70.164090
 0.785000   14.946767   -72.498278
 0.790000   14.579381   -75.597819
 0.795000   14.190789   -77.783546
 0.800000   13.801546   -78.183696
 0.805000   13.408952   -78.832989
 0.810000   13.013216   -78.363163
 0.815000   12.625320   -75.992327
 0.820000   12.253292   -72.543403
 0.825000   11.899886   -69.329647
 0.830000   11.559996   -65.599929
 0.835000   11.243887   -61.075704
 0.840000   10.949239   -56.979342
 0.845000   10.674094   -53.806493
 0.850000   10.411174   -50.678052
 0.855000   10.167313   -48.175130
 0.860000   9.929423   -47.799217
 0.865000   9.689321   -49.423032
 0.870000   9.435192   -52.461232
 0.875000   9.164709   -58.322398
 0.880000   8.851968   -68.330256
 0.885000   8.481406   -80.681640
 0.890000   8.045152   -95.948267
 0.895000   7.521923   -116.634660
 0.900000   6.878805   -143.318640
 0.905000   6.088737   -176.483198
 0.910000   5.113973   -215.003447
 0.915000   3.938702   -253.757432
 0.920000   2.576399   -295.261387
 0.925000   0.986089   -339.810874
 0.930000   -0.821710   -382.190180
 0.935000   -2.835813   -425.966827
 0.940000   -5.081378   -470.920839
 0.945000   -7.545022   -491.167264
 0.950000   -9.993051   -489.513426
 0.955000   -12.440156   -484.023761
 0.960000   -14.833288   -475.163947
 0.965000   -17.191795   -391.968640
 0.970000   -18.752975   -232.029940
 0.975000   -19.512095   -31.829273
 0.980000   -19.071267   198.774208
 0.985000   -17.524353   423.756324
 0.990000   -14.833704   613.947965
 0.995000   -11.384873   720.593418
 1.000000   -7.627770   782.247817
201 psinorm ommvb() dommvb/dpsiN
 0.000000   98.618044   16139.254772
 0.005000   171.130918   12865.894710
 0.010000   227.276991   10023.965876
 0.015000   271.370577   8124.477904
 0.020000   308.521770   6779.840365
 0.025000   339.168980   5840.642729
 0.030000   366.928198   5194.382750
 0.035000   391.112808   4472.261464
 0.040000   411.650812   3806.576641
 0.045000   429.178574   3226.997946
 0.050000   443.920792   2771.353059
 0.055000   456.892105   2453.291672
 0.060000   468.453708   2156.331764
 0.065000   478.455422   1842.567556
 0.070000   486.879384   1552.948012
 0.075000   493.984902   1341.833954
 0.080000   500.297723   1088.453597
 0.085000   504.869438   763.160432
 0.090000   507.929328   579.439381
 0.095000   510.663832   446.480567
 0.100000   512.394133   241.393555
 0.105000   513.077768   -76.249538
 0.110000   511.631638   -270.231650
 0.115000   510.375451   -309.250444
 0.120000   508.539134   -444.674169
 0.125000   505.928710   -597.009921
 0.130000   502.569034   -742.525607
 0.135000   498.503454   -875.176147
 0.140000   493.817273   -995.600499
 0.145000   488.547449   -1109.992021
 0.150000   482.717353   -1213.931111
 0.155000   476.408137   -1303.936141
 0.160000   469.677991   -1383.191948
 0.165000   462.576218   -1451.579141
 0.170000   455.162200   -1508.709554
 0.175000   447.489122   -1540.886693
 0.180000   439.753333   -1560.887305
 0.185000   431.880249   -1603.434992
 0.190000   423.718983   -1642.753276
 0.195000   415.452717   -1656.298811
 0.200000   407.155995   -1659.059009
 0.205000   398.862127   -1813.698171
 0.210000   389.019013   -1829.410919
 0.215000   380.568017   -1646.800941
 0.220000   372.551004   -1585.234798
 0.225000   364.715669   -1547.685201
 0.230000   357.074152   -1509.387558
 0.235000   349.621794   -1467.047296
 0.240000   342.403679   -1471.040092
 0.245000   334.911393   -1586.660057
 0.250000   326.537078   -1463.119000
 0.255000   320.280203   -1222.714519
 0.260000   314.309933   -1167.471486
 0.265000   308.605488   -1113.771878
 0.270000   303.172214   -1113.807583
 0.275000   297.467412   -1200.735914
 0.280000   291.164855   -1062.180019
 0.285000   286.845612   -837.484879
 0.290000   282.790006   -787.800295
 0.295000   278.967609   -738.339358
 0.300000   275.406613   -848.844066
 0.305000   270.479168   -773.309304
 0.310000   267.673520   -538.749677
 0.315000   265.091672   -496.424601
 0.320000   262.709274   -473.631213
 0.325000   260.355359   -534.339558
 0.330000   257.365878   -455.310483
 0.335000   255.802255   -297.261419
 0.340000   254.393264   -266.921417
 0.345000   253.133040   -288.511068
 0.350000   251.508153   -289.063757
 0.355000   250.242403   -193.507612
 0.360000   249.573077   -123.847303
 0.365000   249.003930   -112.909588
 0.370000   248.443981   -153.929640
 0.375000   247.464633   -113.963736
 0.380000   247.304344   -27.524421
 0.385000   247.189389   -19.274419
 0.390000   247.111600   -76.543159
 0.395000   246.423958   -63.618820
 0.400000   246.475412   23.071214
 0.405000   246.654670   38.119383
 0.410000   246.856605   1.609658
 0.415000   246.670766   -20.429061
 0.420000   246.652315   12.524747
 0.425000   246.796014   21.756184
 0.430000   246.869877   -31.582270
 0.435000   246.480191   -85.162168
 0.440000   246.018255   -68.196686
 0.445000   245.798224   -52.791163
 0.450000   245.490343   -106.112017
 0.455000   244.737104   -162.559460
 0.460000   243.864749   -138.805475
 0.465000   243.349049   -107.266447
 0.470000   242.792084   -143.461207
 0.475000   241.914437   -186.947998
 0.480000   240.922604   -143.179118
 0.485000   240.482646   -82.089841
 0.490000   240.101706   -94.404347
 0.495000   239.538603   -117.737753
 0.500000   238.924328   -65.691868
 0.505000   238.881684   -1.545496
 0.510000   238.908873   -9.073256
 0.515000   238.790951   -41.884799
 0.520000   238.490025   3.361525
 0.525000   238.824567   70.878909
 0.530000   239.198815   60.088563
 0.535000   239.425452   10.345930
 0.540000   239.302274   25.638683
 0.545000   239.681839   79.028132
 0.550000   240.092555   77.676163
 0.555000   240.458601   36.139267
 0.560000   240.453948   55.696421
 0.565000   241.015565   116.100981
 0.570000   241.614958   124.044029
 0.575000   242.256005   88.188157
 0.580000   242.496839   104.441917
 0.585000   243.300424   166.724115
 0.590000   244.164080   178.322492
 0.595000   245.083649   156.541530
 0.600000   245.729496   169.421179
 0.605000   246.777861   230.595505
 0.610000   248.035451   261.142653
 0.615000   249.389288   267.858354
 0.620000   250.714034   282.087150
 0.625000   252.210159   326.313592
 0.630000   253.977170   364.388129
 0.635000   255.854040   386.444292
 0.640000   257.841613   404.178240
 0.645000   259.895823   440.463573
 0.650000   262.246249   481.806376
 0.655000   264.713887   506.541812
 0.660000   267.311667   538.416246
 0.665000   270.098049   572.851973
 0.670000   273.040187   604.089503
 0.675000   276.138944   637.765479
 0.680000   279.417841   674.661875
 0.685000   282.885563   720.256725
 0.690000   286.620409   760.357844
 0.695000   290.489141   789.657763
 0.700000   294.516986   828.466632
 0.705000   298.773808   874.867955
 0.710000   303.265666   945.934858
 0.715000   308.233156   1001.061346
 0.720000   313.276279   1031.684999
 0.725000   318.550006   1082.894164
 0.730000   324.105221   1142.090513
 0.735000   329.970911   1227.802695
 0.740000   336.383248   1301.762476
 0.745000   342.988536   1346.118010
 0.750000   349.844428   1403.240383
 0.755000   357.020940   1468.604845
 0.760000   364.530476   1539.050437
 0.765000   372.411444   1610.999590
 0.770000   380.640472   1671.321463
 0.775000   389.124659   1738.521794
 0.780000   398.025690   1824.385128
 0.785000   407.368510   1916.684852
 0.790000   417.192539   2017.986612
 0.795000   427.548376   2125.639071
 0.800000   438.448930   2228.736062
 0.805000   449.835737   2339.068025
 0.810000   461.839610   2464.809064
 0.815000   474.483828   2595.685200
 0.820000   487.796462   2732.085712
 0.825000   501.804685   2871.606782
 0.830000   516.512530   2975.468841
 0.835000   531.559373   3103.390324
 0.840000   547.546433   3270.055165
 0.845000   564.259925   3416.176021
 0.850000   581.708193   3562.806668
 0.855000   599.887991   3712.396220
 0.860000   618.832155   3883.016328
 0.865000   638.718155   4117.267550
 0.870000   660.004831   4384.591174
 0.875000   682.564066   4651.452076
 0.880000   706.519352   5063.424484
 0.885000   733.198311   5596.285733
 0.890000   762.482209   6166.970813
 0.895000   794.868019   6874.124196
 0.900000   831.223451   7794.329877
 0.905000   872.811318   9033.430486
 0.910000   921.557756   10777.461037
 0.915000   980.585929   13335.290892
 0.920000   1054.910665   17042.211135
 0.925000   1151.008040   22215.479668
 0.930000   1277.065461   29278.166393
 0.935000   1443.789704   38134.006864
 0.940000   1658.405530   46721.947545
 0.945000   1911.009179   49277.787161
 0.950000   2151.183401   39981.523804
 0.955000   2310.824417   30643.406056
 0.960000   2457.617462   52280.540895
 0.965000   2833.629826   97608.131539
 0.970000   3433.698777   111746.050425
 0.975000   3951.090331   76615.761118
 0.980000   4199.856389   31626.791523
 0.985000   4267.358246   7925.024110
 0.990000   4279.106630   2718.335075
 0.995000   4294.541597   219724.652595
 1.000000   6476.353156   652999.971058
201 psinorm ommpp() dommpp/dpsiN
 0.000000   -35.931327   -16023.461798
 0.005000   -108.012798   -12809.126872
 0.010000   -164.022596   -9999.196845
 0.015000   -208.004767   -8102.984461
 0.020000   -245.052440   -6759.648993
 0.025000   -275.601257   -5821.808482
 0.030000   -303.270525   -5177.667113
 0.035000   -327.377928   -4457.855111
 0.040000   -347.849076   -3794.477727
 0.045000   -365.322705   -3217.415996
 0.050000   -380.023236   -2764.099635
 0.055000   -392.963702   -2448.016691
 0.060000   -404.503403   -2152.814553
 0.065000   -414.491847   -1840.704594
 0.070000   -422.910449   -1552.681983
 0.075000   -430.018667   -1343.317880
 0.080000   -436.343628   -1091.949122
 0.085000   -440.938158   -769.057698
 0.090000   -444.034205   -587.943430
 0.095000   -446.817592   -457.600003
 0.100000   -448.610205   -255.085295
 0.105000   -449.368445   60.198034
 0.110000   -448.008224   252.027277
 0.115000   -446.848173   289.116909
 0.120000   -445.117055   422.830557
 0.125000   -442.619867   573.688614
 0.130000   -439.380169   717.826731
 0.135000   -435.441600   849.243596
 0.140000   -430.887733   968.620039
 0.145000   -425.755399   1082.051932
 0.150000   -420.067214   1185.170379
 0.155000   -413.903696   1274.220924
 0.160000   -407.325005   1352.297260
 0.165000   -400.380723   1419.375129
 0.170000   -393.131253   1475.172165
 0.175000   -385.629001   1506.047282
 0.180000   -378.070780   1524.727144
 0.185000   -370.381730   1565.818548
 0.190000   -362.412595   1603.651256
 0.195000   -354.345217   1615.837646
 0.200000   -346.254219   1617.173046
 0.205000   -338.173487   1770.587282
 0.210000   -328.548346   1784.739432
 0.215000   -320.326093   1600.331622
 0.220000   -312.545029   1537.367723
 0.225000   -304.952415   1498.485914
 0.230000   -297.560170   1458.984032
 0.235000   -290.362575   1415.151786
 0.240000   -283.408652   1417.556793
 0.245000   -276.187007   1532.077024
 0.250000   -268.087882   1407.618420
 0.255000   -262.110823   1166.609999
 0.260000   -256.421782   1111.066411
 0.265000   -251.000159   1056.970386
 0.270000   -245.852078   1057.153022
 0.275000   -240.428629   1144.725286
 0.280000   -234.404826   1006.614621
 0.285000   -230.362482   782.372227
 0.290000   -226.581103   732.998759
 0.295000   -223.032495   683.701000
 0.300000   -219.744093   794.640183
 0.305000   -215.086093   719.372489
 0.310000   -212.550368   484.448809
 0.315000   -210.241605   441.194097
 0.320000   -208.138427   416.834629
 0.325000   -206.073259   475.589234
 0.330000   -203.382535   394.422542
 0.335000   -202.129033   234.312497
 0.340000   -201.039410   202.413113
 0.345000   -200.104902   222.946187
 0.350000   -198.809948   222.844684
 0.355000   -197.876455   126.752553
 0.360000   -197.542423   56.450483
 0.365000   -197.311950   45.504858
 0.370000   -197.087374   86.867645
 0.375000   -196.443274   46.996108
 0.380000   -196.617413   -39.378362
 0.385000   -196.837057   -47.641796
 0.390000   -197.093831   9.961173
 0.395000   -196.737446   -2.205909
 0.400000   -197.115890   -88.440193
 0.405000   -197.621848   -103.449582
 0.410000   -198.150386   -67.299391
 0.415000   -198.294842   -46.722620
 0.420000   -198.617612   -82.540911
 0.425000   -199.120251   -97.407395
 0.430000   -199.591686   -52.295957
 0.435000   -199.643210   -8.696307
 0.440000   -199.678649   -38.248047
 0.445000   -200.025691   -66.893129
 0.450000   -200.347580   -25.462152
 0.455000   -200.280312   19.113971
 0.460000   -200.156441   -15.634323
 0.465000   -200.436655   -55.696499
 0.470000   -200.713406   -25.228280
 0.475000   -200.688938   16.729831
 0.480000   -200.546107   -24.577508
 0.485000   -200.934713   -80.330795
 0.490000   -201.349415   -59.988308
 0.495000   -201.534596   -25.859465
 0.500000   -201.608010   -65.420793
 0.505000   -202.188804   -117.574396
 0.510000   -202.783754   -99.474686
 0.515000   -203.183551   -57.337080
 0.520000   -203.357125   -94.728965
 0.525000   -204.130841   -155.827766
 0.530000   -204.915402   -140.154211
 0.535000   -205.532383   -86.893443
 0.540000   -205.784337   -99.417644
 0.545000   -206.526559   -150.266191
 0.550000   -207.286999   -146.392342
 0.555000   -207.990483   -102.589755
 0.560000   -208.312896   -119.987779
 0.565000   -209.190361   -178.154003
 0.570000   -210.094436   -183.915835
 0.575000   -211.029519   -145.970288
 0.580000   -211.554139   -160.098701
 0.585000   -212.630506   -220.231822
 0.590000   -213.756457   -229.839807
 0.595000   -214.928904   -206.211920
 0.600000   -215.818577   -217.346628
 0.605000   -217.102370   -276.978557
 0.610000   -218.588362   -306.331665
 0.615000   -220.165687   -312.176296
 0.620000   -221.710125   -325.789546
 0.625000   -223.423582   -369.777397
 0.630000   -225.407899   -408.044689
 0.635000   -227.504029   -430.593933
 0.640000   -229.713838   -448.875997
 0.645000   -231.992789   -485.873522
 0.650000   -234.572574   -528.122651
 0.655000   -237.274016   -553.903536
 0.660000   -240.111609   -587.225051
 0.665000   -243.146266   -623.694085
 0.670000   -246.348550   -657.495696
 0.675000   -249.721223   -694.502234
 0.680000   -253.293572   -735.640886
 0.685000   -257.077632   -785.730564
 0.690000   -261.150878   -830.187488
 0.695000   -265.379507   -863.997978
 0.700000   -269.790858   -905.463447
 0.705000   -274.434142   -952.906774
 0.710000   -279.319925   -1025.232364
 0.715000   -284.686465   -1081.170380
 0.720000   -290.131629   -1112.272975
 0.725000   -295.809195   -1164.018657
 0.730000   -301.771816   -1222.401069
 0.735000   -308.033206   -1306.663470
 0.740000   -314.838450   -1380.088973
 0.745000   -321.834095   -1423.965440
 0.750000   -329.078105   -1480.752232
 0.755000   -336.641618   -1545.288787
 0.760000   -344.530993   -1616.034815
 0.765000   -352.801966   -1690.090314
 0.770000   -361.431896   -1753.135374
 0.775000   -370.333320   -1823.856293
 0.780000   -379.670459   -1913.147176
 0.785000   -389.464791   -2007.746909
 0.790000   -399.747928   -2111.696586
 0.795000   -410.581757   -2222.013871
 0.800000   -421.968067   -2326.174124
 0.805000   -433.843498   -2436.520495
 0.810000   -446.333272   -2560.993361
 0.815000   -459.453432   -2689.343903
 0.820000   -473.226711   -2821.899590
 0.825000   -487.672428   -2956.672891
 0.830000   -502.793439   -3055.709377
 0.835000   -518.229522   -3178.800502
 0.840000   -534.581444   -3340.612557
 0.845000   -551.635647   -3482.003832
 0.850000   -569.401483   -3624.795501
 0.855000   -587.883602   -3772.093474
 0.860000   -607.122418   -3941.944947
 0.865000   -627.303052   -4177.373334
 0.870000   -648.896151   -4448.318006
 0.875000   -671.786232   -4722.533291
 0.880000   -696.121484   -5145.756871
 0.885000   -723.243801   -5692.470477
 0.890000   -753.046189   -6281.236505
 0.895000   -786.056166   -7012.898143
 0.900000   -823.175170   -7963.409213
 0.905000   -865.690258   -9240.575002
 0.910000   -915.580920   -11029.948832
 0.915000   -975.989746   -13633.126326
 0.920000   -1051.912183   -17386.877533
 0.925000   -1149.858521   -22611.260972
 0.930000   -1278.024793   -29723.856054
 0.935000   -1447.097082   -38630.165374
 0.940000   -1664.326447   -47266.483333
 0.945000   -1919.761915   -49844.860391
 0.950000   -2162.775051   -40548.514504
 0.955000   -2325.247060   -31194.045805
 0.960000   -2474.715509   -52779.867102
 0.965000   -2853.045731   -98013.276295
 0.970000   -3454.848272   -112002.617690
 0.975000   -3973.071908   -76644.488224
 0.980000   -4221.293154   -31387.720720
 0.985000   -4286.949115   -7437.586603
 0.990000   -4295.669020   -2028.330548
 0.995000   -4307.232421   -218919.431860
 1.000000   -6484.863339   -652132.935210
201 psinorm omevb() domevb/dpsiN
 0.000000   44.466871   119.562967
 0.005000   44.918056   60.910941
 0.010000   45.075981   29.158429
 0.015000   45.209641   26.001886
 0.020000   45.336000   24.817977
 0.025000   45.457820   23.578128
 0.030000   45.571781   21.575903
 0.035000   45.673579   19.382109
 0.040000   45.765602   17.189261
 0.045000   45.845472   14.785985
 0.050000   45.913462   12.570238
 0.055000   45.971174   10.703665
 0.060000   46.020499   9.056850
 0.065000   46.061743   7.512636
 0.070000   46.095625   6.024818
 0.075000   46.121991   4.383052
 0.080000   46.139455   2.478716
 0.085000   46.146778   0.183303
 0.090000   46.141289   -2.318085
 0.095000   46.123597   -4.829016
 0.100000   46.092998   -7.297802
 0.105000   46.050619   -9.554994
 0.110000   45.997448   -11.606236
 0.115000   45.934557   -13.434719
 0.120000   45.863101   -15.045067
 0.125000   45.784106   -16.423989
 0.130000   45.698861   -17.703737
 0.135000   45.607069   -18.840551
 0.140000   45.510456   -19.792558
 0.145000   45.409143   -20.657247
 0.150000   45.303883   -21.383912
 0.155000   45.195304   -22.245385
 0.160000   45.081430   -23.332811
 0.165000   44.961976   -24.551058
 0.170000   44.835919   -25.794327
 0.175000   44.704033   -27.007211
 0.180000   44.565847   -28.239797
 0.185000   44.421635   -29.608888
 0.190000   44.269758   -31.008248
 0.195000   44.111552   -32.282150
 0.200000   43.946936   -33.622682
 0.205000   43.775326   -34.764319
 0.210000   43.599293   -36.242604
 0.215000   43.412900   -37.959101
 0.220000   43.219702   -39.276502
 0.225000   43.020134   -40.529335
 0.230000   42.814409   -41.655176
 0.235000   42.603583   -43.069740
 0.240000   42.383711   -44.581087
 0.245000   42.157772   -45.605359
 0.250000   41.927658   -46.448424
 0.255000   41.693288   -46.978859
 0.260000   41.457869   -47.206887
 0.265000   41.221219   -47.531754
 0.270000   40.982552   -47.314252
 0.275000   40.748076   -46.600725
 0.280000   40.516545   -46.086875
 0.285000   40.287207   -45.566485
 0.290000   40.060880   -45.188699
 0.295000   39.835320   -44.959826
 0.300000   39.611281   -44.460627
 0.305000   39.390714   -44.129805
 0.310000   39.169983   -44.431076
 0.315000   38.946403   -45.298898
 0.320000   38.716994   -46.804131
 0.325000   38.478362   -48.697990
 0.330000   38.230014   -50.776690
 0.335000   37.970595   -52.779718
 0.340000   37.702217   -54.282106
 0.345000   37.427774   -55.282649
 0.350000   37.149391   -55.881764
 0.355000   36.868957   -56.363629
 0.360000   36.585755   -56.952222
 0.365000   36.299434   -56.907914
 0.370000   36.016675   -56.513911
 0.375000   35.734295   -56.369222
 0.380000   35.452983   -56.255000
 0.385000   35.171745   -56.219997
 0.390000   34.890783   -55.838272
 0.395000   34.613363   -55.034457
 0.400000   34.340439   -54.533082
 0.405000   34.068032   -54.449609
 0.410000   33.795943   -54.765378
 0.415000   33.520378   -56.184487
 0.420000   33.234098   -59.007055
 0.425000   32.930307   -64.601107
 0.430000   32.588087   -72.788044
 0.435000   32.202427   -82.729127
 0.440000   31.760795   -95.277131
 0.445000   31.249656   -108.479342
 0.450000   30.676002   -120.332777
 0.455000   30.046328   -132.168555
 0.460000   29.354316   -143.128220
 0.465000   28.615046   -151.617617
 0.470000   27.838140   -157.311296
 0.475000   27.041933   -158.808002
 0.480000   26.250060   -156.315369
 0.485000   25.478779   -150.949167
 0.490000   24.740569   -142.891849
 0.495000   24.049861   -132.067946
 0.500000   23.419889   -119.555790
 0.505000   22.854303   -107.536286
 0.510000   22.344526   -96.938461
 0.515000   21.884918   -87.587378
 0.520000   21.468652   -79.708770
 0.525000   21.087830   -73.266866
 0.530000   20.735984   -68.361178
 0.535000   20.404219   -64.821403
 0.540000   20.087770   -62.032044
 0.545000   19.783898   -59.471166
 0.550000   19.493058   -56.930136
 0.555000   19.214597   -54.646115
 0.560000   18.946597   -52.469472
 0.565000   18.689902   -50.214433
 0.570000   18.444453   -48.017323
 0.575000   18.209729   -45.912556
 0.580000   17.985327   -43.772915
 0.585000   17.772000   -41.610336
 0.590000   17.569224   -39.607233
 0.595000   17.375927   -37.748377
 0.600000   17.191740   -35.992285
 0.605000   17.016004   -34.439511
 0.610000   16.847345   -33.235863
 0.615000   16.683646   -32.355949
 0.620000   16.523785   -31.732316
 0.625000   16.366323   -31.486394
 0.630000   16.208921   -31.672564
 0.635000   16.049597   -32.159804
 0.640000   15.887323   -32.702818
 0.645000   15.722569   -33.410640
 0.650000   15.553217   -34.313323
 0.655000   15.379436   -35.355852
 0.660000   15.199658   -36.800729
 0.665000   15.011428   -38.832544
 0.670000   14.811333   -41.395838
 0.675000   14.597470   -44.726312
 0.680000   14.364070   -48.969175
 0.685000   14.107778   -53.465294
 0.690000   13.829417   -57.823070
 0.695000   13.529547   -62.336285
 0.700000   13.206054   -64.996194
 0.705000   12.879586   -66.042159
 0.710000   12.545632   -67.305452
 0.715000   12.206531   -68.122215
 0.720000   11.864410   -68.607008
 0.725000   11.520461   -69.149970
 0.730000   11.172911   -68.343049
 0.735000   10.837030   -66.900822
 0.740000   10.503902   -66.374596
 0.745000   10.173284   -65.904022
 0.750000   9.844862   -65.577307
 0.755000   9.517511   -64.758540
 0.760000   9.197277   -65.068263
 0.765000   8.866829   -67.183874
 0.770000   8.525438   -69.916079
 0.775000   8.167668   -73.445135
 0.780000   7.790987   -76.880202
 0.785000   7.398866   -79.186253
 0.790000   6.999124   -81.838040
 0.795000   6.580486   -84.503660
 0.800000   6.154088   -85.563471
 0.805000   5.724851   -85.568691
 0.810000   5.298401   -84.283714
 0.815000   4.882014   -81.731385
 0.820000   4.481087   -77.847125
 0.825000   4.103542   -73.044040
 0.830000   3.750646   -68.143862
 0.835000   3.422104   -63.216394
 0.840000   3.118482   -58.241822
 0.845000   2.839686   -53.366224
 0.850000   2.584820   -49.362832
 0.855000   2.346057   -46.904415
 0.860000   2.115776   -46.000548
 0.865000   1.886052   -47.139132
 0.870000   1.644385   -50.935195
 0.875000   1.376700   -58.880141
 0.880000   1.055583   -71.476052
 0.885000   0.661939   -87.981727
 0.890000   0.175766   -110.912948
 0.895000   -0.447190   -143.861679
 0.900000   -1.262851   -188.331697
 0.905000   -2.330507   -249.464752
 0.910000   -3.757498   -331.363515
 0.915000   -5.644142   -433.148156
 0.920000   -8.088980   -565.107416
 0.925000   -11.295216   -743.180409
 0.930000   -15.520784   -987.447271
 0.935000   -21.169689   -1368.717123
 0.940000   -29.207955   -2089.394564
 0.945000   -42.063635   -3603.278233
 0.950000   -65.240737   -6263.732638
 0.955000   -104.700961   -8360.857946
 0.960000   -148.849317   -6352.689687
 0.965000   -168.227858   -926.353368
 0.970000   -158.112851   3364.249813
 0.975000   -134.585360   5116.509901
 0.980000   -106.947752   5452.846216
 0.985000   -80.056898   4985.047506
 0.990000   -57.097277   4087.312122
 0.995000   -39.183776   3123.034078
 1.000000   -25.866936   2203.702210
201 psinorm omepp() domepp/dpsiN
 0.000000   18.219846   -3.769993
 0.005000   18.200063   -4.143102
 0.010000   18.178415   -4.389398
 0.015000   18.156169   -4.508443
 0.020000   18.133330   -4.626605
 0.025000   18.109903   -4.743881
 0.030000   18.085892   -4.860266
 0.035000   18.061300   -4.975756
 0.040000   18.036134   -5.090347
 0.045000   18.010397   -5.204034
 0.050000   17.984094   -5.316814
 0.055000   17.957229   -5.428684
 0.060000   17.929807   -5.539638
 0.065000   17.901832   -5.649675
 0.070000   17.873310   -5.758789
 0.075000   17.844245   -5.866979
 0.080000   17.814640   -5.974240
 0.085000   17.784502   -6.080569
 0.090000   17.753835   -6.185964
 0.095000   17.722642   -6.290421
 0.100000   17.690930   -6.393937
 0.105000   17.658703   -6.496510
 0.110000   17.625965   -6.598138
 0.115000   17.592722   -6.698816
 0.120000   17.558977   -6.798544
 0.125000   17.524736   -6.897319
 0.130000   17.490004   -6.995138
 0.135000   17.454785   -7.092000
 0.140000   17.419084   -7.187902
 0.145000   17.382906   -7.282842
 0.150000   17.346256   -7.376820
 0.155000   17.309138   -7.469832
 0.160000   17.271557   -7.561877
 0.165000   17.233519   -7.652954
 0.170000   17.195028   -7.743062
 0.175000   17.156088   -7.832199
 0.180000   17.116706   -7.920364
 0.185000   17.076885   -8.007555
 0.190000   17.036630   -8.093772
 0.195000   16.995947   -8.179015
 0.200000   16.954840   -8.263281
 0.205000   16.913314   -8.346570
 0.210000   16.871374   -8.428883
 0.215000   16.829025   -8.510217
 0.220000   16.786272   -8.590573
 0.225000   16.743120   -8.669951
 0.230000   16.699573   -8.748350
 0.235000   16.655636   -8.825770
 0.240000   16.611315   -8.902211
 0.245000   16.566614   -8.977673
 0.250000   16.521538   -9.052157
 0.255000   16.476092   -9.125662
 0.260000   16.430282   -9.198188
 0.265000   16.384111   -9.269737
 0.270000   16.337584   -9.340309
 0.275000   16.290707   -9.409904
 0.280000   16.243485   -9.478523
 0.285000   16.195922   -9.546167
 0.290000   16.148023   -9.612837
 0.295000   16.099794   -9.678533
 0.300000   16.051238   -9.743257
 0.305000   16.002361   -9.807009
 0.310000   15.953168   -9.869792
 0.315000   15.903663   -9.931606
 0.320000   15.853852   -9.992453
 0.325000   15.803739   -10.052334
 0.330000   15.753329   -10.111251
 0.335000   15.702626   -10.169205
 0.340000   15.651637   -10.226198
 0.345000   15.600364   -10.282232
 0.350000   15.548814   -10.337309
 0.355000   15.496991   -10.391430
 0.360000   15.444900   -10.444599
 0.365000   15.392545   -10.496816
 0.370000   15.339932   -10.548084
 0.375000   15.287064   -10.598406
 0.380000   15.233948   -10.647783
 0.385000   15.180587   -10.696218
 0.390000   15.126986   -10.743714
 0.395000   15.073149   -10.790273
 0.400000   15.019083   -10.835897
 0.405000   14.964790   -10.880591
 0.410000   14.910277   -10.924355
 0.415000   14.855547   -10.967194
 0.420000   14.800605   -11.009109
 0.425000   14.745456   -11.050105
 0.430000   14.690104   -11.090183
 0.435000   14.634554   -11.129348
 0.440000   14.578810   -11.167602
 0.445000   14.522878   -11.204949
 0.450000   14.466761   -11.241392
 0.455000   14.410464   -11.276934
 0.460000   14.353992   -11.311579
 0.465000   14.297348   -11.345330
 0.470000   14.240538   -11.378191
 0.475000   14.183566   -11.410165
 0.480000   14.126437   -11.441257
 0.485000   14.069154   -11.471469
 0.490000   14.011722   -11.500807
 0.495000   13.954146   -11.529273
 0.500000   13.896429   -11.556871
 0.505000   13.838577   -11.583606
 0.510000   13.780593   -11.609481
 0.515000   13.722482   -11.634501
 0.520000   13.664248   -11.658670
 0.525000   13.605896   -11.681991
 0.530000   13.547428   -11.704470
 0.535000   13.488851   -11.726110
 0.540000   13.430167   -11.746916
 0.545000   13.371382   -11.766893
 0.550000   13.312498   -11.786043
 0.555000   13.253521   -11.804373
 0.560000   13.194455   -11.821887
 0.565000   13.135302   -11.838588
 0.570000   13.076069   -11.854483
 0.575000   13.016758   -11.869575
 0.580000   12.957373   -11.883869
 0.585000   12.897919   -11.897370
 0.590000   12.838399   -11.910083
 0.595000   12.778818   -11.922013
 0.600000   12.719179   -11.933163
 0.605000   12.659486   -11.943541
 0.610000   12.599744   -11.953149
 0.615000   12.539955   -11.961994
 0.620000   12.480124   -11.970080
 0.625000   12.420254   -11.977412
 0.630000   12.360350   -11.983996
 0.635000   12.300414   -11.989837
 0.640000   12.240451   -11.994940
 0.645000   12.180465   -11.999309
 0.650000   12.120458   -12.002952
 0.655000   12.060435   -12.005872
 0.660000   12.000399   -12.008075
 0.665000   11.940354   -12.009567
 0.670000   11.880304   -12.010355
 0.675000   11.820251   -12.010442
 0.680000   11.760199   -12.009837
 0.685000   11.700153   -12.008545
 0.690000   11.640114   -12.006574
 0.695000   11.580087   -12.003930
 0.700000   11.520075   -12.000622
 0.705000   11.460081   -11.996660
 0.710000   11.400108   -11.992055
 0.715000   11.340160   -11.986819
 0.720000   11.280240   -11.980968
 0.725000   11.220350   -11.974522
 0.730000   11.160495   -11.967507
 0.735000   11.100675   -11.959952
 0.740000   11.040895   -11.951901
 0.745000   10.981156   -11.943407
 0.750000   10.921461   -11.934542
 0.755000   10.861811   -11.925402
 0.760000   10.802207   -11.916115
 0.765000   10.742650   -11.906849
 0.770000   10.683138   -11.897832
 0.775000   10.623671   -11.889364
 0.780000   10.564245   -11.881846
 0.785000   10.504853   -11.875805
 0.790000   10.445487   -11.871934
 0.795000   10.386134   -11.871140
 0.800000   10.326775   -11.874590
 0.805000   10.267388   -11.883779
 0.810000   10.207938   -11.900583
 0.815000   10.148382   -11.927318
 0.820000   10.088664   -11.966754
 0.825000   10.028714   -12.022069
 0.830000   9.968444   -12.096674
 0.835000   9.907748   -12.193784
 0.840000   9.846506   -12.315569
 0.845000   9.784592   -12.461587
 0.850000   9.721890   -12.626002
 0.855000   9.658332   -12.792839
 0.860000   9.593962   -12.928071
 0.865000   9.529051   -12.966652
 0.870000   9.464295   -12.791637
 0.875000   9.401135   -12.201074
 0.880000   9.342284   -10.856336
 0.885000   9.292571   -8.203017
 0.890000   9.260254   -3.352744
 0.895000   9.259044   5.087733
 0.900000   9.311132   19.252361
 0.905000   9.451568   42.320236
 0.910000   9.734334   78.875720
 0.915000   10.240325   135.312723
 0.920000   11.087461   220.441019
 0.925000   12.444735   347.399105
 0.930000   14.561452   541.757610
 0.935000   17.862311   872.558613
 0.940000   23.287038   1544.858775
 0.945000   33.310899   3036.205002
 0.950000   53.649088   5696.741938
 0.955000   90.278318   7810.218196
 0.960000   131.751270   5853.363480
 0.965000   148.811953   521.208612
 0.970000   136.963356   -3620.817077
 0.975000   112.603782   -5145.237007
 0.980000   85.510986   -5213.775413
 0.985000   60.466028   -4497.609999
 0.990000   40.534886   -3397.307595
 0.995000   26.492952   -2317.813343
 1.000000   17.356753   -1336.666361
201 psinorm kpol(km/s/T) dkpol/dpsiN
 0.000000   0.002506   134.165020
 0.005000   0.549613   84.678093
 0.010000   0.849287   58.262244
 0.015000   1.132236   56.554243
 0.020000   1.414829   56.702186
 0.025000   1.699258   56.671229
 0.030000   1.981541   55.735982
 0.035000   2.256618   54.472882
 0.040000   2.526270   53.096685
 0.045000   2.787584   51.413714
 0.050000   3.040407   49.835444
 0.055000   3.285939   48.544590
 0.060000   3.525853   47.471036
 0.065000   3.760649   46.457564
 0.070000   3.990429   45.394993
 0.075000   4.214599   44.115981
 0.080000   4.431589   42.548020
 0.085000   4.640079   40.590506
 0.090000   4.837494   38.456519
 0.095000   5.024645   36.279488
 0.100000   5.200289   34.070799
 0.105000   5.365353   32.034549
 0.110000   5.520634   30.170845
 0.115000   5.667061   28.558750
 0.120000   5.806222   27.208532
 0.125000   5.939146   26.181593
 0.130000   6.068038   25.337999
 0.135000   6.192526   24.624956
 0.140000   6.314287   24.024562
 0.145000   6.432772   23.477715
 0.150000   6.549064   22.807733
 0.155000   6.660849   21.768448
 0.160000   6.766749   20.495182
 0.165000   6.865801   18.943971
 0.170000   6.956188   17.236951
 0.175000   7.038171   15.270924
 0.180000   7.108898   13.213579
 0.185000   7.170306   11.117411
 0.190000   7.220072   8.918428
 0.195000   7.259491   6.846542
 0.200000   7.288537   4.749066
 0.205000   7.306981   2.850391
 0.210000   7.317041   1.095519
 0.215000   7.317937   -0.532547
 0.220000   7.311716   -2.024173
 0.225000   7.297695   -3.671451
 0.230000   7.275001   -5.270663
 0.235000   7.244988   -6.992490
 0.240000   7.205076   -8.942507
 0.245000   7.155563   -10.864228
 0.250000   7.096434   -12.911946
 0.255000   7.026444   -14.924125
 0.260000   6.947193   -16.847674
 0.265000   6.857967   -18.814630
 0.270000   6.759046   -20.522589
 0.275000   6.652741   -22.155478
 0.280000   6.537492   -23.874153
 0.285000   6.413999   -25.414579
 0.290000   6.283346   -26.978303
 0.295000   6.144216   -28.634868
 0.300000   5.996997   -30.242078
 0.305000   5.841796   -31.970497
 0.310000   5.677292   -33.810377
 0.315000   5.503692   -35.667523
 0.320000   5.320617   -37.707115
 0.325000   5.126621   -39.798216
 0.330000   4.922635   -41.696502
 0.335000   4.709656   -43.441447
 0.340000   4.488220   -44.935960
 0.345000   4.260296   -46.077651
 0.350000   4.027444   -46.864995
 0.355000   3.791646   -47.387573
 0.360000   3.553568   -47.873934
 0.365000   3.312907   -48.485845
 0.370000   3.068710   -49.261067
 0.375000   2.820296   -50.198709
 0.380000   2.566723   -51.517775
 0.385000   2.305118   -53.268047
 0.390000   2.034042   -55.215739
 0.395000   1.752961   -57.270588
 0.400000   1.461336   -59.329231
 0.405000   1.159669   -61.192849
 0.410000   0.849408   -63.091201
 0.415000   0.528757   -65.758610
 0.420000   0.191822   -69.944642
 0.425000   -0.170690   -76.047953
 0.430000   -0.568658   -84.104062
 0.435000   -1.011730   -94.246446
 0.440000   -1.511122   -107.054622
 0.445000   -2.082277   -120.437820
 0.450000   -2.715501   -132.481940
 0.455000   -3.407096   -143.416238
 0.460000   -4.149663   -152.356805
 0.465000   -4.930664   -158.548658
 0.470000   -5.735150   -160.874434
 0.475000   -6.539408   -158.104594
 0.480000   -7.316195   -150.602100
 0.485000   -8.045429   -139.549425
 0.490000   -8.711690   -125.862906
 0.495000   -9.304058   -109.774332
 0.500000   -9.809433   -92.387423
 0.505000   -10.227933   -76.554404
 0.510000   -10.574977   -63.099848
 0.515000   -10.858931   -51.572353
 0.520000   -11.090701   -42.361138
 0.525000   -11.282542   -35.386719
 0.530000   -11.444568   -30.793131
 0.535000   -11.590474   -28.229014
 0.540000   -11.726858   -26.668096
 0.545000   -11.857155   -25.423852
 0.550000   -11.981096   -24.179741
 0.555000   -12.098952   -23.143743
 0.560000   -12.212534   -22.101598
 0.565000   -12.319968   -20.692558
 0.570000   -12.419459   -19.012458
 0.575000   -12.510093   -17.208021
 0.580000   -12.591540   -15.144776
 0.585000   -12.661540   -12.773083
 0.590000   -12.719271   -10.315241
 0.595000   -12.764693   -7.807750
 0.600000   -12.797348   -5.253366
 0.605000   -12.817227   -2.790706
 0.610000   -12.825255   -0.610750
 0.615000   -12.823334   1.343178
 0.620000   -12.811823   3.118838
 0.625000   -12.792146   4.566248
 0.630000   -12.766161   5.728601
 0.635000   -12.734860   6.743983
 0.640000   -12.698721   7.638901
 0.645000   -12.658471   8.340721
 0.650000   -12.615314   9.000281
 0.655000   -12.568468   9.723347
 0.660000   -12.518080   10.379093
 0.665000   -12.464677   10.940150
 0.670000   -12.408679   11.470542
 0.675000   -12.349971   11.995140
 0.680000   -12.288727   12.484252
 0.685000   -12.225129   13.068045
 0.690000   -12.158047   13.896810
 0.695000   -12.086161   14.994353
 0.700000   -12.008103   16.431479
 0.705000   -11.921846   18.237334
 0.710000   -11.825730   20.121102
 0.715000   -11.720635   21.820072
 0.720000   -11.607529   23.255816
 0.725000   -11.488077   24.304554
 0.730000   -11.364484   24.864269
 0.735000   -11.239434   24.654956
 0.740000   -11.117934   23.559704
 0.745000   -11.003837   21.784687
 0.750000   -10.900087   19.492161
 0.755000   -10.808916   16.839313
 0.760000   -10.731694   13.966342
 0.765000   -10.669252   11.161736
 0.770000   -10.620077   8.697325
 0.775000   -10.582279   6.615624
 0.780000   -10.553921   4.902037
 0.785000   -10.533259   3.472663
 0.790000   -10.519194   2.183273
 0.795000   -10.511426   0.843392
 0.800000   -10.510760   -0.725923
 0.805000   -10.518685   -2.632353
 0.810000   -10.537084   -4.931141
 0.815000   -10.567996   -7.585235
 0.820000   -10.612936   -10.609174
 0.825000   -10.674088   -13.794815
 0.830000   -10.750884   -16.833505
 0.835000   -10.842423   -19.534103
 0.840000   -10.946225   -21.636242
 0.845000   -11.058786   -22.963071
 0.850000   -11.175856   -23.330727
 0.855000   -11.292093   -22.689921
 0.860000   -11.402755   -21.250061
 0.865000   -11.504594   -19.292629
 0.870000   -11.595681   -17.034270
 0.875000   -11.674936   -14.614873
 0.880000   -11.741830   -12.205769
 0.885000   -11.796994   -10.056347
 0.890000   -11.842394   -8.168853
 0.895000   -11.878682   -6.423001
 0.900000   -11.906624   -4.820692
 0.905000   -11.926889   -3.369673
 0.910000   -11.940320   -1.998049
 0.915000   -11.946870   -0.625532
 0.920000   -11.946576   0.829925
 0.925000   -11.938571   2.543794
 0.930000   -11.921138   4.511825
 0.935000   -11.893452   7.045431
 0.940000   -11.850683   12.796288
 0.945000   -11.765489   22.954812
 0.950000   -11.621135   34.973734
 0.955000   -11.415752   50.848941
 0.960000   -11.112646   76.304995
 0.965000   -10.652702   117.671566
 0.970000   -9.935930   179.560618
 0.975000   -8.857096   264.101206
 0.980000   -7.294918   369.359929
 0.985000   -5.163497   488.025096
 0.990000   -2.414667   600.852873
 0.995000   0.845032   671.696742
 1.000000   4.302300   711.210543
201 psinorm omghb() domghb/dpsiN
 0.000000   -0.000069   -0.006996
 0.005000   -0.000248   -0.064706
 0.010000   -0.000716   -0.072399
 0.015000   -0.000972   -0.048422
 0.020000   -0.001200   -0.042634
 0.025000   -0.001399   -0.035818
 0.030000   -0.001558   -0.018423
 0.035000   -0.001583   0.004411
 0.040000   -0.001514   0.026821
 0.045000   -0.001315   0.041024
 0.050000   -0.001104   0.042707
 0.055000   -0.000887   0.045743
 0.060000   -0.000647   0.047694
 0.065000   -0.000411   0.052271
 0.070000   -0.000124   0.077506
 0.075000   0.000365   0.107199
 0.080000   0.000948   0.123205
 0.085000   0.001597   0.146525
 0.090000   0.002413   0.175199
 0.095000   0.003349   0.190127
 0.100000   0.004315   0.215417
 0.105000   0.005503   0.213053
 0.110000   0.006445   0.195303
 0.115000   0.007456   0.189634
 0.120000   0.008341   0.189546
 0.125000   0.009351   0.204573
 0.130000   0.010387   0.197068
 0.135000   0.011322   0.167676
 0.140000   0.012064   0.165985
 0.145000   0.012982   0.173611
 0.150000   0.013800   0.185999
 0.155000   0.014842   0.203532
 0.160000   0.015835   0.220486
 0.165000   0.017047   0.235606
 0.170000   0.018191   0.247988
 0.175000   0.019526   0.269185
 0.180000   0.020883   0.271998
 0.185000   0.022246   0.277976
 0.190000   0.023663   0.263752
 0.195000   0.024884   0.301399
 0.200000   0.026677   0.335942
 0.205000   0.028243   0.317903
 0.210000   0.029856   0.331907
 0.215000   0.031562   0.320897
 0.220000   0.033065   0.340895
 0.225000   0.034971   0.362249
 0.230000   0.036688   0.339826
 0.235000   0.038370   0.336616
 0.240000   0.040054   0.316052
 0.245000   0.041530   0.330272
 0.250000   0.043356   0.368644
 0.255000   0.045217   0.223967
 0.260000   0.045596   0.129368
 0.265000   0.046510   0.142858
 0.270000   0.047025   0.094879
 0.275000   0.047459   0.095284
 0.280000   0.047978   0.092502
 0.285000   0.048384   0.051216
 0.290000   0.048490   0.070887
 0.295000   0.049093   0.103316
 0.300000   0.049523   0.109077
 0.305000   0.050184   0.147461
 0.310000   0.050997   0.131474
 0.315000   0.051499   0.379850
 0.320000   0.054796   0.608752
 0.325000   0.057586   0.532581
 0.330000   0.060122   0.508232
 0.335000   0.062668   0.477573
 0.340000   0.064897   0.471314
 0.345000   0.067382   0.385023
 0.350000   0.068748   0.246702
 0.355000   0.069849   0.187880
 0.360000   0.070626   0.146802
 0.365000   0.071317   0.149362
 0.370000   0.072120   0.267396
 0.375000   0.073991   0.167690
 0.380000   0.073797   -0.022650
 0.385000   0.073764   0.021245
 0.390000   0.074009   0.071015
 0.395000   0.074474   0.107338
 0.400000   0.075083   0.041198
 0.405000   0.074886   0.045142
 0.410000   0.075534   0.312572
 0.415000   0.078012   0.658281
 0.420000   0.082117   1.219774
 0.425000   0.090210   1.926576
 0.430000   0.101383   2.325878
 0.435000   0.113468   2.702159
 0.440000   0.128404   3.160400
 0.445000   0.145072   3.327845
 0.450000   0.161683   3.555186
 0.455000   0.180624   3.343616
 0.460000   0.195119   2.518424
 0.465000   0.205808   1.858743
 0.470000   0.213706   1.213612
 0.475000   0.217945   0.345994
 0.480000   0.217166   -0.715682
 0.485000   0.210788   -1.656302
 0.490000   0.200603   -2.300251
 0.495000   0.187785   -2.725766
 0.500000   0.173346   -2.879443
 0.505000   0.158991   -2.800554
 0.510000   0.145340   -2.731237
 0.515000   0.131678   -2.308903
 0.520000   0.122251   -1.662379
 0.525000   0.115055   -1.290916
 0.530000   0.109342   -1.019764
 0.535000   0.104857   -0.776090
 0.540000   0.101581   -0.626449
 0.545000   0.098593   -0.595999
 0.550000   0.095621   -0.573075
 0.555000   0.092862   -0.524118
 0.560000   0.090380   -0.530242
 0.565000   0.087559   -0.549769
 0.570000   0.084882   -0.519120
 0.575000   0.082368   -0.523359
 0.580000   0.079649   -0.545253
 0.585000   0.076916   -0.534034
 0.590000   0.074308   -0.490291
 0.595000   0.072013   -0.454829
 0.600000   0.069760   -0.426790
 0.605000   0.067745   -0.353479
 0.610000   0.066225   -0.261550
 0.615000   0.065129   -0.150808
 0.620000   0.064717   -0.054370
 0.625000   0.064586   0.044262
 0.630000   0.065160   0.129761
 0.635000   0.065883   0.172224
 0.640000   0.066882   0.242501
 0.645000   0.068308   0.363772
 0.650000   0.070520   0.380186
 0.655000   0.072110   0.374710
 0.660000   0.074267   0.515216
 0.665000   0.077262   0.706440
 0.670000   0.081331   0.944147
 0.675000   0.086704   1.429599
 0.680000   0.095627   1.605793
 0.685000   0.102762   1.304424
 0.690000   0.108671   1.164141
 0.695000   0.114403   1.050356
 0.700000   0.119175   0.844533
 0.705000   0.122848   0.867831
 0.710000   0.127853   0.518873
 0.715000   0.128037   -0.074956
 0.720000   0.127104   -0.058216
 0.725000   0.127455   0.042798
 0.730000   0.127532   -0.010168
 0.735000   0.127353   -0.069173
 0.740000   0.126840   -0.262159
 0.745000   0.124732   -0.262269
 0.750000   0.124217   -0.013552
 0.755000   0.124596   0.243989
 0.760000   0.126657   0.523910
 0.765000   0.129835   0.605046
 0.770000   0.132708   0.799765
 0.775000   0.137833   1.312437
 0.780000   0.145832   1.352217
 0.785000   0.151355   1.118876
 0.790000   0.157021   0.893819
 0.795000   0.160293   0.476385
 0.800000   0.161785   0.260799
 0.805000   0.162901   0.004635
 0.810000   0.161831   -0.548557
 0.815000   0.157416   -1.041595
 0.820000   0.151415   -1.337164
 0.825000   0.144044   -1.527189
 0.830000   0.136143   -1.605071
 0.835000   0.127993   -1.600092
 0.840000   0.120142   -1.532921
 0.845000   0.112664   -1.388009
 0.850000   0.106262   -1.073122
 0.855000   0.101933   -0.552390
 0.860000   0.100738   0.234974
 0.865000   0.104283   0.993509
 0.870000   0.110673   1.817875
 0.875000   0.122461   2.972701
 0.880000   0.140400   4.282313
 0.885000   0.165285   5.725591
 0.890000   0.197656   8.663310
 0.895000   0.251918   10.112887
 0.900000   0.298785   11.010748
 0.905000   0.362025   13.793105
 0.910000   0.436716   15.874719
 0.915000   0.520772   17.333439
 0.920000   0.610051   21.364874
 0.925000   0.734421   19.419794
 0.930000   0.804248   15.313300
 0.935000   0.887554   15.724739
 0.940000   0.961496   12.130264
 0.945000   1.008857   7.501265
 0.950000   1.036509   6.800705
 0.955000   1.076864   -8.210809
 0.960000   0.954400   -31.655194
 0.965000   0.760312   -49.048974
 0.970000   0.463911   -70.603046
 0.975000   0.054281   -90.735644
 0.980000   -0.443446   -98.471007
 0.985000   -0.930429   -92.774409
 0.990000   -1.371190   -67.270472
 0.995000   -1.603133   -23.074713
 1.000000   -1.601937   23.553289
201 psinorm nz1(10^20/m^3) dnz1/dpsiN
 0.000000   0.015943   -0.000000
 0.005000   0.015943   0.000076
 0.010000   0.015944   0.000152
 0.015000   0.015945   0.000228
 0.020000   0.015946   0.000303
 0.025000   0.015948   0.000376
 0.030000   0.015950   0.000449
 0.035000   0.015952   0.000520
 0.040000   0.015955   0.000589
 0.045000   0.015958   0.000655
 0.050000   0.015961   0.000720
 0.055000   0.015965   0.000782
 0.060000   0.015969   0.000841
 0.065000   0.015974   0.000897
 0.070000   0.015978   0.000950
 0.075000   0.015983   0.000999
 0.080000   0.015988   0.001045
 0.085000   0.015994   0.001086
 0.090000   0.015999   0.001123
 0.095000   0.016005   0.001155
 0.100000   0.016011   0.001182
 0.105000   0.016017   0.001204
 0.110000   0.016023   0.001221
 0.115000   0.016029   0.001233
 0.120000   0.016035   0.001240
 0.125000   0.016041   0.001241
 0.130000   0.016047   0.001237
 0.135000   0.016054   0.001228
 0.140000   0.016060   0.001214
 0.145000   0.016066   0.001196
 0.150000   0.016072   0.001173
 0.155000   0.016077   0.001146
 0.160000   0.016083   0.001115
 0.165000   0.016089   0.001081
 0.170000   0.016094   0.001044
 0.175000   0.016099   0.001003
 0.180000   0.016104   0.000961
 0.185000   0.016109   0.000916
 0.190000   0.016113   0.000869
 0.195000   0.016117   0.000820
 0.200000   0.016121   0.000771
 0.205000   0.016125   0.000720
 0.210000   0.016129   0.000669
 0.215000   0.016132   0.000618
 0.220000   0.016135   0.000568
 0.225000   0.016137   0.000518
 0.230000   0.016140   0.000471
 0.235000   0.016142   0.000425
 0.240000   0.016144   0.000381
 0.245000   0.016146   0.000340
 0.250000   0.016148   0.000301
 0.255000   0.016149   0.000265
 0.260000   0.016150   0.000233
 0.265000   0.016151   0.000204
 0.270000   0.016152   0.000179
 0.275000   0.016153   0.000159
 0.280000   0.016154   0.000144
 0.285000   0.016154   0.000134
 0.290000   0.016155   0.000130
 0.295000   0.016156   0.000132
 0.300000   0.016156   0.000141
 0.305000   0.016157   0.000156
 0.310000   0.016158   0.000177
 0.315000   0.016159   0.000205
 0.320000   0.016160   0.000239
 0.325000   0.016161   0.000279
 0.330000   0.016163   0.000326
 0.335000   0.016165   0.000378
 0.340000   0.016167   0.000437
 0.345000   0.016169   0.000503
 0.350000   0.016172   0.000576
 0.355000   0.016175   0.000656
 0.360000   0.016178   0.000744
 0.365000   0.016182   0.000840
 0.370000   0.016187   0.000943
 0.375000   0.016192   0.001054
 0.380000   0.016197   0.001170
 0.385000   0.016203   0.001290
 0.390000   0.016210   0.001411
 0.395000   0.016217   0.001534
 0.400000   0.016225   0.001656
 0.405000   0.016234   0.001774
 0.410000   0.016243   0.001885
 0.415000   0.016253   0.001989
 0.420000   0.016263   0.002084
 0.425000   0.016274   0.002168
 0.430000   0.016285   0.002241
 0.435000   0.016296   0.002301
 0.440000   0.016308   0.002350
 0.445000   0.016320   0.002393
 0.450000   0.016332   0.002429
 0.455000   0.016344   0.002458
 0.460000   0.016356   0.002480
 0.465000   0.016369   0.002495
 0.470000   0.016381   0.002505
 0.475000   0.016394   0.002505
 0.480000   0.016406   0.002490
 0.485000   0.016419   0.002458
 0.490000   0.016431   0.002405
 0.495000   0.016443   0.002330
 0.500000   0.016454   0.002232
 0.505000   0.016465   0.002110
 0.510000   0.016475   0.001963
 0.515000   0.016485   0.001792
 0.520000   0.016493   0.001599
 0.525000   0.016501   0.001384
 0.530000   0.016507   0.001148
 0.535000   0.016512   0.000893
 0.540000   0.016516   0.000620
 0.545000   0.016518   0.000329
 0.550000   0.016519   0.000021
 0.555000   0.016519   -0.000304
 0.560000   0.016516   -0.000648
 0.565000   0.016512   -0.001011
 0.570000   0.016506   -0.001393
 0.575000   0.016498   -0.001796
 0.580000   0.016488   -0.002219
 0.585000   0.016476   -0.002660
 0.590000   0.016461   -0.003117
 0.595000   0.016445   -0.003587
 0.600000   0.016426   -0.004069
 0.605000   0.016404   -0.004559
 0.610000   0.016380   -0.005059
 0.615000   0.016353   -0.005568
 0.620000   0.016324   -0.006092
 0.625000   0.016293   -0.006636
 0.630000   0.016258   -0.007201
 0.635000   0.016221   -0.007786
 0.640000   0.016180   -0.008391
 0.645000   0.016137   -0.009015
 0.650000   0.016090   -0.009664
 0.655000   0.016040   -0.010330
 0.660000   0.015987   -0.010993
 0.665000   0.015930   -0.011659
 0.670000   0.015870   -0.012340
 0.675000   0.015807   -0.013063
 0.680000   0.015739   -0.013907
 0.685000   0.015668   -0.014910
 0.690000   0.015590   -0.016030
 0.695000   0.015507   -0.017250
 0.700000   0.015418   -0.018560
 0.705000   0.015322   -0.019935
 0.710000   0.015219   -0.021394
 0.715000   0.015108   -0.022852
 0.720000   0.014990   -0.024164
 0.725000   0.014866   -0.025321
 0.730000   0.014737   -0.026319
 0.735000   0.014603   -0.027121
 0.740000   0.014466   -0.027692
 0.745000   0.014326   -0.027966
 0.750000   0.014186   -0.027916
 0.755000   0.014047   -0.027575
 0.760000   0.013910   -0.026961
 0.765000   0.013777   -0.026101
 0.770000   0.013649   -0.024994
 0.775000   0.013527   -0.023695
 0.780000   0.013412   -0.022390
 0.785000   0.013303   -0.021163
 0.790000   0.013201   -0.019996
 0.795000   0.013103   -0.018916
 0.800000   0.013011   -0.017938
 0.805000   0.012924   -0.017095
 0.810000   0.012840   -0.016407
 0.815000   0.012760   -0.015808
 0.820000   0.012682   -0.015220
 0.825000   0.012608   -0.014612
 0.830000   0.012536   -0.013973
 0.835000   0.012468   -0.013303
 0.840000   0.012403   -0.012628
 0.845000   0.012342   -0.011971
 0.850000   0.012284   -0.011339
 0.855000   0.012228   -0.010739
 0.860000   0.012176   -0.010178
 0.865000   0.012127   -0.009654
 0.870000   0.012080   -0.009194
 0.875000   0.012035   -0.008829
 0.880000   0.011991   -0.008568
 0.885000   0.011949   -0.008423
 0.890000   0.011907   -0.008415
 0.895000   0.011865   -0.008656
 0.900000   0.011821   -0.009183
 0.905000   0.011773   -0.009984
 0.910000   0.011721   -0.011180
 0.915000   0.011661   -0.012935
 0.920000   0.011591   -0.015501
 0.925000   0.011506   -0.019570
 0.930000   0.011396   -0.025558
 0.935000   0.011251   -0.033937
 0.940000   0.011056   -0.045828
 0.945000   0.010792   -0.062165
 0.950000   0.010435   -0.083458
 0.955000   0.009958   -0.110344
 0.960000   0.009331   -0.140177
 0.965000   0.008556   -0.167417
 0.970000   0.007657   -0.187044
 0.975000   0.006686   -0.194522
 0.980000   0.005712   -0.188047
 0.985000   0.004805   -0.169822
 0.990000   0.004014   -0.144301
 0.995000   0.003362   -0.116813
 1.000000   0.002845   -0.089849
201 psinorm vtor1(km/s) dvtor1/dpsiN
 0.000000   109.442614   550.553797
 0.005000   111.578277   303.711537
 0.010000   112.479729   158.634550
 0.015000   113.164622   125.171634
 0.020000   113.731445   105.670214
 0.025000   114.221325   92.935280
 0.030000   114.660798   83.934077
 0.035000   115.060665   76.229439
 0.040000   115.423092   69.696440
 0.045000   115.757630   64.454635
 0.050000   116.067639   59.688042
 0.055000   116.354510   55.156825
 0.060000   116.619207   51.051589
 0.065000   116.865026   47.380531
 0.070000   117.093012   43.731696
 0.075000   117.302343   40.211665
 0.080000   117.495129   36.954919
 0.085000   117.671892   33.799127
 0.090000   117.833120   30.583142
 0.095000   117.977724   27.425510
 0.100000   118.107375   24.429410
 0.105000   118.222018   21.387699
 0.110000   118.321252   18.323903
 0.115000   118.405257   15.330092
 0.120000   118.474553   12.363132
 0.125000   118.528888   9.315661
 0.130000   118.567710   6.226090
 0.135000   118.591149   3.096536
 0.140000   118.598675   -0.110603
 0.145000   118.590043   -3.370654
 0.150000   118.564969   -6.663863
 0.155000   118.523404   -9.979009
 0.160000   118.465179   -13.353774
 0.165000   118.389867   -16.743259
 0.170000   118.297746   -20.098901
 0.175000   118.188878   -23.453556
 0.180000   118.063211   -26.817846
 0.185000   117.920699   -30.150161
 0.190000   117.761709   -33.417284
 0.195000   117.586526   -36.641584
 0.200000   117.395293   -39.811527
 0.205000   117.188411   -42.854092
 0.210000   116.966752   -45.705904
 0.215000   116.731352   -48.340455
 0.220000   116.483348   -50.647499
 0.225000   116.224877   -52.494138
 0.230000   115.958406   -54.066819
 0.235000   115.684209   -55.485275
 0.240000   115.403553   -56.662216
 0.245000   115.117587   -57.632239
 0.250000   114.827231   -58.415006
 0.255000   114.533437   -58.881132
 0.260000   114.238420   -59.213080
 0.265000   113.941306   -59.586369
 0.270000   113.642556   -59.886146
 0.275000   113.342444   -60.146336
 0.280000   113.041093   -60.412000
 0.285000   112.738324   -60.724998
 0.290000   112.433843   -61.295475
 0.295000   112.125370   -62.191210
 0.300000   111.811931   -63.264372
 0.305000   111.492726   -64.455080
 0.310000   111.167380   -65.648478
 0.315000   110.836241   -66.726551
 0.320000   110.500114   -67.646969
 0.325000   110.159771   -68.405121
 0.330000   109.816063   -68.999962
 0.335000   109.469772   -69.444525
 0.340000   109.121618   -69.758668
 0.345000   108.772185   -69.870384
 0.350000   108.422914   -69.819456
 0.355000   108.073991   -69.717438
 0.360000   107.725740   -69.546384
 0.365000   107.378527   -69.309213
 0.370000   107.032647   -69.015028
 0.375000   106.688376   -68.642365
 0.380000   106.346224   -68.249701
 0.385000   106.005879   -67.884000
 0.390000   105.667384   -67.483872
 0.395000   105.331041   -67.026118
 0.400000   104.997123   -66.520196
 0.405000   104.665839   -65.950204
 0.410000   104.337621   -65.495368
 0.415000   104.010885   -65.555012
 0.420000   103.682071   -66.436370
 0.425000   103.346521   -68.295576
 0.430000   102.999115   -71.186130
 0.435000   102.634660   -75.466093
 0.440000   102.244454   -81.083343
 0.445000   101.823827   -87.165113
 0.450000   101.372803   -93.408904
 0.455000   100.889738   -99.888289
 0.460000   100.373920   -106.403022
 0.465000   99.825707   -113.118661
 0.470000   99.242733   -119.765283
 0.475000   98.628055   -125.199453
 0.480000   97.990739   -129.203253
 0.485000   97.336022   -132.096926
 0.490000   96.669769   -133.758164
 0.495000   95.998440   -134.148427
 0.500000   95.328285   -133.143646
 0.505000   94.667004   -130.767798
 0.510000   94.020607   -127.511689
 0.515000   93.391887   -123.777355
 0.520000   92.782834   -119.684793
 0.525000   92.195039   -115.291406
 0.530000   91.629920   -110.617088
 0.535000   91.088868   -105.844783
 0.540000   90.571472   -101.140146
 0.545000   90.077467   -96.528131
 0.550000   89.606190   -92.077883
 0.555000   89.156688   -87.838323
 0.560000   88.727807   -83.821898
 0.565000   88.318469   -80.195816
 0.570000   87.925849   -77.066620
 0.575000   87.547803   -74.374949
 0.580000   87.182100   -72.140295
 0.585000   86.826400   -70.393770
 0.590000   86.478162   -69.155997
 0.595000   86.134840   -68.343438
 0.600000   85.794727   -67.856296
 0.605000   85.456277   -67.680152
 0.610000   85.117926   -67.824289
 0.615000   84.778034   -68.301194
 0.620000   84.434914   -69.036542
 0.625000   84.087669   -70.087348
 0.630000   83.734041   -71.538164
 0.635000   83.372287   -73.334233
 0.640000   83.000698   -75.470931
 0.645000   82.617578   -77.937867
 0.650000   82.221320   -80.682774
 0.655000   81.810750   -83.901412
 0.660000   81.382305   -87.826214
 0.665000   80.932488   -92.473874
 0.670000   80.457567   -97.896631
 0.675000   79.953521   -104.148972
 0.680000   79.416077   -111.423006
 0.685000   78.839291   -119.347925
 0.690000   78.222598   -127.188911
 0.695000   77.567402   -134.713328
 0.700000   76.875464   -141.845304
 0.705000   76.148949   -148.554877
 0.710000   75.389916   -154.907415
 0.715000   74.599875   -161.060093
 0.720000   73.779315   -167.090689
 0.725000   72.928968   -172.943228
 0.730000   72.049882   -178.563683
 0.735000   71.143331   -183.901011
 0.740000   70.210872   -188.946323
 0.745000   69.253868   -193.712359
 0.750000   68.273749   -198.290364
 0.755000   67.270964   -203.015593
 0.760000   66.243593   -208.256922
 0.765000   65.188395   -214.193441
 0.770000   64.101658   -221.185841
 0.775000   62.976537   -228.918778
 0.780000   61.812471   -235.460215
 0.785000   60.621935   -239.763007
 0.790000   59.414841   -241.896033
 0.795000   58.202974   -241.530685
 0.800000   56.999534   -238.609551
 0.805000   55.816879   -232.996602
 0.810000   54.669568   -224.251409
 0.815000   53.574365   -212.859433
 0.820000   52.540973   -199.802004
 0.825000   51.576345   -185.634484
 0.830000   50.684628   -170.917903
 0.835000   49.867166   -156.093956
 0.840000   49.123689   -141.616384
 0.845000   48.451002   -128.252361
 0.850000   47.841165   -116.873724
 0.855000   47.282265   -108.205711
 0.860000   46.759108   -102.894696
 0.865000   46.253318   -101.780584
 0.870000   45.741302   -105.380275
 0.875000   45.199515   -114.085392
 0.880000   44.600448   -128.754814
 0.885000   43.911967   -150.378801
 0.890000   43.096660   -180.004003
 0.895000   42.111927   -219.887767
 0.900000   40.897783   -269.510922
 0.905000   39.416817   -327.126224
 0.910000   37.626521   -392.138381
 0.915000   35.495434   -461.559396
 0.920000   33.010927   -530.834978
 0.925000   30.187084   -595.683225
 0.930000   27.054094   -646.262552
 0.935000   23.724458   -672.295651
 0.940000   20.331138   -669.546673
 0.945000   17.028992   -635.540671
 0.950000   13.975731   -572.054448
 0.955000   11.308447   -484.277734
 0.960000   9.132954   -382.537541
 0.965000   7.483072   -279.686288
 0.970000   6.336091   -185.514539
 0.975000   5.627926   -106.843796
 0.980000   5.267653   -47.307809
 0.985000   5.154848   -7.428068
 0.990000   5.193372   14.768111
 0.995000   5.302529   23.093592
 1.000000   5.424308   25.617931
201 psinorm vpol1(km/s) dvpol1/dpsiN
 0.000000   0.000018   4.785449
 0.005000   0.026517   5.814160
 0.010000   0.058159   6.847949
 0.015000   0.094996   7.866016
 0.020000   0.136819   8.821973
 0.025000   0.183216   9.671680
 0.030000   0.233536   10.350977
 0.035000   0.286726   10.876172
 0.040000   0.342298   11.297363
 0.045000   0.399699   11.624902
 0.050000   0.458547   11.894043
 0.055000   0.518640   12.137402
 0.060000   0.579921   12.369922
 0.065000   0.642339   12.584375
 0.070000   0.705765   12.747070
 0.075000   0.769810   12.828906
 0.080000   0.834054   12.827832
 0.085000   0.898088   12.726465
 0.090000   0.961318   12.526074
 0.095000   1.023349   12.278125
 0.100000   1.084100   12.006445
 0.105000   1.143413   11.718945
 0.110000   1.201289   11.440430
 0.115000   1.257817   11.189062
 0.120000   1.313180   10.981543
 0.125000   1.367633   10.818457
 0.130000   1.421364   10.687109
 0.135000   1.474504   10.578906
 0.140000   1.527153   10.485449
 0.145000   1.579358   10.398730
 0.150000   1.631141   10.268457
 0.155000   1.682043   10.045508
 0.160000   1.731596   9.737598
 0.165000   1.779419   9.356836
 0.170000   1.825164   8.908887
 0.175000   1.868508   8.388770
 0.180000   1.909052   7.809863
 0.185000   1.946606   7.199023
 0.190000   1.981042   6.567773
 0.195000   2.012284   5.927930
 0.200000   2.040321   5.292383
 0.205000   2.065208   4.671777
 0.210000   2.087039   4.088477
 0.215000   2.106093   3.541699
 0.220000   2.122456   3.000977
 0.225000   2.136103   2.445605
 0.230000   2.146912   1.856445
 0.235000   2.154667   1.225488
 0.240000   2.159167   0.549414
 0.245000   2.160161   -0.163281
 0.250000   2.157534   -0.897168
 0.255000   2.151189   -1.642285
 0.260000   2.141111   -2.382227
 0.265000   2.127367   -3.098633
 0.270000   2.110125   -3.787402
 0.275000   2.089493   -4.457422
 0.280000   2.065551   -5.113379
 0.285000   2.038359   -5.764453
 0.290000   2.007906   -6.416406
 0.295000   1.974195   -7.076660
 0.300000   1.937140   -7.759082
 0.305000   1.896604   -8.467578
 0.310000   1.852464   -9.205566
 0.315000   1.804549   -9.980176
 0.320000   1.752662   -10.799805
 0.325000   1.696551   -11.636816
 0.330000   1.636294   -12.435449
 0.335000   1.572196   -13.166797
 0.340000   1.504626   -13.814844
 0.345000   1.434048   -14.364746
 0.350000   1.360979   -14.777441
 0.355000   1.286273   -15.094238
 0.360000   1.210036   -15.414062
 0.365000   1.132133   -15.762500
 0.370000   1.052411   -16.156738
 0.375000   0.970565   -16.621582
 0.380000   0.886195   -17.210449
 0.385000   0.798461   -17.938086
 0.390000   0.706814   -18.750000
 0.395000   0.610961   -19.598242
 0.400000   0.510832   -20.438672
 0.405000   0.406574   -21.222168
 0.410000   0.298610   -22.018701
 0.415000   0.186387   -23.081152
 0.420000   0.067799   -24.686914
 0.425000   -0.060482   -26.979053
 0.430000   -0.201992   -29.976904
 0.435000   -0.360251   -33.733691
 0.440000   -0.539329   -38.457666
 0.445000   -0.744828   -43.414844
 0.450000   -0.973477   -47.922705
 0.455000   -1.224055   -52.034521
 0.460000   -1.493822   -55.445850
 0.465000   -1.778513   -57.897900
 0.470000   -2.072801   -58.929541
 0.475000   -2.367809   -58.102295
 0.480000   -2.653824   -55.574707
 0.485000   -2.923556   -51.723047
 0.490000   -3.171055   -46.856738
 0.495000   -3.392123   -41.105029
 0.500000   -3.582105   -34.872656
 0.505000   -3.740850   -29.122607
 0.510000   -3.873331   -24.217432
 0.515000   -3.983024   -20.049829
 0.520000   -4.073829   -16.677734
 0.525000   -4.149801   -14.091626
 0.530000   -4.214746   -12.408350
 0.535000   -4.273885   -11.478442
 0.540000   -4.329530   -10.867456
 0.545000   -4.382559   -10.380444
 0.550000   -4.433334   -9.938940
 0.555000   -4.481949   -9.534204
 0.560000   -4.528677   -9.108179
 0.565000   -4.573031   -8.582861
 0.570000   -4.614505   -7.961548
 0.575000   -4.652646   -7.249731
 0.580000   -4.687002   -6.449536
 0.585000   -4.717141   -5.573914
 0.590000   -4.742742   -4.631506
 0.595000   -4.763456   -3.652490
 0.600000   -4.779266   -2.685718
 0.605000   -4.790314   -1.761389
 0.610000   -4.796880   -0.903424
 0.615000   -4.799348   -0.133722
 0.620000   -4.798218   0.533063
 0.625000   -4.794017   1.098962
 0.630000   -4.787228   1.575195
 0.635000   -4.778265   1.975873
 0.640000   -4.767469   2.315689
 0.645000   -4.755108   2.614114
 0.650000   -4.741328   2.897559
 0.655000   -4.726133   3.174432
 0.660000   -4.709584   3.435269
 0.665000   -4.691780   3.677045
 0.670000   -4.672813   3.897565
 0.675000   -4.652804   4.099652
 0.680000   -4.631817   4.304541
 0.685000   -4.609759   4.550345
 0.690000   -4.586313   4.872723
 0.695000   -4.561032   5.293616
 0.700000   -4.533377   5.857794
 0.705000   -4.502454   6.559717
 0.710000   -4.467780   7.276917
 0.715000   -4.429685   7.930933
 0.720000   -4.388471   8.492761
 0.725000   -4.344757   8.902539
 0.730000   -4.299445   9.120776
 0.735000   -4.253549   9.055737
 0.740000   -4.208888   8.656958
 0.745000   -4.166980   7.992480
 0.750000   -4.128963   7.130103
 0.755000   -4.095679   6.137036
 0.760000   -4.067593   5.058643
 0.765000   -4.045092   3.998486
 0.770000   -4.027608   3.068994
 0.775000   -4.014402   2.287500
 0.780000   -4.004733   1.642480
 0.785000   -3.997978   1.101123
 0.790000   -3.993722   0.616406
 0.795000   -3.991813   0.113818
 0.800000   -3.992583   -0.480273
 0.805000   -3.996616   -1.204639
 0.810000   -4.004630   -2.073096
 0.815000   -4.017347   -3.077051
 0.820000   -4.035400   -4.227979
 0.825000   -4.059627   -5.439941
 0.830000   -4.089800   -6.591504
 0.835000   -4.125542   -7.616602
 0.840000   -4.165966   -8.419824
 0.845000   -4.209740   -8.924414
 0.850000   -4.255210   -9.059277
 0.855000   -4.300333   -8.813965
 0.860000   -4.343350   -8.268750
 0.865000   -4.383021   -7.518066
 0.870000   -4.418530   -6.648535
 0.875000   -4.449506   -5.724902
 0.880000   -4.475779   -4.808301
 0.885000   -4.497589   -3.976465
 0.890000   -4.515544   -3.242480
 0.895000   -4.530014   -2.575879
 0.900000   -4.541303   -1.963281
 0.905000   -4.549646   -1.390137
 0.910000   -4.555204   -0.849023
 0.915000   -4.558137   -0.325391
 0.920000   -4.558458   0.212891
 0.925000   -4.556008   0.807227
 0.930000   -4.550386   1.516211
 0.935000   -4.540846   2.484473
 0.940000   -4.525541   3.993555
 0.945000   -4.500910   6.408789
 0.950000   -4.461453   10.286914
 0.955000   -4.398041   16.526953
 0.960000   -4.296184   26.468555
 0.965000   -4.133355   42.668164
 0.970000   -3.869502   67.134375
 0.975000   -3.462012   100.772461
 0.980000   -2.861777   143.507422
 0.985000   -2.026937   191.472461
 0.990000   -0.947053   235.807617
 0.995000   0.331139   263.149805
 1.000000   1.684445   278.172852
3 N Z A of ION SPECIES
 6.000000   6.000000   12.010700
 1.000000   1.000000   2.000000
 1.000000   1.000000   2.000000
