201 psinorm ne(10^20/m^3) dne/dpsiN
 0.000000   0.438222   -0.331523
 0.005000   0.436569   -0.329686
 0.010000   0.434925   -0.327855
 0.015000   0.433291   -0.326035
 0.020000   0.431665   -0.324226
 0.025000   0.430048   -0.322429
 0.030000   0.428441   -0.320643
 0.035000   0.426842   -0.318867
 0.040000   0.425252   -0.317103
 0.045000   0.423671   -0.315350
 0.050000   0.422099   -0.313607
 0.055000   0.420535   -0.311875
 0.060000   0.418980   -0.310154
 0.065000   0.417433   -0.308443
 0.070000   0.415895   -0.306742
 0.075000   0.414366   -0.305053
 0.080000   0.412845   -0.303373
 0.085000   0.411332   -0.301704
 0.090000   0.409828   -0.300045
 0.095000   0.408332   -0.298396
 0.100000   0.406844   -0.296757
 0.105000   0.405364   -0.295128
 0.110000   0.403893   -0.293509
 0.115000   0.402429   -0.291899
 0.120000   0.400974   -0.290300
 0.125000   0.399526   -0.288710
 0.130000   0.398087   -0.287130
 0.135000   0.396655   -0.285560
 0.140000   0.395231   -0.283999
 0.145000   0.393815   -0.282447
 0.150000   0.392407   -0.280905
 0.155000   0.391006   -0.279372
 0.160000   0.389613   -0.277849
 0.165000   0.388227   -0.276334
 0.170000   0.386849   -0.274829
 0.175000   0.385479   -0.273333
 0.180000   0.384116   -0.271845
 0.185000   0.382761   -0.270367
 0.190000   0.381412   -0.268898
 0.195000   0.380072   -0.267437
 0.200000   0.378738   -0.265985
 0.205000   0.377412   -0.264542
 0.210000   0.376093   -0.263107
 0.215000   0.374781   -0.261681
 0.220000   0.373476   -0.260264
 0.225000   0.372178   -0.258855
 0.230000   0.370887   -0.257454
 0.235000   0.369604   -0.256062
 0.240000   0.368327   -0.254678
 0.245000   0.367057   -0.253302
 0.250000   0.365794   -0.251934
 0.255000   0.364537   -0.250575
 0.260000   0.363288   -0.249224
 0.265000   0.362045   -0.247880
 0.270000   0.360809   -0.246545
 0.275000   0.359580   -0.245217
 0.280000   0.358357   -0.243897
 0.285000   0.357141   -0.242585
 0.290000   0.355931   -0.241281
 0.295000   0.354728   -0.239984
 0.300000   0.353531   -0.238695
 0.305000   0.352341   -0.237414
 0.310000   0.351157   -0.236140
 0.315000   0.349980   -0.234874
 0.320000   0.348808   -0.233615
 0.325000   0.347643   -0.232363
 0.330000   0.346485   -0.231119
 0.335000   0.345332   -0.229882
 0.340000   0.344186   -0.228652
 0.345000   0.343046   -0.227430
 0.350000   0.341912   -0.226214
 0.355000   0.340784   -0.225006
 0.360000   0.339662   -0.223804
 0.365000   0.338546   -0.222610
 0.370000   0.337435   -0.221422
 0.375000   0.336331   -0.220242
 0.380000   0.335233   -0.219068
 0.385000   0.334141   -0.217901
 0.390000   0.333054   -0.216741
 0.395000   0.331973   -0.215587
 0.400000   0.330898   -0.214441
 0.405000   0.329829   -0.213300
 0.410000   0.328765   -0.212167
 0.415000   0.327707   -0.211040
 0.420000   0.326655   -0.209919
 0.425000   0.325608   -0.208805
 0.430000   0.324567   -0.207697
 0.435000   0.323531   -0.206596
 0.440000   0.322501   -0.205500
 0.445000   0.321476   -0.204412
 0.450000   0.320457   -0.203329
 0.455000   0.319443   -0.202252
 0.460000   0.318434   -0.201182
 0.465000   0.317431   -0.200118
 0.470000   0.316433   -0.199060
 0.475000   0.315440   -0.198007
 0.480000   0.314453   -0.196961
 0.485000   0.313471   -0.195921
 0.490000   0.312494   -0.194887
 0.495000   0.311522   -0.193858
 0.500000   0.310555   -0.192835
 0.505000   0.309593   -0.191819
 0.510000   0.308637   -0.190807
 0.515000   0.307685   -0.189802
 0.520000   0.306739   -0.188802
 0.525000   0.305797   -0.187808
 0.530000   0.304861   -0.186819
 0.535000   0.303929   -0.185836
 0.540000   0.303002   -0.184859
 0.545000   0.302081   -0.183887
 0.550000   0.301164   -0.182920
 0.555000   0.300251   -0.181959
 0.560000   0.299344   -0.181003
 0.565000   0.298441   -0.180053
 0.570000   0.297543   -0.179108
 0.575000   0.296650   -0.178168
 0.580000   0.295762   -0.177233
 0.585000   0.294878   -0.176304
 0.590000   0.293999   -0.175380
 0.595000   0.293124   -0.174460
 0.600000   0.292254   -0.173546
 0.605000   0.291389   -0.172637
 0.610000   0.290528   -0.171733
 0.615000   0.289671   -0.170834
 0.620000   0.288819   -0.169940
 0.625000   0.287972   -0.169051
 0.630000   0.287129   -0.168167
 0.635000   0.286290   -0.167287
 0.640000   0.285456   -0.166413
 0.645000   0.284626   -0.165543
 0.650000   0.283801   -0.164678
 0.655000   0.282979   -0.163818
 0.660000   0.282162   -0.162962
 0.665000   0.281350   -0.162112
 0.670000   0.280541   -0.161265
 0.675000   0.279737   -0.160424
 0.680000   0.278937   -0.159587
 0.685000   0.278141   -0.158754
 0.690000   0.277350   -0.157926
 0.695000   0.276562   -0.157103
 0.700000   0.275778   -0.156284
 0.705000   0.274999   -0.155469
 0.710000   0.274224   -0.154658
 0.715000   0.273453   -0.153852
 0.720000   0.272685   -0.153050
 0.725000   0.271922   -0.152252
 0.730000   0.271163   -0.151458
 0.735000   0.270407   -0.150668
 0.740000   0.269656   -0.149881
 0.745000   0.268909   -0.149098
 0.750000   0.268165   -0.148317
 0.755000   0.267425   -0.147539
 0.760000   0.266690   -0.146762
 0.765000   0.265958   -0.145985
 0.770000   0.265230   -0.145207
 0.775000   0.264506   -0.144425
 0.780000   0.263786   -0.143637
 0.785000   0.263069   -0.142837
 0.790000   0.262357   -0.142021
 0.795000   0.261649   -0.141178
 0.800000   0.260945   -0.140297
 0.805000   0.260246   -0.139361
 0.810000   0.259552   -0.138346
 0.815000   0.258863   -0.137219
 0.820000   0.258180   -0.135933
 0.825000   0.257503   -0.134422
 0.830000   0.256835   -0.132598
 0.835000   0.256177   -0.130333
 0.840000   0.255532   -0.127454
 0.845000   0.254903   -0.123720
 0.850000   0.254295   -0.118798
 0.855000   0.253715   -0.112231
 0.860000   0.253173   -0.103397
 0.865000   0.252681   -0.091444
 0.870000   0.252258   -0.075225
 0.875000   0.251929   -0.053200
 0.880000   0.251726   -0.023322
 0.885000   0.251695   0.017093
 0.890000   0.251897   0.071497
 0.895000   0.252410   0.144212
 0.900000   0.253339   0.240417
 0.905000   0.254815   0.365838
 0.910000   0.256998   0.525781
 0.915000   0.260072   0.722789
 0.920000   0.264225   0.951630
 0.925000   0.269589   1.189561
 0.930000   0.276121   1.379815
 0.935000   0.283387   1.409851
 0.940000   0.290220   1.099533
 0.945000   0.294382   0.240841
 0.950000   0.292628   -1.260639
 0.955000   0.281776   -3.185073
 0.960000   0.260777   -4.965531
 0.965000   0.232121   -6.006257
 0.970000   0.200715   -6.097580
 0.975000   0.171145   -5.478605
 0.980000   0.145929   -4.553045
 0.985000   0.125614   -3.625446
 0.990000   0.109674   -2.836562
 0.995000   0.097249   -2.215742
 1.000000   0.087517   -1.677019
201 psinorm te(KeV) dte/dpsiN
 0.000000   4.036560   -3.866271
 0.005000   4.017228   -3.866407
 0.010000   3.997896   -3.866453
 0.015000   3.978564   -3.866319
 0.020000   3.959233   -3.866006
 0.025000   3.939904   -3.865514
 0.030000   3.920578   -3.864845
 0.035000   3.901255   -3.863999
 0.040000   3.881938   -3.862977
 0.045000   3.862626   -3.861781
 0.050000   3.843320   -3.860411
 0.055000   3.824021   -3.858868
 0.060000   3.804731   -3.857153
 0.065000   3.785450   -3.855268
 0.070000   3.766179   -3.853212
 0.075000   3.746918   -3.850988
 0.080000   3.727669   -3.848596
 0.085000   3.708432   -3.846038
 0.090000   3.689208   -3.843313
 0.095000   3.669999   -3.840424
 0.100000   3.650804   -3.837371
 0.105000   3.631625   -3.834156
 0.110000   3.612462   -3.830779
 0.115000   3.593317   -3.827242
 0.120000   3.574190   -3.823545
 0.125000   3.555082   -3.819691
 0.130000   3.535993   -3.815679
 0.135000   3.516925   -3.811511
 0.140000   3.497878   -3.807188
 0.145000   3.478853   -3.802712
 0.150000   3.459851   -3.798083
 0.155000   3.440872   -3.793303
 0.160000   3.421918   -3.788373
 0.165000   3.402989   -3.783293
 0.170000   3.384085   -3.778066
 0.175000   3.365208   -3.772692
 0.180000   3.346358   -3.767173
 0.185000   3.327536   -3.761509
 0.190000   3.308743   -3.755702
 0.195000   3.289979   -3.749753
 0.200000   3.271245   -3.743664
 0.205000   3.252542   -3.737435
 0.210000   3.233871   -3.731068
 0.215000   3.215232   -3.724564
 0.220000   3.196625   -3.717925
 0.225000   3.178053   -3.711151
 0.230000   3.159514   -3.704243
 0.235000   3.141010   -3.697204
 0.240000   3.122542   -3.690034
 0.245000   3.104110   -3.682735
 0.250000   3.085714   -3.675308
 0.255000   3.067357   -3.667753
 0.260000   3.049037   -3.660073
 0.265000   3.030756   -3.652269
 0.270000   3.012514   -3.644342
 0.275000   2.994313   -3.636293
 0.280000   2.976151   -3.628124
 0.285000   2.958031   -3.619835
 0.290000   2.939953   -3.611429
 0.295000   2.921917   -3.602907
 0.300000   2.903924   -3.594269
 0.305000   2.885974   -3.585517
 0.310000   2.868069   -3.576652
 0.315000   2.850208   -3.567677
 0.320000   2.832392   -3.558591
 0.325000   2.814622   -3.549397
 0.330000   2.796898   -3.540096
 0.335000   2.779221   -3.530688
 0.340000   2.761591   -3.521176
 0.345000   2.744009   -3.511561
 0.350000   2.726476   -3.501843
 0.355000   2.708991   -3.492025
 0.360000   2.691555   -3.482108
 0.365000   2.674170   -3.472093
 0.370000   2.656834   -3.461981
 0.375000   2.639550   -3.451773
 0.380000   2.622317   -3.441472
 0.385000   2.605135   -3.431078
 0.390000   2.588006   -3.420593
 0.395000   2.570929   -3.410018
 0.400000   2.553906   -3.399354
 0.405000   2.536936   -3.388602
 0.410000   2.520020   -3.377765
 0.415000   2.503158   -3.366843
 0.420000   2.486351   -3.355838
 0.425000   2.469600   -3.344750
 0.430000   2.452904   -3.333582
 0.435000   2.436264   -3.322335
 0.440000   2.419680   -3.311009
 0.445000   2.403154   -3.299607
 0.450000   2.386684   -3.288130
 0.455000   2.370272   -3.276578
 0.460000   2.353918   -3.264954
 0.465000   2.337623   -3.253258
 0.470000   2.321386   -3.241492
 0.475000   2.305208   -3.229657
 0.480000   2.289089   -3.217754
 0.485000   2.273030   -3.205785
 0.490000   2.257031   -3.193752
 0.495000   2.241093   -3.181655
 0.500000   2.225215   -3.169495
 0.505000   2.209398   -3.157274
 0.510000   2.193642   -3.144994
 0.515000   2.177948   -3.132655
 0.520000   2.162316   -3.120259
 0.525000   2.146745   -3.107807
 0.530000   2.131238   -3.095300
 0.535000   2.115792   -3.082740
 0.540000   2.100410   -3.070127
 0.545000   2.085091   -3.057464
 0.550000   2.069836   -3.044751
 0.555000   2.054644   -3.031990
 0.560000   2.039516   -3.019182
 0.565000   2.024452   -3.006328
 0.570000   2.009452   -2.993429
 0.575000   1.994518   -2.980487
 0.580000   1.979648   -2.967502
 0.585000   1.964843   -2.954477
 0.590000   1.950103   -2.941412
 0.595000   1.935428   -2.928308
 0.600000   1.920820   -2.915167
 0.605000   1.906277   -2.901989
 0.610000   1.891800   -2.888777
 0.615000   1.877389   -2.875531
 0.620000   1.863044   -2.862253
 0.625000   1.848766   -2.848943
 0.630000   1.834555   -2.835602
 0.635000   1.820410   -2.822233
 0.640000   1.806333   -2.808836
 0.645000   1.792322   -2.795412
 0.650000   1.778379   -2.781962
 0.655000   1.764502   -2.768488
 0.660000   1.750694   -2.754990
 0.665000   1.736953   -2.741471
 0.670000   1.723279   -2.727930
 0.675000   1.709673   -2.714369
 0.680000   1.696135   -2.700789
 0.685000   1.682665   -2.687191
 0.690000   1.669263   -2.673577
 0.695000   1.655930   -2.659947
 0.700000   1.642664   -2.646302
 0.705000   1.629467   -2.632644
 0.710000   1.616337   -2.618973
 0.715000   1.603277   -2.605291
 0.720000   1.590285   -2.591599
 0.725000   1.577361   -2.577897
 0.730000   1.564506   -2.564188
 0.735000   1.551719   -2.550470
 0.740000   1.539001   -2.536747
 0.745000   1.526351   -2.523018
 0.750000   1.513771   -2.509285
 0.755000   1.501259   -2.495549
 0.760000   1.488815   -2.481811
 0.765000   1.476441   -2.468071
 0.770000   1.464135   -2.454331
 0.775000   1.451897   -2.440592
 0.780000   1.439729   -2.426854
 0.785000   1.427629   -2.413119
 0.790000   1.415597   -2.399388
 0.795000   1.403635   -2.385660
 0.800000   1.391741   -2.371938
 0.805000   1.379915   -2.358222
 0.810000   1.368159   -2.344513
 0.815000   1.356470   -2.330812
 0.820000   1.344850   -2.317119
 0.825000   1.333299   -2.303436
 0.830000   1.321816   -2.289762
 0.835000   1.310401   -2.276098
 0.840000   1.299055   -2.262444
 0.845000   1.287777   -2.248799
 0.850000   1.276567   -2.235164
 0.855000   1.265425   -2.221535
 0.860000   1.254352   -2.207913
 0.865000   1.243346   -2.194294
 0.870000   1.232409   -2.180679
 0.875000   1.221539   -2.167073
 0.880000   1.210738   -2.153492
 0.885000   1.200005   -2.139983
 0.890000   1.189338   -2.126655
 0.895000   1.178738   -2.113745
 0.900000   1.168201   -2.101749
 0.905000   1.157721   -2.091675
 0.910000   1.147284   -2.085524
 0.915000   1.136865   -2.087202
 0.920000   1.126412   -2.104236
 0.925000   1.115823   -2.150954
 0.930000   1.104903   -2.254336
 0.935000   1.093280   -2.464530
 0.940000   1.080257   -2.873181
 0.945000   1.064548   -3.643360
 0.950000   1.043824   -5.052008
 0.955000   1.014028   -7.529211
 0.960000   0.968532   -11.624656
 0.965000   0.897781   -17.718569
 0.970000   0.791346   -25.238198
 0.975000   0.645399   -31.684769
 0.980000   0.474498   -33.234826
 0.985000   0.313051   -28.191414
 0.990000   0.192584   -19.409565
 0.995000   0.118955   -11.363495
 1.000000   0.078949   -4.638979
201 psinorm ni(10^20/m^3) dni/dpsiN
 0.000000   0.255650   -0.378593
 0.005000   0.254077   -0.250717
 0.010000   0.253143   -0.148621
 0.015000   0.252590   -0.080802
 0.020000   0.252335   -0.028372
 0.025000   0.252307   0.012697
 0.030000   0.252462   0.044745
 0.035000   0.252754   0.068640
 0.040000   0.253148   0.086262
 0.045000   0.253617   0.098900
 0.050000   0.254137   0.106899
 0.055000   0.254686   0.111126
 0.060000   0.255248   0.112617
 0.065000   0.255812   0.111643
 0.070000   0.256365   0.108529
 0.075000   0.256897   0.104092
 0.080000   0.257406   0.097902
 0.085000   0.257876   0.090453
 0.090000   0.258310   0.082751
 0.095000   0.258704   0.073478
 0.100000   0.259045   0.063559
 0.105000   0.259339   0.054058
 0.110000   0.259586   0.044314
 0.115000   0.259782   0.034375
 0.120000   0.259929   0.023862
 0.125000   0.260021   0.013254
 0.130000   0.260062   0.003268
 0.135000   0.260054   -0.006445
 0.140000   0.259997   -0.015982
 0.145000   0.259894   -0.025258
 0.150000   0.259745   -0.034207
 0.155000   0.259552   -0.042804
 0.160000   0.259317   -0.051023
 0.165000   0.259042   -0.058844
 0.170000   0.258728   -0.066269
 0.175000   0.258379   -0.073262
 0.180000   0.257996   -0.079795
 0.185000   0.257581   -0.085902
 0.190000   0.257137   -0.091623
 0.195000   0.256665   -0.096944
 0.200000   0.256167   -0.101857
 0.205000   0.255646   -0.106496
 0.210000   0.255102   -0.110994
 0.215000   0.254536   -0.114996
 0.220000   0.253952   -0.118388
 0.225000   0.253352   -0.121449
 0.230000   0.252738   -0.124202
 0.235000   0.252110   -0.126650
 0.240000   0.251471   -0.128819
 0.245000   0.250822   -0.130903
 0.250000   0.250162   -0.132927
 0.255000   0.249493   -0.134521
 0.260000   0.248817   -0.135692
 0.265000   0.248136   -0.136680
 0.270000   0.247450   -0.137502
 0.275000   0.246761   -0.138330
 0.280000   0.246067   -0.139136
 0.285000   0.245370   -0.139647
 0.290000   0.244671   -0.139941
 0.295000   0.243970   -0.140181
 0.300000   0.243269   -0.140465
 0.305000   0.242566   -0.140828
 0.310000   0.241861   -0.141058
 0.315000   0.241155   -0.141151
 0.320000   0.240449   -0.141263
 0.325000   0.239742   -0.141522
 0.330000   0.239034   -0.141875
 0.335000   0.238324   -0.142130
 0.340000   0.237612   -0.142338
 0.345000   0.236900   -0.142629
 0.350000   0.236186   -0.143044
 0.355000   0.235470   -0.143429
 0.360000   0.234752   -0.143751
 0.365000   0.234032   -0.144129
 0.370000   0.233311   -0.144658
 0.375000   0.232586   -0.145195
 0.380000   0.231859   -0.145648
 0.385000   0.231129   -0.146160
 0.390000   0.230397   -0.146818
 0.395000   0.229661   -0.147509
 0.400000   0.228922   -0.148159
 0.405000   0.228179   -0.148903
 0.410000   0.227433   -0.149830
 0.415000   0.226681   -0.150769
 0.420000   0.225925   -0.151621
 0.425000   0.225165   -0.152569
 0.430000   0.224400   -0.153640
 0.435000   0.223629   -0.154652
 0.440000   0.222853   -0.155552
 0.445000   0.222073   -0.156547
 0.450000   0.221288   -0.157577
 0.455000   0.220497   -0.158440
 0.460000   0.219703   -0.159172
 0.465000   0.218906   -0.160003
 0.470000   0.218103   -0.160755
 0.475000   0.217298   -0.161238
 0.480000   0.216491   -0.161670
 0.485000   0.215681   -0.162152
 0.490000   0.214869   -0.162488
 0.495000   0.214056   -0.162580
 0.500000   0.213243   -0.162688
 0.505000   0.212430   -0.162785
 0.510000   0.211616   -0.162685
 0.515000   0.210803   -0.162410
 0.520000   0.209991   -0.162169
 0.525000   0.209181   -0.161802
 0.530000   0.208373   -0.161141
 0.535000   0.207570   -0.160358
 0.540000   0.206770   -0.159522
 0.545000   0.205974   -0.158491
 0.550000   0.205185   -0.157206
 0.555000   0.204402   -0.155845
 0.560000   0.203627   -0.154374
 0.565000   0.202859   -0.152679
 0.570000   0.202100   -0.150794
 0.575000   0.201351   -0.148850
 0.580000   0.200611   -0.146763
 0.585000   0.199883   -0.144443
 0.590000   0.199167   -0.141987
 0.595000   0.198463   -0.139451
 0.600000   0.197772   -0.136756
 0.605000   0.197096   -0.133863
 0.610000   0.196434   -0.130864
 0.615000   0.195787   -0.127765
 0.620000   0.195156   -0.124520
 0.625000   0.194542   -0.121135
 0.630000   0.193945   -0.117668
 0.635000   0.193365   -0.114116
 0.640000   0.192803   -0.110463
 0.645000   0.192260   -0.106722
 0.650000   0.191736   -0.102896
 0.655000   0.191231   -0.098964
 0.660000   0.190747   -0.094928
 0.665000   0.190282   -0.090803
 0.670000   0.189839   -0.086585
 0.675000   0.189416   -0.082278
 0.680000   0.189016   -0.077895
 0.685000   0.188637   -0.073475
 0.690000   0.188281   -0.069062
 0.695000   0.187947   -0.064635
 0.700000   0.187635   -0.060152
 0.705000   0.187345   -0.055484
 0.710000   0.187080   -0.050243
 0.715000   0.186843   -0.044136
 0.720000   0.186638   -0.037372
 0.725000   0.186469   -0.030095
 0.730000   0.186338   -0.022271
 0.735000   0.186246   -0.013956
 0.740000   0.186198   -0.004973
 0.745000   0.186197   0.004373
 0.750000   0.186242   0.013169
 0.755000   0.186328   0.021089
 0.760000   0.186453   0.028080
 0.765000   0.186609   0.033806
 0.770000   0.186791   0.037972
 0.775000   0.186989   0.040190
 0.780000   0.187193   0.040325
 0.785000   0.187392   0.038745
 0.790000   0.187580   0.035732
 0.795000   0.187749   0.031482
 0.800000   0.187895   0.026124
 0.805000   0.188011   0.019807
 0.810000   0.188093   0.013257
 0.815000   0.188143   0.006963
 0.820000   0.188163   0.000930
 0.825000   0.188153   -0.004620
 0.830000   0.188116   -0.009505
 0.835000   0.188058   -0.013503
 0.840000   0.187981   -0.016215
 0.845000   0.187895   -0.017539
 0.850000   0.187806   -0.017481
 0.855000   0.187721   -0.015654
 0.860000   0.187649   -0.011450
 0.865000   0.187606   -0.003991
 0.870000   0.187609   0.007986
 0.875000   0.187686   0.026112
 0.880000   0.187871   0.052503
 0.885000   0.188211   0.089931
 0.890000   0.188770   0.141916
 0.895000   0.189630   0.212961
 0.900000   0.190899   0.308236
 0.905000   0.192712   0.433450
 0.910000   0.195234   0.594128
 0.915000   0.198654   0.793183
 0.920000   0.203166   1.026248
 0.925000   0.208916   1.273066
 0.930000   0.215896   1.479970
 0.935000   0.223716   1.539144
 0.940000   0.231288   1.278590
 0.945000   0.236502   0.500246
 0.950000   0.236290   -0.880635
 0.955000   0.227695   -2.635059
 0.960000   0.209940   -4.209989
 0.965000   0.185596   -5.049091
 0.970000   0.159449   -4.987898
 0.975000   0.135717   -4.307095
 0.980000   0.116378   -3.426494
 0.985000   0.101452   -2.631225
 0.990000   0.090066   -2.022455
 0.995000   0.081227   -1.585735
 1.000000   0.074208   -1.221774
201 psinorm ti(KeV) dti/dpsiN
 0.000000   5.582566   0.001642
 0.005000   5.581974   -0.238139
 0.010000   5.580184   -0.480276
 0.015000   5.577172   -0.726996
 0.020000   5.572914   -0.978040
 0.025000   5.567391   -1.233155
 0.030000   5.560583   -1.492090
 0.035000   5.552470   -1.754592
 0.040000   5.543037   -2.020390
 0.045000   5.532266   -2.288868
 0.050000   5.520148   -2.559089
 0.055000   5.506675   -2.830100
 0.060000   5.491847   -3.100907
 0.065000   5.475666   -3.370591
 0.070000   5.458141   -3.637888
 0.075000   5.439287   -3.902251
 0.080000   5.419119   -4.163388
 0.085000   5.397654   -4.420205
 0.090000   5.374917   -4.671840
 0.095000   5.350935   -4.917669
 0.100000   5.325740   -5.156294
 0.105000   5.299372   -5.388062
 0.110000   5.271859   -5.614731
 0.115000   5.243225   -5.836652
 0.120000   5.213493   -6.054300
 0.125000   5.182682   -6.268424
 0.130000   5.150809   -6.479923
 0.135000   5.117883   -6.689672
 0.140000   5.083912   -6.897346
 0.145000   5.048909   -7.102319
 0.150000   5.012889   -7.304136
 0.155000   4.975868   -7.501562
 0.160000   4.937873   -7.693460
 0.165000   4.898933   -7.876907
 0.170000   4.859104   -8.048097
 0.175000   4.818452   -8.206234
 0.180000   4.777042   -8.351223
 0.185000   4.734940   -8.482000
 0.190000   4.692222   -8.596778
 0.195000   4.648972   -8.692748
 0.200000   4.605294   -8.770425
 0.205000   4.561268   -8.831118
 0.210000   4.516983   -8.874198
 0.215000   4.472526   -8.900212
 0.220000   4.427981   -8.909133
 0.225000   4.383435   -8.904215
 0.230000   4.338939   -8.898225
 0.235000   4.294453   -8.897242
 0.240000   4.249966   -8.898210
 0.245000   4.205470   -8.900502
 0.250000   4.160961   -8.903157
 0.255000   4.116439   -8.907326
 0.260000   4.071888   -8.909390
 0.265000   4.027345   -8.905671
 0.270000   3.982831   -8.897332
 0.275000   3.938372   -8.883634
 0.280000   3.893995   -8.864128
 0.285000   3.849730   -8.841696
 0.290000   3.805578   -8.809212
 0.295000   3.761638   -8.760504
 0.300000   3.717973   -8.698977
 0.305000   3.674648   -8.623817
 0.310000   3.631735   -8.534531
 0.315000   3.589303   -8.430214
 0.320000   3.547433   -8.309254
 0.325000   3.506211   -8.172729
 0.330000   3.465705   -8.022735
 0.335000   3.425983   -7.859602
 0.340000   3.387109   -7.683787
 0.345000   3.349145   -7.490277
 0.350000   3.312206   -7.285936
 0.355000   3.276286   -7.083921
 0.360000   3.241367   -6.886607
 0.365000   3.207420   -6.696711
 0.370000   3.174400   -6.516319
 0.375000   3.142257   -6.347111
 0.380000   3.110929   -6.191997
 0.385000   3.080337   -6.050125
 0.390000   3.050428   -5.918048
 0.395000   3.021156   -5.794302
 0.400000   2.992485   -5.676841
 0.405000   2.964388   -5.565177
 0.410000   2.936833   -5.450966
 0.415000   2.909878   -5.325413
 0.420000   2.883579   -5.190853
 0.425000   2.857970   -5.049744
 0.430000   2.833081   -4.902959
 0.435000   2.808940   -4.750186
 0.440000   2.785580   -4.592265
 0.445000   2.763017   -4.435257
 0.450000   2.741227   -4.284372
 0.455000   2.720174   -4.141103
 0.460000   2.699816   -4.006546
 0.465000   2.680108   -3.880908
 0.470000   2.661007   -3.764665
 0.475000   2.642462   -3.657795
 0.480000   2.624429   -3.558757
 0.485000   2.606874   -3.466640
 0.490000   2.589763   -3.381453
 0.495000   2.573060   -3.303200
 0.500000   2.556731   -3.232037
 0.505000   2.540739   -3.168566
 0.510000   2.525045   -3.112937
 0.515000   2.509610   -3.064917
 0.520000   2.494396   -3.024508
 0.525000   2.479365   -2.991643
 0.530000   2.464479   -2.965833
 0.535000   2.449706   -2.945996
 0.540000   2.435019   -2.931126
 0.545000   2.420395   -2.920684
 0.550000   2.405813   -2.914346
 0.555000   2.391252   -2.911598
 0.560000   2.376697   -2.910865
 0.565000   2.362143   -2.913402
 0.570000   2.347563   -2.920458
 0.575000   2.332938   -2.930720
 0.580000   2.318255   -2.943975
 0.585000   2.303499   -2.959940
 0.590000   2.288656   -2.977041
 0.595000   2.273728   -2.997325
 0.600000   2.258683   -3.022343
 0.605000   2.243505   -3.050146
 0.610000   2.228181   -3.080617
 0.615000   2.212699   -3.113619
 0.620000   2.197045   -3.149073
 0.625000   2.181208   -3.186969
 0.630000   2.165175   -3.226508
 0.635000   2.148943   -3.266688
 0.640000   2.132508   -3.307073
 0.645000   2.115872   -3.347190
 0.650000   2.099037   -3.387819
 0.655000   2.081994   -3.427573
 0.660000   2.064761   -3.464121
 0.665000   2.047353   -3.497388
 0.670000   2.029787   -3.526850
 0.675000   2.012084   -3.551807
 0.680000   1.994269   -3.573093
 0.685000   1.976353   -3.590576
 0.690000   1.958363   -3.603577
 0.695000   1.940318   -3.612931
 0.700000   1.922234   -3.618512
 0.705000   1.904132   -3.619562
 0.710000   1.886038   -3.617123
 0.715000   1.867961   -3.608711
 0.720000   1.849951   -3.589600
 0.725000   1.832065   -3.559907
 0.730000   1.814352   -3.520361
 0.735000   1.796862   -3.470741
 0.740000   1.779645   -3.411319
 0.745000   1.762748   -3.341301
 0.750000   1.746232   -3.260367
 0.755000   1.730145   -3.170459
 0.760000   1.714527   -3.073582
 0.765000   1.699409   -2.971584
 0.770000   1.684811   -2.866238
 0.775000   1.670747   -2.759699
 0.780000   1.657214   -2.654123
 0.785000   1.644205   -2.550180
 0.790000   1.631712   -2.448109
 0.795000   1.619724   -2.348545
 0.800000   1.608227   -2.251875
 0.805000   1.597205   -2.157191
 0.810000   1.586655   -2.063512
 0.815000   1.576570   -1.971773
 0.820000   1.566937   -1.883966
 0.825000   1.557731   -1.802256
 0.830000   1.548915   -1.728560
 0.835000   1.540445   -1.664643
 0.840000   1.532268   -1.612888
 0.845000   1.524316   -1.574026
 0.850000   1.516528   -1.547593
 0.855000   1.508840   -1.534226
 0.860000   1.501186   -1.534937
 0.865000   1.493491   -1.553160
 0.870000   1.485654   -1.591123
 0.875000   1.477580   -1.649860
 0.880000   1.469156   -1.732921
 0.885000   1.460250   -1.844818
 0.890000   1.450707   -1.991706
 0.895000   1.440333   -2.192258
 0.900000   1.428785   -2.447184
 0.905000   1.415862   -2.756623
 0.910000   1.401219   -3.142515
 0.915000   1.384436   -3.619945
 0.920000   1.365019   -4.203732
 0.925000   1.342399   -4.948592
 0.930000   1.315533   -5.842013
 0.935000   1.283979   -6.841189
 0.940000   1.247121   -7.953505
 0.945000   1.204444   -9.145555
 0.950000   1.155666   -10.358638
 0.955000   1.100858   -11.554737
 0.960000   1.040118   -12.594679
 0.965000   0.974911   -13.339439
 0.970000   0.906724   -13.769486
 0.975000   0.837216   -13.852010
 0.980000   0.768204   -13.570264
 0.985000   0.701513   -12.952287
 0.990000   0.638681   -12.022721
 0.995000   0.581286   -10.837889
 1.000000   0.530302   -9.555675
201 psinorm nb(10^20/m^3) dnb/dpsiN
 0.000000   0.105373   0.047065
 0.005000   0.105293   -0.079255
 0.010000   0.104581   -0.179798
 0.015000   0.103495   -0.246073
 0.020000   0.102120   -0.296964
 0.025000   0.100525   -0.336499
 0.030000   0.098755   -0.367012
 0.035000   0.096855   -0.389369
 0.040000   0.094861   -0.405450
 0.045000   0.092801   -0.416539
 0.050000   0.090696   -0.422979
 0.055000   0.088571   -0.425635
 0.060000   0.086440   -0.425543
 0.065000   0.084315   -0.422968
 0.070000   0.082210   -0.418233
 0.075000   0.080133   -0.412156
 0.080000   0.078088   -0.404305
 0.085000   0.076090   -0.395172
 0.090000   0.074137   -0.385763
 0.095000   0.072232   -0.374758
 0.100000   0.070389   -0.363083
 0.105000   0.068601   -0.351801
 0.110000   0.066871   -0.340249
 0.115000   0.065199   -0.328476
 0.120000   0.063586   -0.316103
 0.125000   0.062038   -0.303608
 0.130000   0.060550   -0.291709
 0.135000   0.059121   -0.280058
 0.140000   0.057750   -0.268558
 0.145000   0.056435   -0.257295
 0.150000   0.055177   -0.246336
 0.155000   0.053972   -0.235709
 0.160000   0.052820   -0.225441
 0.165000   0.051718   -0.215552
 0.170000   0.050664   -0.206046
 0.175000   0.049657   -0.196959
 0.180000   0.048694   -0.188319
 0.185000   0.047774   -0.180100
 0.190000   0.046893   -0.172261
 0.195000   0.046051   -0.164820
 0.200000   0.045245   -0.157790
 0.205000   0.044473   -0.151040
 0.210000   0.043735   -0.144441
 0.215000   0.043029   -0.138353
 0.220000   0.042351   -0.132895
 0.225000   0.041700   -0.127794
 0.230000   0.041073   -0.123032
 0.235000   0.040470   -0.118615
 0.240000   0.039887   -0.114516
 0.245000   0.039325   -0.110546
 0.250000   0.038782   -0.106678
 0.255000   0.038258   -0.103283
 0.260000   0.037749   -0.100351
 0.265000   0.037254   -0.097645
 0.270000   0.036772   -0.095154
 0.275000   0.036303   -0.092708
 0.280000   0.035845   -0.090341
 0.285000   0.035399   -0.088331
 0.290000   0.034962   -0.086609
 0.295000   0.034533   -0.085020
 0.300000   0.034112   -0.083467
 0.305000   0.033699   -0.081918
 0.310000   0.033293   -0.080587
 0.315000   0.032893   -0.079485
 0.320000   0.032498   -0.078458
 0.325000   0.032108   -0.077375
 0.330000   0.031724   -0.076287
 0.335000   0.031345   -0.075384
 0.340000   0.030970   -0.074608
 0.345000   0.030599   -0.073831
 0.350000   0.030232   -0.072997
 0.355000   0.029869   -0.072250
 0.360000   0.029509   -0.071621
 0.365000   0.029153   -0.070984
 0.370000   0.028800   -0.070244
 0.375000   0.028450   -0.069535
 0.380000   0.028104   -0.068950
 0.385000   0.027761   -0.068348
 0.390000   0.027421   -0.067652
 0.395000   0.027084   -0.066976
 0.400000   0.026751   -0.066393
 0.405000   0.026421   -0.065768
 0.410000   0.026093   -0.065009
 0.415000   0.025770   -0.064280
 0.420000   0.025451   -0.063672
 0.425000   0.025134   -0.062991
 0.430000   0.024821   -0.062200
 0.435000   0.024512   -0.061469
 0.440000   0.024206   -0.060835
 0.445000   0.023903   -0.060075
 0.450000   0.023605   -0.059237
 0.455000   0.023311   -0.058510
 0.460000   0.023020   -0.057848
 0.465000   0.022733   -0.057001
 0.470000   0.022450   -0.056141
 0.475000   0.022171   -0.055463
 0.480000   0.021895   -0.054755
 0.485000   0.021624   -0.053908
 0.490000   0.021356   -0.053121
 0.495000   0.021092   -0.052490
 0.500000   0.020831   -0.051761
 0.505000   0.020575   -0.050975
 0.510000   0.020322   -0.050315
 0.515000   0.020072   -0.049741
 0.520000   0.019824   -0.049034
 0.525000   0.019581   -0.048339
 0.530000   0.019341   -0.047813
 0.535000   0.019103   -0.047278
 0.540000   0.018868   -0.046661
 0.545000   0.018637   -0.046104
 0.550000   0.018407   -0.045664
 0.555000   0.018180   -0.045166
 0.560000   0.017955   -0.044641
 0.565000   0.017733   -0.044210
 0.570000   0.017513   -0.043840
 0.575000   0.017295   -0.043400
 0.580000   0.017079   -0.042976
 0.585000   0.016865   -0.042659
 0.590000   0.016653   -0.042355
 0.595000   0.016442   -0.042009
 0.600000   0.016233   -0.041702
 0.605000   0.016025   -0.041477
 0.610000   0.015818   -0.041246
 0.615000   0.015612   -0.041007
 0.620000   0.015408   -0.040817
 0.625000   0.015204   -0.040677
 0.630000   0.015001   -0.040541
 0.635000   0.014799   -0.040421
 0.640000   0.014597   -0.040341
 0.645000   0.014395   -0.040290
 0.650000   0.014194   -0.040254
 0.655000   0.013993   -0.040243
 0.660000   0.013792   -0.040259
 0.665000   0.013590   -0.040291
 0.670000   0.013389   -0.040346
 0.675000   0.013187   -0.040430
 0.680000   0.012984   -0.040521
 0.685000   0.012781   -0.040612
 0.690000   0.012578   -0.040725
 0.695000   0.012374   -0.040868
 0.700000   0.012170   -0.041012
 0.705000   0.011964   -0.041146
 0.710000   0.011758   -0.041285
 0.715000   0.011551   -0.041461
 0.720000   0.011343   -0.041646
 0.725000   0.011135   -0.041813
 0.730000   0.010925   -0.041990
 0.735000   0.010715   -0.042200
 0.740000   0.010503   -0.042441
 0.745000   0.010291   -0.042670
 0.750000   0.010077   -0.042887
 0.755000   0.009862   -0.043108
 0.760000   0.009646   -0.043357
 0.765000   0.009428   -0.043611
 0.770000   0.009209   -0.043827
 0.775000   0.008990   -0.044024
 0.780000   0.008769   -0.044210
 0.785000   0.008548   -0.044397
 0.790000   0.008325   -0.044572
 0.795000   0.008102   -0.044710
 0.800000   0.007878   -0.044822
 0.805000   0.007654   -0.044917
 0.810000   0.007429   -0.044992
 0.815000   0.007204   -0.045048
 0.820000   0.006978   -0.045072
 0.825000   0.006753   -0.045061
 0.830000   0.006528   -0.045023
 0.835000   0.006303   -0.044955
 0.840000   0.006078   -0.044855
 0.845000   0.005854   -0.044713
 0.850000   0.005631   -0.044521
 0.855000   0.005409   -0.044297
 0.860000   0.005188   -0.044054
 0.865000   0.004969   -0.043813
 0.870000   0.004750   -0.043613
 0.875000   0.004532   -0.043475
 0.880000   0.004315   -0.043409
 0.885000   0.004098   -0.043410
 0.890000   0.003881   -0.043479
 0.895000   0.003664   -0.043612
 0.900000   0.003445   -0.043789
 0.905000   0.003226   -0.043995
 0.910000   0.003005   -0.044196
 0.915000   0.002784   -0.044347
 0.920000   0.002562   -0.044402
 0.925000   0.002340   -0.044259
 0.930000   0.002119   -0.043738
 0.935000   0.001902   -0.042651
 0.940000   0.001693   -0.040922
 0.945000   0.001493   -0.038746
 0.950000   0.001305   -0.036659
 0.955000   0.001127   -0.035111
 0.960000   0.000954   -0.033856
 0.965000   0.000788   -0.031921
 0.970000   0.000635   -0.028370
 0.975000   0.000504   -0.023335
 0.980000   0.000401   -0.018158
 0.985000   0.000323   -0.014362
 0.990000   0.000258   -0.012583
 0.995000   0.000197   -0.012904
 1.000000   0.000129   -0.014308
201 psinorm pb(KPa) dpb/dpsiN
 0.000000   42.969160   0.402999
 0.005000   42.862592   -43.030172
 0.010000   42.538858   -80.364988
 0.015000   42.058942   -108.297532
 0.020000   41.455883   -129.727338
 0.025000   40.761669   -145.979712
 0.030000   39.996086   -158.300539
 0.035000   39.178663   -167.159274
 0.040000   38.324493   -173.366459
 0.045000   37.444999   -177.463959
 0.050000   36.549853   -179.565884
 0.055000   35.649340   -180.101032
 0.060000   34.748843   -179.580749
 0.065000   33.853532   -178.068195
 0.070000   32.968161   -175.690974
 0.075000   32.096623   -172.832923
 0.080000   31.239832   -169.272724
 0.085000   30.403896   -165.155312
 0.090000   29.588279   -160.939349
 0.095000   28.794502   -156.097689
 0.100000   28.027302   -151.009427
 0.105000   27.284408   -146.104174
 0.110000   26.566260   -141.113096
 0.115000   25.873277   -136.061438
 0.120000   25.205646   -130.793723
 0.125000   24.565340   -125.499346
 0.130000   23.950652   -120.467041
 0.135000   23.360669   -115.554214
 0.140000   22.795110   -110.712095
 0.145000   22.253548   -105.980819
 0.150000   21.735302   -101.394851
 0.155000   21.239600   -96.961526
 0.160000   20.765687   -92.689968
 0.165000   20.312700   -88.585094
 0.170000   19.879836   -84.644802
 0.175000   19.466252   -80.885752
 0.180000   19.070978   -77.324838
 0.185000   18.693004   -73.948169
 0.190000   18.331497   -70.727687
 0.195000   17.985727   -67.670066
 0.200000   17.654796   -64.778479
 0.205000   17.337942   -62.009497
 0.210000   17.034701   -59.314847
 0.215000   16.744793   -56.827423
 0.220000   16.466427   -54.598039
 0.225000   16.198813   -52.514581
 0.230000   15.941281   -50.569183
 0.235000   15.693121   -48.764752
 0.240000   15.453633   -47.092225
 0.245000   15.222199   -45.476199
 0.250000   14.998871   -43.906621
 0.255000   14.783133   -42.525928
 0.260000   14.573612   -41.329513
 0.265000   14.369838   -40.224893
 0.270000   14.171363   -39.206754
 0.275000   13.977770   -38.211257
 0.280000   13.789251   -37.250668
 0.285000   13.605263   -36.429473
 0.290000   13.424956   -35.720885
 0.295000   13.248055   -35.064910
 0.300000   13.074307   -34.424990
 0.305000   12.903805   -33.789500
 0.310000   12.736412   -33.238265
 0.315000   12.571422   -32.772865
 0.320000   12.408683   -32.336402
 0.325000   12.248058   -31.881013
 0.330000   12.089873   -31.413513
 0.335000   11.933923   -31.011958
 0.340000   11.779753   -30.669887
 0.345000   11.627224   -30.330990
 0.350000   11.476444   -29.972347
 0.355000   11.327501   -29.645022
 0.360000   11.179993   -29.360571
 0.365000   11.033895   -29.072613
 0.370000   10.889267   -28.746281
 0.375000   10.746432   -28.431988
 0.380000   10.604947   -28.162464
 0.385000   10.464807   -27.886254
 0.390000   10.326085   -27.584498
 0.395000   10.188962   -27.292184
 0.400000   10.053163   -27.025714
 0.405000   9.918705   -26.742178
 0.410000   9.785741   -26.410454
 0.415000   9.654601   -26.090243
 0.420000   9.524839   -25.814902
 0.425000   9.396452   -25.514807
 0.430000   9.269691   -25.175881
 0.435000   9.144693   -24.859606
 0.440000   9.021095   -24.579130
 0.445000   8.898902   -24.252128
 0.450000   8.778573   -23.895539
 0.455000   8.659946   -23.579273
 0.460000   8.542781   -23.286639
 0.465000   8.427080   -22.926288
 0.470000   8.313518   -22.561264
 0.475000   8.201467   -22.265272
 0.480000   8.090865   -21.958850
 0.485000   7.981879   -21.602891
 0.490000   7.874836   -21.271257
 0.495000   7.769166   -20.998738
 0.500000   7.664849   -20.692737
 0.505000   7.562239   -20.368668
 0.510000   7.461162   -20.092490
 0.515000   7.361314   -19.849119
 0.520000   7.262671   -19.561533
 0.525000   7.165698   -19.280881
 0.530000   7.069862   -19.061135
 0.535000   6.975087   -18.839919
 0.540000   6.881463   -18.592808
 0.545000   6.789159   -18.366888
 0.550000   6.697794   -18.180759
 0.555000   6.607351   -17.975080
 0.560000   6.518043   -17.760693
 0.565000   6.429745   -17.577526
 0.570000   6.342268   -17.414777
 0.575000   6.255597   -17.228604
 0.580000   6.169982   -17.047395
 0.585000   6.085123   -16.902057
 0.590000   6.000961   -16.760943
 0.595000   5.917513   -16.604560
 0.600000   5.834916   -16.462046
 0.605000   5.752893   -16.348234
 0.610000   5.671433   -16.229855
 0.615000   5.590594   -16.108334
 0.620000   5.510350   -16.003969
 0.625000   5.430555   -15.916566
 0.630000   5.351184   -15.830426
 0.635000   5.272250   -15.750338
 0.640000   5.193681   -15.685044
 0.645000   5.115400   -15.629757
 0.650000   5.037383   -15.579299
 0.655000   4.959607   -15.537502
 0.660000   4.882008   -15.505938
 0.665000   4.804548   -15.481040
 0.670000   4.727198   -15.465159
 0.675000   4.649896   -15.457404
 0.680000   4.572624   -15.449832
 0.685000   4.495398   -15.442442
 0.690000   4.418200   -15.443300
 0.695000   4.340965   -15.452716
 0.700000   4.263672   -15.460161
 0.705000   4.186363   -15.463805
 0.710000   4.109034   -15.468181
 0.715000   4.031681   -15.483170
 0.720000   3.954203   -15.501687
 0.725000   3.876664   -15.515704
 0.730000   3.799046   -15.534038
 0.735000   3.721324   -15.563950
 0.740000   3.643406   -15.605045
 0.745000   3.565274   -15.643763
 0.750000   3.486968   -15.679146
 0.755000   3.408482   -15.715937
 0.760000   3.329809   -15.762575
 0.765000   3.250856   -15.810365
 0.770000   3.171705   -15.844756
 0.775000   3.092409   -15.871319
 0.780000   3.012992   -15.892509
 0.785000   2.933484   -15.911732
 0.790000   2.853875   -15.924590
 0.795000   2.774238   -15.924379
 0.800000   2.694631   -15.914946
 0.805000   2.615088   -15.898693
 0.810000   2.535644   -15.875322
 0.815000   2.456335   -15.842002
 0.820000   2.377224   -15.796974
 0.825000   2.298365   -15.742116
 0.830000   2.219803   -15.677906
 0.835000   2.141586   -15.603607
 0.840000   2.063767   -15.518933
 0.845000   1.986397   -15.419229
 0.850000   1.909575   -15.301596
 0.855000   1.833381   -15.175232
 0.860000   1.757822   -15.045208
 0.865000   1.682929   -14.914466
 0.870000   1.608678   -14.792409
 0.875000   1.535005   -14.685408
 0.880000   1.461824   -14.597207
 0.885000   1.389033   -14.527956
 0.890000   1.316544   -14.474523
 0.895000   1.244288   -14.441680
 0.900000   1.172127   -14.433127
 0.905000   1.099956   -14.444118
 0.910000   1.027686   -14.464714
 0.915000   0.955309   -14.478802
 0.920000   0.882898   -14.466056
 0.925000   0.810649   -14.383415
 0.930000   0.739064   -14.159076
 0.935000   0.669058   -13.711464
 0.940000   0.601949   -12.985504
 0.945000   0.539203   -12.019283
 0.950000   0.481756   -11.007694
 0.955000   0.429126   -10.246921
 0.960000   0.379287   -9.942786
 0.965000   0.329698   -10.003263
 0.970000   0.279255   -10.015947
 0.975000   0.229539   -9.612449
 0.980000   0.183130   -8.830214
 0.985000   0.141236   -7.996907
 0.990000   0.103161   -7.055145
 0.995000   0.070685   -6.040574
 1.000000   0.042755   -5.131288
201 psinorm ptot(KPa) dptot/dpsiN
 0.000000   95.327032   -82.041185
 0.005000   94.835105   -114.729477
 0.010000   94.179737   -143.633872
 0.015000   93.398767   -166.221321
 0.020000   92.517524   -183.705997
 0.025000   91.561707   -197.055100
 0.030000   90.546973   -207.306265
 0.035000   89.488644   -214.850865
 0.040000   88.398464   -220.330298
 0.045000   87.285341   -224.168340
 0.050000   86.156781   -226.442915
 0.055000   85.020912   -227.499907
 0.060000   83.881782   -227.752595
 0.065000   82.743386   -227.234207
 0.070000   81.609440   -226.035884
 0.075000   80.483027   -224.465070
 0.080000   79.364789   -222.333975
 0.085000   78.259687   -219.737594
 0.090000   77.167413   -217.041128
 0.095000   76.089276   -213.826031
 0.100000   75.029153   -210.383367
 0.105000   73.985442   -207.051343
 0.110000   72.958639   -203.624203
 0.115000   71.949200   -200.123054
 0.120000   70.957409   -196.424509
 0.125000   69.984955   -192.679671
 0.130000   69.030612   -189.120573
 0.135000   68.093750   -185.637227
 0.140000   67.174240   -182.187025
 0.145000   66.271879   -178.799818
 0.150000   65.386242   -175.502555
 0.155000   64.516854   -172.294946
 0.160000   63.663292   -169.179230
 0.165000   62.825061   -166.146229
 0.170000   62.001830   -163.177739
 0.175000   61.193284   -160.284955
 0.180000   60.398980   -157.483063
 0.185000   59.618453   -154.756983
 0.190000   58.851411   -152.075224
 0.195000   58.097701   -149.432371
 0.200000   57.357087   -146.834513
 0.205000   56.629356   -144.255212
 0.210000   55.914535   -141.654159
 0.215000   55.212814   -139.142310
 0.220000   54.523112   -136.763996
 0.225000   53.845174   -134.442913
 0.230000   53.178683   -132.228390
 0.235000   52.522891   -130.150187
 0.240000   51.877181   -128.188818
 0.245000   51.241002   -126.279824
 0.250000   50.614382   -124.411142
 0.255000   49.996891   -122.705895
 0.260000   49.387324   -121.145851
 0.265000   48.785432   -119.639946
 0.270000   48.190924   -118.189521
 0.275000   47.603537   -116.739076
 0.280000   47.023533   -115.297599
 0.285000   46.450561   -113.964956
 0.290000   45.883884   -112.690660
 0.295000   45.323655   -111.400165
 0.300000   44.769882   -110.077524
 0.305000   44.222879   -108.710453
 0.310000   43.682778   -107.364868
 0.315000   43.149231   -106.039375
 0.320000   42.622384   -104.680482
 0.325000   42.102426   -103.252584
 0.330000   41.589858   -101.768539
 0.335000   41.084741   -100.297581
 0.340000   40.586882   -98.838795
 0.345000   40.096353   -97.323576
 0.350000   39.613646   -95.759177
 0.355000   39.138761   -94.241273
 0.360000   38.671234   -92.789041
 0.365000   38.210870   -91.373018
 0.370000   37.757503   -89.970820
 0.375000   37.311162   -88.631776
 0.380000   36.871186   -87.394782
 0.385000   36.437214   -86.211706
 0.390000   36.009069   -85.053702
 0.395000   35.586677   -83.943956
 0.400000   35.169629   -82.886986
 0.405000   34.757808   -81.844265
 0.410000   34.351186   -80.756369
 0.415000   33.950244   -79.641417
 0.420000   33.554772   -78.537595
 0.425000   33.164868   -77.393747
 0.430000   32.780835   -76.200630
 0.435000   32.402862   -75.010615
 0.440000   32.030729   -73.838156
 0.445000   31.664480   -72.633399
 0.450000   31.304395   -71.430156
 0.455000   30.950178   -70.294888
 0.460000   30.601446   -69.216467
 0.465000   30.258014   -68.114053
 0.470000   29.920305   -67.044401
 0.475000   29.587570   -66.072667
 0.480000   29.259579   -65.122696
 0.485000   28.936343   -64.155997
 0.490000   28.618019   -63.237908
 0.495000   28.303964   -62.399002
 0.500000   27.994029   -61.557690
 0.505000   27.688387   -60.730042
 0.510000   27.386728   -59.974627
 0.515000   27.088641   -59.276308
 0.520000   26.793965   -58.566213
 0.525000   26.502978   -57.888657
 0.530000   26.215079   -57.288946
 0.535000   25.930089   -56.707586
 0.540000   25.648003   -56.119116
 0.545000   25.368898   -55.563019
 0.550000   25.092372   -55.054452
 0.555000   24.818353   -54.539026
 0.560000   24.546982   -54.020793
 0.565000   24.278145   -53.539575
 0.570000   24.011586   -53.090220
 0.575000   23.747243   -52.629165
 0.580000   23.485295   -52.180863
 0.585000   23.225435   -51.771894
 0.590000   22.967576   -51.368927
 0.595000   22.711745   -50.961459
 0.600000   22.457961   -50.580942
 0.605000   22.205936   -50.234156
 0.610000   21.955620   -49.890813
 0.615000   21.707028   -49.552071
 0.620000   21.460099   -49.236272
 0.625000   21.214665   -48.943456
 0.630000   20.970664   -48.657274
 0.635000   20.728092   -48.379145
 0.640000   20.486873   -48.115846
 0.645000   20.246934   -47.861649
 0.650000   20.008256   -47.614214
 0.655000   19.770792   -47.372338
 0.660000   19.534533   -47.130233
 0.665000   19.299489   -46.884806
 0.670000   19.065685   -46.636807
 0.675000   18.833121   -46.383439
 0.680000   18.601851   -46.120110
 0.685000   18.371920   -45.847704
 0.690000   18.143374   -45.573266
 0.695000   17.916187   -45.299384
 0.700000   17.690380   -45.014268
 0.705000   17.466045   -44.710662
 0.710000   17.243273   -44.386862
 0.715000   17.022176   -44.038026
 0.720000   16.802893   -43.648140
 0.725000   16.585695   -43.213997
 0.730000   16.370753   -42.746277
 0.735000   16.158232   -42.253287
 0.740000   15.948220   -41.731758
 0.745000   15.740914   -41.173318
 0.750000   15.536487   -40.597290
 0.755000   15.334942   -40.021329
 0.760000   15.136274   -39.460268
 0.765000   14.940339   -38.917827
 0.770000   14.747095   -38.390640
 0.775000   14.556432   -37.898170
 0.780000   14.368114   -37.451009
 0.785000   14.181922   -37.045018
 0.790000   13.997663   -36.669149
 0.795000   13.815231   -36.313586
 0.800000   13.634528   -35.979655
 0.805000   13.455434   -35.662800
 0.810000   13.277900   -35.343342
 0.815000   13.102001   -35.010479
 0.820000   12.927795   -34.667996
 0.825000   12.755321   -34.318824
 0.830000   12.584607   -33.964049
 0.835000   12.415680   -33.601485
 0.840000   12.248592   -33.226748
 0.845000   12.083413   -32.830503
 0.850000   11.920287   -32.401574
 0.855000   11.759397   -31.933696
 0.860000   11.600950   -31.409815
 0.865000   11.445299   -30.808599
 0.870000   11.292864   -30.098047
 0.875000   11.144319   -29.224942
 0.880000   11.000614   -28.123181
 0.885000   10.863087   -26.702992
 0.890000   10.733584   -24.850670
 0.895000   10.614580   -22.471274
 0.900000   10.508872   -19.393300
 0.905000   10.420647   -15.432368
 0.910000   10.354548   -10.509882
 0.915000   10.315548   -4.667869
 0.920000   10.307869   1.704759
 0.925000   10.332596   7.382718
 0.930000   10.381696   10.060531
 0.935000   10.433201   5.526557
 0.940000   10.436962   -12.782961
 0.945000   10.305372   -51.638966
 0.950000   9.920572   -112.668678
 0.955000   9.178685   -185.755591
 0.960000   8.063016   -249.212496
 0.965000   6.686560   -282.420776
 0.970000   5.238809   -278.877587
 0.975000   3.897784   -245.411339
 0.980000   2.784695   -194.159115
 0.985000   1.956193   -138.850500
 0.990000   1.396190   -91.911459
 0.995000   1.037078   -59.356978
 1.000000   0.802621   -34.426111
201 psinorm omeg(kRad/s) domeg/dpsiN
 0.000000   40.156151   0.005416
 0.005000   40.155823   -0.136528
 0.010000   40.154786   -0.286850
 0.015000   40.152955   -0.454688
 0.020000   40.150239   -0.641611
 0.025000   40.146538   -0.849445
 0.030000   40.141744   -1.080381
 0.035000   40.135735   -1.336954
 0.040000   40.128375   -1.622872
 0.045000   40.119506   -1.939341
 0.050000   40.108981   -2.285314
 0.055000   40.096653   -2.660392
 0.060000   40.082377   -3.063136
 0.065000   40.066021   -3.491529
 0.070000   40.047462   -3.941444
 0.075000   40.026607   -4.409103
 0.080000   40.003371   -4.891821
 0.085000   39.977689   -5.385008
 0.090000   39.949521   -5.883664
 0.095000   39.918852   -6.383276
 0.100000   39.885688   -6.871874
 0.105000   39.850133   -7.349582
 0.110000   39.812192   -7.828672
 0.115000   39.771847   -8.310189
 0.120000   39.729090   -8.794966
 0.125000   39.683897   -9.287431
 0.130000   39.636216   -9.788405
 0.135000   39.586013   -10.309466
 0.140000   39.533121   -10.866993
 0.145000   39.477343   -11.463743
 0.150000   39.418484   -12.099945
 0.155000   39.356344   -12.775109
 0.160000   39.290733   -13.487462
 0.165000   39.221469   -14.229755
 0.170000   39.148435   -14.989985
 0.175000   39.071569   -15.765581
 0.180000   38.990780   -16.557995
 0.185000   38.905989   -17.364444
 0.190000   38.817135   -18.182522
 0.195000   38.724164   -19.002775
 0.200000   38.627107   -19.810449
 0.205000   38.526059   -20.599851
 0.210000   38.421109   -21.368837
 0.215000   38.312371   -22.112787
 0.220000   38.199981   -22.824405
 0.225000   38.084127   -23.497944
 0.230000   37.965002   -24.157434
 0.235000   37.842553   -24.817672
 0.240000   37.716825   -25.462910
 0.245000   37.587924   -26.078067
 0.250000   37.456044   -26.635872
 0.255000   37.321565   -27.083942
 0.260000   37.185205   -27.439363
 0.265000   37.047171   -27.735243
 0.270000   36.907852   -27.955800
 0.275000   36.767613   -28.106765
 0.280000   36.626785   -28.191764
 0.285000   36.485696   -28.175883
 0.290000   36.345026   -28.129668
 0.295000   36.204399   -28.107804
 0.300000   36.063948   -28.062396
 0.305000   35.923775   -28.001113
 0.310000   35.783937   -27.934588
 0.315000   35.644429   -27.849846
 0.320000   35.505438   -27.810341
 0.325000   35.366326   -27.856877
 0.330000   35.226869   -27.938807
 0.335000   35.086938   -28.035920
 0.340000   34.946510   -28.122985
 0.345000   34.805708   -28.159984
 0.350000   34.664910   -28.156864
 0.355000   34.524139   -28.164376
 0.360000   34.383267   -28.208573
 0.365000   34.242053   -28.309494
 0.370000   34.100172   -28.480537
 0.375000   33.957248   -28.759967
 0.380000   33.812572   -29.146397
 0.385000   33.665784   -29.593767
 0.390000   33.516634   -30.093607
 0.395000   33.364848   -30.642004
 0.400000   33.210214   -31.223526
 0.405000   33.052613   -31.856735
 0.410000   32.891647   -32.470636
 0.415000   32.727906   -32.960540
 0.420000   32.562042   -33.337023
 0.425000   32.394536   -33.611224
 0.430000   32.225929   -33.772984
 0.435000   32.056806   -33.809916
 0.440000   31.887830   -33.736694
 0.445000   31.719439   -33.668128
 0.450000   31.551149   -33.739776
 0.455000   31.382042   -34.011481
 0.460000   31.211034   -34.502236
 0.465000   31.037019   -35.280509
 0.470000   30.858229   -36.369090
 0.475000   30.673328   -37.560043
 0.480000   30.482629   -38.735262
 0.485000   30.285976   -39.917346
 0.490000   30.083455   -41.058961
 0.495000   29.875386   -42.181203
 0.500000   29.661643   -43.266662
 0.505000   29.442719   -44.062222
 0.510000   29.221021   -44.493021
 0.515000   28.997789   -44.670018
 0.520000   28.774321   -44.587341
 0.525000   28.551916   -44.257737
 0.530000   28.331743   -43.690038
 0.535000   28.115015   -42.914915
 0.540000   27.902594   -42.060225
 0.545000   27.694413   -41.240297
 0.550000   27.490191   -40.492281
 0.555000   27.289490   -39.846306
 0.560000   27.091728   -39.340779
 0.565000   26.896083   -38.978181
 0.570000   26.701946   -38.766711
 0.575000   26.508415   -38.747977
 0.580000   26.314467   -38.945760
 0.585000   26.118958   -39.384488
 0.590000   25.920622   -40.109220
 0.595000   25.717866   -41.116017
 0.600000   25.509461   -42.399601
 0.605000   25.293870   -43.997506
 0.610000   25.069486   -45.920086
 0.615000   24.834669   -48.171869
 0.620000   24.587768   -50.752965
 0.625000   24.327139   -53.559267
 0.630000   24.052175   -56.472475
 0.635000   23.762414   -59.443706
 0.640000   23.457738   -62.401357
 0.645000   23.138401   -65.271178
 0.650000   22.805026   -67.853348
 0.655000   22.459867   -70.141632
 0.660000   22.103610   -72.248589
 0.665000   21.737381   -74.102425
 0.670000   21.362586   -75.674685
 0.675000   20.980635   -76.972893
 0.680000   20.592857   -77.907782
 0.685000   20.201557   -78.735989
 0.690000   19.805497   -79.811127
 0.695000   19.403446   -81.116837
 0.700000   18.994328   -82.661115
 0.705000   18.576834   -84.472982
 0.710000   18.149599   -86.643281
 0.715000   17.710402   -88.951768
 0.720000   17.260081   -90.869815
 0.725000   16.801703   -92.172633
 0.730000   16.338355   -92.820111
 0.735000   15.873502   -92.752546
 0.740000   15.410829   -91.921631
 0.745000   14.954286   -90.259870
 0.750000   14.508230   -87.814065
 0.755000   14.076145   -84.726204
 0.760000   13.660968   -81.123210
 0.765000   13.264913   -77.158588
 0.770000   12.889383   -72.978241
 0.775000   12.535131   -68.773527
 0.780000   12.201647   -64.692365
 0.785000   11.888207   -60.713055
 0.790000   11.594517   -56.794637
 0.795000   11.320261   -52.936122
 0.800000   11.065156   -49.146854
 0.805000   10.828792   -45.383106
 0.810000   10.611324   -41.531178
 0.815000   10.413481   -37.645988
 0.820000   10.234865   -33.917773
 0.825000   10.074303   -30.495715
 0.830000   9.929907   -27.510355
 0.835000   9.799199   -25.065749
 0.840000   9.679250   -23.244812
 0.845000   9.566751   -22.099127
 0.850000   9.458259   -21.660654
 0.855000   9.350145   -21.965945
 0.860000   9.238599   -23.056451
 0.865000   9.119580   -25.057189
 0.870000   8.988027   -28.130212
 0.875000   8.838278   -32.426841
 0.880000   8.663759   -38.144315
 0.885000   8.456835   -45.507052
 0.890000   8.208688   -54.758745
 0.895000   7.909247   -66.529134
 0.900000   7.543397   -80.615259
 0.905000   7.103095   -96.581326
 0.910000   6.577584   -114.564138
 0.915000   5.957453   -134.131907
 0.920000   5.236265   -154.479314
 0.925000   4.412660   -175.286072
 0.930000   3.483404   -194.030025
 0.935000   2.472360   -207.399231
 0.940000   1.409412   -213.540000
 0.945000   0.336960   -210.020071
 0.950000   -0.690789   -194.892674
 0.955000   -1.611967   -167.473383
 0.960000   -2.365523   -128.131353
 0.965000   -2.893280   -79.466653
 0.970000   -3.160189   -26.349694
 0.975000   -3.156777   25.917609
 0.980000   -2.901013   72.049078
 0.985000   -2.436286   107.298164
 0.990000   -1.828032   128.756151
 0.995000   -1.148725   136.083642
 1.000000   -0.467195   136.528242
201 psinorm omegp(kRad/s) domegp/dpsiN
 0.000000   -0.014508   82.118400
 0.005000   0.310636   47.939251
 0.010000   0.464884   29.180692
 0.015000   0.602443   26.764852
 0.020000   0.732533   25.399576
 0.025000   0.856438   23.986197
 0.030000   0.972395   22.193838
 0.035000   1.078377   20.425440
 0.040000   1.176649   18.933761
 0.045000   1.267714   17.605113
 0.050000   1.352700   16.645098
 0.055000   1.434165   16.244875
 0.060000   1.515149   16.388106
 0.065000   1.598046   16.949779
 0.070000   1.684647   17.776160
 0.075000   1.775808   18.751395
 0.080000   1.872161   19.877072
 0.085000   1.974579   21.075727
 0.090000   2.082918   22.204627
 0.095000   2.196625   23.074924
 0.100000   2.313667   23.537004
 0.105000   2.431995   23.687698
 0.110000   2.550544   23.497502
 0.115000   2.666970   22.820548
 0.120000   2.778750   21.689556
 0.125000   2.883866   20.352747
 0.130000   2.982277   18.983720
 0.135000   3.073703   17.634894
 0.140000   3.158626   16.413002
 0.145000   3.237833   15.380961
 0.150000   3.312436   14.603439
 0.155000   3.383867   14.061361
 0.160000   3.453049   13.560453
 0.165000   3.519472   13.042847
 0.170000   3.583478   12.437729
 0.175000   3.643849   11.780262
 0.180000   3.701280   11.021195
 0.185000   3.754061   10.091021
 0.190000   3.802190   8.982640
 0.195000   3.843887   7.662328
 0.200000   3.878814   6.260485
 0.205000   3.906492   4.635639
 0.210000   3.925170   3.034251
 0.215000   3.936835   1.589087
 0.220000   3.941061   0.240437
 0.225000   3.939239   -0.891495
 0.230000   3.932146   -1.912775
 0.235000   3.920111   -2.714319
 0.240000   3.905003   -3.350288
 0.245000   3.886608   -3.987636
 0.250000   3.865127   -4.589344
 0.255000   3.840715   -5.276791
 0.260000   3.812359   -6.032668
 0.265000   3.780388   -6.820058
 0.270000   3.744158   -7.745196
 0.275000   3.702936   -8.649604
 0.280000   3.657662   -9.557759
 0.285000   3.607359   -10.543009
 0.290000   3.552232   -11.429787
 0.295000   3.493061   -12.315914
 0.300000   3.429073   -13.198571
 0.305000   3.361075   -14.033248
 0.310000   3.288740   -14.945872
 0.315000   3.211616   -15.896635
 0.320000   3.129774   -16.894612
 0.325000   3.042670   -18.042082
 0.330000   2.949353   -19.289826
 0.335000   2.849772   -20.592970
 0.340000   2.743423   -22.020015
 0.345000   2.629572   -23.488652
 0.350000   2.508537   -24.888898
 0.355000   2.380683   -26.142096
 0.360000   2.247116   -27.134508
 0.365000   2.109338   -27.860491
 0.370000   1.968511   -28.362839
 0.375000   1.825709   -28.583953
 0.380000   1.682672   -28.393241
 0.385000   1.541777   -28.014762
 0.390000   1.402524   -27.655262
 0.395000   1.265224   -27.257046
 0.400000   1.129953   -26.918636
 0.405000   0.996038   -26.722807
 0.410000   0.862725   -26.714540
 0.415000   0.728893   -26.928455
 0.420000   0.593441   -27.255318
 0.425000   0.456340   -27.612907
 0.430000   0.317312   -28.068246
 0.435000   0.175657   -28.847377
 0.440000   0.028838   -30.583195
 0.445000   -0.130175   -33.403487
 0.450000   -0.305197   -37.019091
 0.455000   -0.500366   -41.422652
 0.460000   -0.719423   -46.504553
 0.465000   -0.965411   -52.292281
 0.470000   -1.242346   -58.644216
 0.475000   -1.551853   -64.579233
 0.480000   -1.888139   -69.532858
 0.485000   -2.247182   -73.568186
 0.490000   -2.623820   -76.472342
 0.495000   -3.011905   -77.827546
 0.500000   -3.402096   -77.080504
 0.505000   -3.782711   -74.475393
 0.510000   -4.146850   -70.580351
 0.515000   -4.488514   -65.554962
 0.520000   -4.802399   -59.700227
 0.525000   -5.085516   -53.067749
 0.530000   -5.333077   -46.338982
 0.535000   -5.548906   -40.698589
 0.540000   -5.740063   -36.419336
 0.545000   -5.913100   -33.502584
 0.550000   -6.075089   -32.011292
 0.555000   -6.233212   -32.132387
 0.560000   -6.396413   -33.488378
 0.565000   -6.568096   -35.080980
 0.570000   -6.747222   -36.520363
 0.575000   -6.933300   -37.843648
 0.580000   -7.125659   -38.873637
 0.585000   -7.322036   -39.505681
 0.590000   -7.520716   -39.337659
 0.595000   -7.715413   -38.217404
 0.600000   -7.902890   -36.348104
 0.605000   -8.078894   -33.738936
 0.610000   -8.240279   -30.645449
 0.615000   -8.385348   -27.058490
 0.620000   -8.510864   -23.182861
 0.625000   -8.617177   -19.424237
 0.630000   -8.705106   -15.974861
 0.635000   -8.776926   -12.835009
 0.640000   -8.833456   -9.946561
 0.645000   -8.876391   -7.473727
 0.650000   -8.908194   -5.537868
 0.655000   -8.931770   -3.981376
 0.660000   -8.948007   -2.635030
 0.665000   -8.958120   -1.538469
 0.670000   -8.963392   -0.522337
 0.675000   -8.963343   0.537566
 0.680000   -8.958016   1.552956
 0.685000   -8.947814   2.484726
 0.690000   -8.933169   3.432235
 0.695000   -8.913492   4.459024
 0.700000   -8.888579   5.517090
 0.705000   -8.858321   6.779055
 0.710000   -8.820788   8.429776
 0.715000   -8.774023   10.458265
 0.720000   -8.716206   12.818465
 0.725000   -8.645838   15.582111
 0.730000   -8.560385   18.830168
 0.735000   -8.457537   22.247351
 0.740000   -8.337911   25.434195
 0.745000   -8.203195   28.242490
 0.750000   -8.055486   30.487773
 0.755000   -7.898317   31.906284
 0.760000   -7.736423   32.260644
 0.765000   -7.575710   31.565626
 0.770000   -7.420767   30.057713
 0.775000   -7.275133   27.928829
 0.780000   -7.141479   25.464756
 0.785000   -7.020486   22.966297
 0.790000   -6.911816   20.582679
 0.795000   -6.814659   18.732730
 0.800000   -6.724489   17.543986
 0.805000   -6.639219   16.666061
 0.810000   -6.557828   15.880005
 0.815000   -6.480419   14.975280
 0.820000   -6.408075   13.735809
 0.825000   -6.343061   11.797568
 0.830000   -6.290099   9.039773
 0.835000   -6.252663   5.681309
 0.840000   -6.233286   1.869485
 0.845000   -6.233968   -2.225823
 0.850000   -6.255545   -6.272316
 0.855000   -6.296692   -9.965629
 0.860000   -6.355201   -13.180757
 0.865000   -6.428499   -15.956765
 0.870000   -6.514769   -18.197825
 0.875000   -6.610477   -19.785946
 0.880000   -6.712628   -20.974004
 0.885000   -6.820217   -22.189834
 0.890000   -6.934526   -23.395110
 0.895000   -7.054169   -24.533511
 0.900000   -7.179861   -26.049487
 0.905000   -7.314663   -28.043098
 0.910000   -7.460292   -30.259174
 0.915000   -7.617255   -32.558889
 0.920000   -7.785881   -35.189057
 0.925000   -7.969146   -38.082440
 0.930000   -8.166706   -41.159703
 0.935000   -8.380743   -45.028276
 0.940000   -8.616988   -48.675167
 0.945000   -8.867494   -52.188711
 0.950000   -9.138876   -53.473134
 0.955000   -9.402226   -43.791629
 0.960000   -9.576792   -15.290666
 0.965000   -9.555132   41.658419
 0.970000   -9.160208   140.806144
 0.975000   -8.147071   283.765078
 0.980000   -6.322557   453.920087
 0.985000   -3.607870   610.787315
 0.990000   -0.214684   693.114906
 0.995000   3.323279   650.462851
 1.000000   6.289945   536.203470
201 psinorm omgvb(kRad/s) domgvb/dpsiN
 0.000000   40.141642   82.123816
 0.005000   40.466459   47.802724
 0.010000   40.619670   28.893842
 0.015000   40.755397   26.310165
 0.020000   40.882771   24.757964
 0.025000   41.002977   23.136752
 0.030000   41.114139   21.113457
 0.035000   41.214111   19.088486
 0.040000   41.305024   17.310889
 0.045000   41.387220   15.665772
 0.050000   41.461681   14.359784
 0.055000   41.530818   13.584484
 0.060000   41.597526   13.324969
 0.065000   41.664068   13.458250
 0.070000   41.732109   13.834716
 0.075000   41.802415   14.342293
 0.080000   41.875532   14.985250
 0.085000   41.952267   15.690719
 0.090000   42.032439   16.320963
 0.095000   42.115477   16.691648
 0.100000   42.199355   16.665130
 0.105000   42.282128   16.338116
 0.110000   42.362736   15.668830
 0.115000   42.438817   14.510360
 0.120000   42.507840   12.894590
 0.125000   42.567762   11.065315
 0.130000   42.618493   9.195315
 0.135000   42.659716   7.325428
 0.140000   42.691747   5.546009
 0.145000   42.715176   3.917219
 0.150000   42.730920   2.503494
 0.155000   42.740211   1.286252
 0.160000   42.743782   0.072991
 0.165000   42.740941   -1.186908
 0.170000   42.731913   -2.552256
 0.175000   42.715418   -3.985319
 0.180000   42.692060   -5.536800
 0.185000   42.660050   -7.273422
 0.190000   42.619326   -9.199882
 0.195000   42.568051   -11.340447
 0.200000   42.505921   -13.549963
 0.205000   42.432552   -15.964212
 0.210000   42.346279   -18.334586
 0.215000   42.249206   -20.523700
 0.220000   42.141042   -22.583968
 0.225000   42.023366   -24.389439
 0.230000   41.897148   -26.070209
 0.235000   41.762664   -27.531991
 0.240000   41.621828   -28.813198
 0.245000   41.474532   -30.065703
 0.250000   41.321171   -31.225216
 0.255000   41.162280   -32.360733
 0.260000   40.997563   -33.472031
 0.265000   40.827560   -34.555300
 0.270000   40.652010   -35.700996
 0.275000   40.470550   -36.756369
 0.280000   40.284447   -37.749523
 0.285000   40.093054   -38.718892
 0.290000   39.897258   -39.559455
 0.295000   39.697460   -40.423718
 0.300000   39.493021   -41.260967
 0.305000   39.284850   -42.034361
 0.310000   39.072677   -42.880459
 0.315000   38.856045   -43.746480
 0.320000   38.635212   -44.704953
 0.325000   38.408996   -45.898959
 0.330000   38.176223   -47.228633
 0.335000   37.936710   -48.628890
 0.340000   37.689934   -50.143000
 0.345000   37.435280   -51.648636
 0.350000   37.173447   -53.045762
 0.355000   36.904822   -54.306473
 0.360000   36.630383   -55.343081
 0.365000   36.351391   -56.169985
 0.370000   36.068683   -56.843376
 0.375000   35.782957   -57.343920
 0.380000   35.495244   -57.539637
 0.385000   35.207561   -57.608529
 0.390000   34.919158   -57.748869
 0.395000   34.630072   -57.899051
 0.400000   34.340168   -58.142162
 0.405000   34.048651   -58.579542
 0.410000   33.754372   -59.185176
 0.415000   33.456799   -59.888996
 0.420000   33.155482   -60.592341
 0.425000   32.850876   -61.224131
 0.430000   32.543241   -61.841229
 0.435000   32.232463   -62.657293
 0.440000   31.916668   -64.319889
 0.445000   31.589264   -67.071615
 0.450000   31.245952   -70.758868
 0.455000   30.881676   -75.434133
 0.460000   30.491611   -81.006789
 0.465000   30.071608   -87.572790
 0.470000   29.615883   -95.013306
 0.475000   29.121475   -102.139276
 0.480000   28.594490   -108.268120
 0.485000   28.038794   -113.485532
 0.490000   27.459635   -117.531303
 0.495000   26.863481   -120.008750
 0.500000   26.259547   -120.347167
 0.505000   25.660009   -118.537615
 0.510000   25.074171   -115.073373
 0.515000   24.509275   -110.224980
 0.520000   23.971921   -104.287568
 0.525000   23.466399   -97.325486
 0.530000   22.998666   -90.029019
 0.535000   22.566109   -83.613505
 0.540000   22.162531   -78.479561
 0.545000   21.781314   -74.742881
 0.550000   21.415103   -72.503573
 0.555000   21.056278   -71.978693
 0.560000   20.695316   -72.829157
 0.565000   20.327986   -74.059162
 0.570000   19.954724   -75.287074
 0.575000   19.575116   -76.591626
 0.580000   19.188808   -77.819396
 0.585000   18.796922   -78.890169
 0.590000   18.399906   -79.446879
 0.595000   18.002453   -79.333422
 0.600000   17.606572   -78.747705
 0.605000   17.214976   -77.736442
 0.610000   16.829207   -76.565535
 0.615000   16.449320   -75.230359
 0.620000   16.076904   -73.935826
 0.625000   15.709962   -72.983504
 0.630000   15.347069   -72.447336
 0.635000   14.985489   -72.278714
 0.640000   14.624282   -72.347919
 0.645000   14.262010   -72.744904
 0.650000   13.896833   -73.391216
 0.655000   13.528098   -74.123008
 0.660000   13.155602   -74.883619
 0.665000   12.779261   -75.640894
 0.670000   12.399194   -76.197022
 0.675000   12.017291   -76.435327
 0.680000   11.634840   -76.354826
 0.685000   11.253743   -76.251262
 0.690000   10.872328   -76.378893
 0.695000   10.489954   -76.657812
 0.700000   10.105750   -77.144025
 0.705000   9.718514   -77.693927
 0.710000   9.328810   -78.213505
 0.715000   8.936379   -78.493504
 0.720000   8.543875   -78.051350
 0.725000   8.155865   -76.590523
 0.730000   7.777970   -73.989943
 0.735000   7.415966   -70.505195
 0.740000   7.072918   -66.487435
 0.745000   6.751091   -62.017380
 0.750000   6.452744   -57.326292
 0.755000   6.177828   -52.819920
 0.760000   5.924545   -48.862566
 0.765000   5.689203   -45.592961
 0.770000   5.468615   -42.920528
 0.775000   5.259997   -40.844698
 0.780000   5.060168   -39.227608
 0.785000   4.867721   -37.746758
 0.790000   4.682701   -36.211957
 0.795000   4.505602   -34.203392
 0.800000   4.340667   -31.602868
 0.805000   4.189573   -28.717046
 0.810000   4.053497   -25.651173
 0.815000   3.933061   -22.670708
 0.820000   3.826789   -20.181964
 0.825000   3.731242   -18.698147
 0.830000   3.639808   -18.470582
 0.835000   3.546536   -19.384440
 0.840000   3.445964   -21.375327
 0.845000   3.332783   -24.324950
 0.850000   3.202714   -27.932970
 0.855000   3.053453   -31.931574
 0.860000   2.883398   -36.237208
 0.865000   2.691081   -41.013954
 0.870000   2.473259   -46.328037
 0.875000   2.227801   -52.212787
 0.880000   1.951131   -59.118319
 0.885000   1.636617   -67.696886
 0.890000   1.274162   -78.153855
 0.895000   0.855079   -91.062644
 0.900000   0.363536   -106.664746
 0.905000   -0.211569   -124.624425
 0.910000   -0.882709   -144.823312
 0.915000   -1.659802   -166.690796
 0.920000   -2.549617   -189.668371
 0.925000   -3.556485   -213.368512
 0.930000   -4.683302   -235.189728
 0.935000   -5.908383   -252.427507
 0.940000   -7.207577   -262.215167
 0.945000   -8.530534   -262.208782
 0.950000   -9.829665   -248.365808
 0.955000   -11.014193   -211.265011
 0.960000   -11.942315   -143.422019
 0.965000   -12.448413   -37.808233
 0.970000   -12.320397   114.456450
 0.975000   -11.303848   309.682686
 0.980000   -9.223570   525.969165
 0.985000   -6.044157   718.085479
 0.990000   -2.042715   821.871057
 0.995000   2.174554   786.546492
 1.000000   5.822750   672.731712
201 psinorm omgpp(kRad/s) domgpp/dpsiN
 0.000000   -0.026383   -13.248084
 0.005000   -0.107082   -19.031443
 0.010000   -0.216698   -22.161329
 0.015000   -0.328695   -22.634813
 0.020000   -0.443046   -23.103071
 0.025000   -0.559726   -23.567097
 0.030000   -0.678717   -24.026144
 0.035000   -0.799988   -24.473660
 0.040000   -0.923453   -24.896940
 0.045000   -1.048957   -25.275366
 0.050000   -1.176207   -25.572704
 0.055000   -1.304684   -25.747602
 0.060000   -1.433683   -25.851994
 0.065000   -1.563204   -25.921749
 0.070000   -1.692901   -25.922976
 0.075000   -1.822434   -25.850675
 0.080000   -1.951407   -25.667499
 0.085000   -2.079109   -25.327166
 0.090000   -2.204679   -25.013825
 0.095000   -2.329247   -24.727958
 0.100000   -2.451959   -24.345032
 0.105000   -2.572697   -23.952551
 0.110000   -2.691484   -23.572992
 0.115000   -2.808427   -23.282358
 0.120000   -2.924308   -23.234484
 0.125000   -3.040772   -23.242965
 0.130000   -3.156737   -23.148886
 0.135000   -3.272261   -23.067236
 0.140000   -3.387410   -23.008139
 0.145000   -3.502342   -23.161785
 0.150000   -3.619027   -23.018363
 0.155000   -3.732526   -22.401635
 0.160000   -3.843044   -21.716694
 0.165000   -3.949693   -20.861271
 0.170000   -4.051657   -19.852415
 0.175000   -4.148217   -18.671274
 0.180000   -4.238369   -17.229332
 0.185000   -4.320510   -15.670008
 0.190000   -4.395069   -14.096483
 0.195000   -4.461475   -12.413286
 0.200000   -4.519202   -10.635297
 0.205000   -4.567828   -8.404609
 0.210000   -4.603248   -6.352923
 0.215000   -4.631357   -4.907959
 0.220000   -4.652328   -3.627289
 0.225000   -4.667630   -2.716697
 0.230000   -4.679495   -2.250810
 0.235000   -4.690138   -2.219294
 0.240000   -4.701688   -2.510486
 0.245000   -4.715243   -2.534626
 0.250000   -4.727034   -2.117134
 0.255000   -4.736414   -1.605985
 0.260000   -4.743094   -1.043174
 0.265000   -4.746846   -0.739847
 0.270000   -4.750492   -0.281966
 0.275000   -4.749666   0.812316
 0.280000   -4.742369   2.003850
 0.285000   -4.729627   3.166024
 0.290000   -4.710709   4.474570
 0.295000   -4.684882   5.787384
 0.300000   -4.652835   7.436004
 0.305000   -4.610522   9.542064
 0.310000   -4.557415   11.516376
 0.315000   -4.495358   13.290265
 0.320000   -4.424512   15.023406
 0.325000   -4.345124   16.839066
 0.330000   -4.256121   18.839515
 0.335000   -4.156729   20.523098
 0.340000   -4.050890   21.833850
 0.345000   -3.938390   22.996750
 0.350000   -3.820923   23.773338
 0.355000   -3.700657   24.199130
 0.360000   -3.578931   23.983289
 0.365000   -3.460824   22.727049
 0.370000   -3.351661   21.333368
 0.375000   -3.247490   20.332804
 0.380000   -3.148333   19.345764
 0.385000   -3.054033   18.315711
 0.390000   -2.965176   16.972824
 0.395000   -2.884304   16.177304
 0.400000   -2.803403   16.221239
 0.405000   -2.722092   16.477526
 0.410000   -2.638628   17.015152
 0.415000   -2.551940   17.674214
 0.420000   -2.461885   18.372120
 0.425000   -2.368219   19.217910
 0.430000   -2.269706   19.863158
 0.435000   -2.169588   20.052912
 0.440000   -2.069177   19.951520
 0.445000   -1.970072   19.508744
 0.450000   -1.874090   18.830730
 0.455000   -1.781765   17.608821
 0.460000   -1.698002   16.117520
 0.465000   -1.620590   14.854051
 0.470000   -1.549461   13.622253
 0.475000   -1.484367   12.453297
 0.480000   -1.424928   11.366641
 0.485000   -1.370701   10.340310
 0.490000   -1.321525   9.327084
 0.495000   -1.277430   8.309393
 0.500000   -1.238431   7.289057
 0.505000   -1.204540   6.266699
 0.510000   -1.175764   5.254779
 0.515000   -1.151992   4.187314
 0.520000   -1.133891   3.049112
 0.525000   -1.121501   1.931287
 0.530000   -1.114578   0.872017
 0.535000   -1.112781   -0.109799
 0.540000   -1.115676   -0.938277
 0.545000   -1.122163   -1.682058
 0.550000   -1.132497   -2.471700
 0.555000   -1.146880   -3.247324
 0.560000   -1.164970   -3.971103
 0.565000   -1.186591   -4.657400
 0.570000   -1.211544   -5.191519
 0.575000   -1.238507   -5.731443
 0.580000   -1.268858   -6.449905
 0.585000   -1.303006   -7.122531
 0.590000   -1.340084   -7.695474
 0.595000   -1.379960   -8.243220
 0.600000   -1.422516   -8.719142
 0.605000   -1.467152   -9.234803
 0.610000   -1.514864   -9.851445
 0.615000   -1.565666   -10.367534
 0.620000   -1.618539   -10.740419
 0.625000   -1.673070   -11.028986
 0.630000   -1.728829   -11.263686
 0.635000   -1.785707   -11.482635
 0.640000   -1.843655   -11.585340
 0.645000   -1.901561   -11.580899
 0.650000   -1.959464   -11.555632
 0.655000   -2.017117   -11.475107
 0.660000   -2.074215   -11.398115
 0.665000   -2.131098   -11.353042
 0.670000   -2.187746   -10.980169
 0.675000   -2.240900   -10.400107
 0.680000   -2.291747   -9.938747
 0.685000   -2.340287   -9.476973
 0.690000   -2.386517   -9.076231
 0.695000   -2.431050   -9.007466
 0.700000   -2.476591   -8.954515
 0.705000   -2.520595   -9.083350
 0.710000   -2.567425   -9.715770
 0.715000   -2.617752   -10.426682
 0.720000   -2.671692   -11.201830
 0.725000   -2.729771   -12.942560
 0.730000   -2.801117   -13.253326
 0.735000   -2.862304   -12.096383
 0.740000   -2.922081   -11.597528
 0.745000   -2.978279   -10.609485
 0.750000   -3.028176   -9.023425
 0.755000   -3.068513   -7.441985
 0.760000   -3.102596   -3.861373
 0.765000   -3.107127   1.051822
 0.770000   -3.092077   5.073925
 0.775000   -3.056388   9.215751
 0.780000   -2.999920   13.264495
 0.785000   -2.923743   17.600965
 0.790000   -2.823910   21.134635
 0.795000   -2.712397   23.288280
 0.800000   -2.591028   25.043548
 0.805000   -2.461961   26.279846
 0.810000   -2.328229   26.894071
 0.815000   -2.193020   27.553753
 0.820000   -2.052692   26.756063
 0.825000   -1.925460   24.252573
 0.830000   -1.810166   21.934554
 0.835000   -1.706114   19.640200
 0.840000   -1.613764   17.329353
 0.845000   -1.532821   15.233347
 0.850000   -1.461430   13.383913
 0.855000   -1.398982   11.630176
 0.860000   -1.345129   9.784946
 0.865000   -1.301132   7.662430
 0.870000   -1.268504   5.220416
 0.875000   -1.248928   2.154597
 0.880000   -1.246958   -1.849724
 0.885000   -1.267425   -6.440365
 0.890000   -1.311362   -11.487436
 0.895000   -1.382300   -17.294854
 0.900000   -1.484311   -24.095048
 0.905000   -1.623250   -33.892278
 0.910000   -1.823233   -47.241876
 0.915000   -2.095669   -61.045952
 0.920000   -2.433693   -78.098200
 0.925000   -2.876651   -103.007247
 0.930000   -3.463765   -137.303644
 0.935000   -4.249687   -187.856600
 0.940000   -5.342331   -258.896787
 0.945000   -6.838655   -335.417814
 0.950000   -8.696509   -413.533842
 0.955000   -10.973994   -488.630840
 0.960000   -13.582818   -532.853373
 0.965000   -16.302527   -525.220256
 0.970000   -18.835020   -443.241668
 0.975000   -20.734944   -252.671397
 0.980000   -21.361734   0.806229
 0.985000   -20.726882   238.832614
 0.990000   -18.973408   424.607877
 0.995000   -16.480803   522.019063
 1.000000   -13.753218   569.015097
201 psinorm omgeb(kRad/s) domgeb/dpsiN
 0.000000   40.115259   68.875732
 0.005000   40.359377   28.771280
 0.010000   40.402972   6.732513
 0.015000   40.426702   3.675351
 0.020000   40.439725   1.654893
 0.025000   40.443251   -0.430345
 0.030000   40.435422   -2.912686
 0.035000   40.414124   -5.385174
 0.040000   40.381570   -7.586051
 0.045000   40.338263   -9.609594
 0.050000   40.285474   -11.212920
 0.055000   40.226134   -12.163118
 0.060000   40.163843   -12.527025
 0.065000   40.100864   -12.463499
 0.070000   40.039208   -12.088260
 0.075000   39.979981   -11.508382
 0.080000   39.924124   -10.682249
 0.085000   39.873159   -9.636447
 0.090000   39.827760   -8.692862
 0.095000   39.786230   -8.036310
 0.100000   39.747397   -7.679902
 0.105000   39.709431   -7.614435
 0.110000   39.671252   -7.904162
 0.115000   39.630389   -8.771998
 0.120000   39.583532   -10.339894
 0.125000   39.526991   -12.177650
 0.130000   39.461756   -13.953571
 0.135000   39.387455   -15.741807
 0.140000   39.304338   -17.462130
 0.145000   39.212834   -19.244566
 0.150000   39.111892   -20.514869
 0.155000   39.007685   -21.115383
 0.160000   38.900738   -21.643702
 0.165000   38.791248   -22.048179
 0.170000   38.680256   -22.404671
 0.175000   38.567201   -22.656593
 0.180000   38.453691   -22.766132
 0.185000   38.339540   -22.943430
 0.190000   38.224256   -23.296365
 0.195000   38.106576   -23.753733
 0.200000   37.986719   -24.185260
 0.205000   37.864724   -24.368821
 0.210000   37.743031   -24.687510
 0.215000   37.617848   -25.431659
 0.220000   37.488714   -26.211256
 0.225000   37.355736   -27.106136
 0.230000   37.217653   -28.321019
 0.235000   37.072526   -29.751285
 0.240000   36.920140   -31.323683
 0.245000   36.759289   -32.600329
 0.250000   36.594137   -33.342350
 0.255000   36.425865   -33.966718
 0.260000   36.254469   -34.515206
 0.265000   36.080713   -35.295147
 0.270000   35.901518   -35.982963
 0.275000   35.720884   -35.944053
 0.280000   35.542077   -35.745673
 0.285000   35.363427   -35.552867
 0.290000   35.186549   -35.084885
 0.295000   35.012578   -34.636334
 0.300000   34.840185   -33.824963
 0.305000   34.674328   -32.492297
 0.310000   34.515262   -31.364084
 0.315000   34.360688   -30.456215
 0.320000   34.210700   -29.681548
 0.325000   34.063872   -29.059893
 0.330000   33.920101   -28.389118
 0.335000   33.779981   -28.105792
 0.340000   33.639043   -28.309150
 0.345000   33.496889   -28.651886
 0.350000   33.352525   -29.272425
 0.355000   33.204165   -30.107343
 0.360000   33.051451   -31.359792
 0.365000   32.890567   -33.442935
 0.370000   32.717022   -35.510008
 0.375000   32.535467   -37.011116
 0.380000   32.346911   -38.193873
 0.385000   32.153528   -39.292818
 0.390000   31.953982   -40.776045
 0.395000   31.745768   -41.721747
 0.400000   31.536765   -41.920923
 0.405000   31.326559   -42.102015
 0.410000   31.115745   -42.170024
 0.415000   30.904859   -42.214782
 0.420000   30.693597   -42.220222
 0.425000   30.482656   -42.006221
 0.430000   30.273535   -41.978071
 0.435000   30.062876   -42.604381
 0.440000   29.847491   -44.368369
 0.445000   29.619192   -47.562872
 0.450000   29.371862   -51.928137
 0.455000   29.099911   -57.825312
 0.460000   28.793609   -64.889269
 0.465000   28.451018   -72.718739
 0.470000   28.066422   -81.391053
 0.475000   27.637107   -89.685979
 0.480000   27.169562   -96.901478
 0.485000   26.668093   -103.145222
 0.490000   26.138110   -108.204219
 0.495000   25.586050   -111.699357
 0.500000   25.021116   -113.058110
 0.505000   24.455469   -112.270916
 0.510000   23.898407   -109.818593
 0.515000   23.357283   -106.037666
 0.520000   22.838030   -101.238455
 0.525000   22.344899   -95.394199
 0.530000   21.884088   -89.157002
 0.535000   21.453329   -83.723304
 0.540000   21.046855   -79.417838
 0.545000   20.659150   -76.424938
 0.550000   20.282606   -74.975273
 0.555000   19.909398   -75.226017
 0.560000   19.530346   -76.800260
 0.565000   19.141395   -78.716562
 0.570000   18.743180   -80.478593
 0.575000   18.336609   -82.323068
 0.580000   17.919949   -84.269301
 0.585000   17.493916   -86.012701
 0.590000   17.059822   -87.142353
 0.595000   16.622493   -87.576641
 0.600000   16.184056   -87.466846
 0.605000   15.747824   -86.971246
 0.610000   15.314344   -86.416980
 0.615000   14.883654   -85.597893
 0.620000   14.458365   -84.676246
 0.625000   14.036892   -84.012490
 0.630000   13.618240   -83.711022
 0.635000   13.199782   -83.761350
 0.640000   12.780626   -83.933259
 0.645000   12.360449   -84.325803
 0.650000   11.937368   -84.946847
 0.655000   11.510981   -85.598114
 0.660000   11.081387   -86.281734
 0.665000   10.648163   -86.993936
 0.670000   10.211448   -87.177191
 0.675000   9.776391   -86.835433
 0.680000   9.343093   -86.293573
 0.685000   8.913456   -85.728236
 0.690000   8.485811   -85.455124
 0.695000   8.058904   -85.665278
 0.700000   7.629158   -86.098540
 0.705000   7.197919   -86.777277
 0.710000   6.761386   -87.929275
 0.715000   6.318626   -88.920186
 0.720000   5.872184   -89.253181
 0.725000   5.426094   -89.533083
 0.730000   4.976853   -87.243268
 0.735000   4.553662   -82.601578
 0.740000   4.150837   -78.084963
 0.745000   3.772812   -72.626865
 0.750000   3.424568   -66.349717
 0.755000   3.109315   -60.261905
 0.760000   2.821949   -52.723940
 0.765000   2.582076   -44.541139
 0.770000   2.376538   -37.846604
 0.775000   2.203610   -31.628947
 0.780000   2.060248   -25.963113
 0.785000   1.943978   -20.145793
 0.790000   1.858791   -15.077323
 0.795000   1.793205   -10.915112
 0.800000   1.749639   -6.559320
 0.805000   1.727612   -2.437200
 0.810000   1.725267   1.242898
 0.815000   1.740041   4.883044
 0.820000   1.774098   6.574099
 0.825000   1.805782   5.554426
 0.830000   1.829642   3.463971
 0.835000   1.840422   0.255761
 0.840000   1.832200   -4.045973
 0.845000   1.799962   -9.091603
 0.850000   1.741284   -14.549057
 0.855000   1.654471   -20.301398
 0.860000   1.538270   -26.452262
 0.865000   1.389949   -33.351524
 0.870000   1.204755   -41.107622
 0.875000   0.978872   -50.058190
 0.880000   0.704173   -60.968043
 0.885000   0.369192   -74.137251
 0.890000   -0.037200   -89.641291
 0.895000   -0.527221   -108.357499
 0.900000   -1.120775   -130.759794
 0.905000   -1.834819   -158.516703
 0.910000   -2.705942   -192.065188
 0.915000   -3.755471   -227.736748
 0.920000   -4.983309   -267.766571
 0.925000   -6.433136   -316.375759
 0.930000   -8.147067   -372.493372
 0.935000   -10.158070   -440.284107
 0.940000   -12.549908   -521.111954
 0.945000   -15.369190   -597.626596
 0.950000   -18.526174   -661.899651
 0.955000   -21.988186   -699.895852
 0.960000   -25.525133   -676.275392
 0.965000   -28.750940   -563.028490
 0.970000   -31.155417   -328.785218
 0.975000   -32.038792   57.011289
 0.980000   -30.585305   526.775394
 0.985000   -26.771038   956.918093
 0.990000   -21.016124   1246.478934
 0.995000   -14.306249   1308.565555
 1.000000   -7.930468   1241.746809
201 psinorm er(kV/m) der/dpsiN
 0.000000   0.365175   870.145795
 0.005000   3.804303   505.505503
 0.010000   5.420230   287.822503
 0.015000   6.682528   231.502894
 0.020000   7.735259   199.011965
 0.025000   8.672648   178.683721
 0.030000   9.522096   162.677984
 0.035000   10.299427   149.609066
 0.040000   11.018186   138.922043
 0.045000   11.688648   130.053954
 0.050000   12.318726   122.114371
 0.055000   12.909792   115.942365
 0.060000   13.478150   111.036807
 0.065000   14.020160   105.643046
 0.070000   14.534580   100.133198
 0.075000   15.021492   97.383888
 0.080000   15.508419   94.743523
 0.085000   15.968927   89.860582
 0.090000   16.407025   88.398636
 0.095000   16.852913   85.768925
 0.100000   17.264714   82.754187
 0.105000   17.680455   81.248272
 0.110000   18.077197   77.334676
 0.115000   18.453802   75.970611
 0.120000   18.836903   71.955326
 0.125000   19.173355   69.907214
 0.130000   19.535975   66.278676
 0.135000   19.836142   63.919277
 0.140000   20.175168   60.873882
 0.145000   20.444881   58.083724
 0.150000   20.756005   55.887317
 0.155000   21.003754   53.253623
 0.160000   21.288541   52.140488
 0.165000   21.525159   49.116232
 0.170000   21.779704   48.828396
 0.175000   22.013443   45.388951
 0.180000   22.233593   45.563149
 0.185000   22.469074   42.056993
 0.190000   22.654163   41.972182
 0.195000   22.888796   39.336843
 0.200000   23.047531   36.707581
 0.205000   23.255872   38.631830
 0.210000   23.433850   33.704380
 0.215000   23.592916   35.113375
 0.220000   23.784983   30.233022
 0.225000   23.895246   28.222274
 0.230000   24.067206   30.301960
 0.235000   24.198265   24.004405
 0.240000   24.307250   24.889566
 0.245000   24.447161   20.721356
 0.250000   24.514464   17.837257
 0.255000   24.625534   21.121138
 0.260000   24.725675   14.952940
 0.265000   24.775063   14.480327
 0.270000   24.870478   15.357722
 0.275000   24.928640   10.542773
 0.280000   24.975906   12.687838
 0.285000   25.055519   10.802881
 0.290000   25.083935   7.975840
 0.295000   25.135277   11.978665
 0.300000   25.203722   7.918463
 0.305000   25.214462   6.973797
 0.310000   25.273460   12.408581
 0.315000   25.338547   7.148364
 0.320000   25.344943   6.620453
 0.325000   25.404752   11.532400
 0.330000   25.460267   6.345155
 0.335000   25.468204   5.860150
 0.340000   25.518869   9.347744
 0.345000   25.561681   4.024765
 0.350000   25.559116   2.929659
 0.355000   25.590978   5.530515
 0.360000   25.614422   -0.045742
 0.365000   25.590520   -2.445583
 0.370000   25.589966   -0.930379
 0.375000   25.581216   -6.408331
 0.380000   25.525882   -8.411665
 0.385000   25.497100   -6.423332
 0.390000   25.461649   -10.950251
 0.395000   25.387597   -13.115107
 0.400000   25.330498   -11.306557
 0.405000   25.274532   -13.487525
 0.410000   25.195623   -15.296695
 0.415000   25.121565   -14.231415
 0.420000   25.053309   -14.972317
 0.425000   24.971841   -16.853326
 0.430000   24.884775   -16.567542
 0.435000   24.806166   -16.787592
 0.440000   24.716899   -20.381013
 0.445000   24.602356   -23.400392
 0.450000   24.482896   -26.126072
 0.455000   24.341095   -33.174685
 0.460000   24.151149   -40.006553
 0.465000   23.941030   -45.754294
 0.470000   23.693606   -54.410190
 0.475000   23.396928   -62.775382
 0.480000   23.065852   -68.943334
 0.485000   22.707494   -74.696700
 0.490000   22.318885   -80.592780
 0.495000   21.901567   -84.214760
 0.500000   21.476737   -85.286375
 0.505000   21.048703   -86.136227
 0.510000   20.615375   -84.960195
 0.515000   20.199101   -81.543655
 0.520000   19.799939   -78.214553
 0.525000   19.416955   -74.261356
 0.530000   19.057325   -69.127205
 0.535000   18.725683   -64.443110
 0.540000   18.412894   -61.825469
 0.545000   18.107429   -59.741362
 0.550000   17.815480   -58.218952
 0.555000   17.525239   -59.190441
 0.560000   17.223576   -61.374061
 0.565000   16.911499   -63.113159
 0.570000   16.592444   -64.788830
 0.575000   16.263610   -67.425314
 0.580000   15.918191   -69.555380
 0.585000   15.568056   -70.857964
 0.590000   15.209611   -72.612002
 0.595000   14.841936   -73.715021
 0.600000   14.472461   -73.574557
 0.605000   14.106191   -73.219838
 0.610000   13.740263   -73.692788
 0.615000   13.369263   -73.276501
 0.620000   13.007498   -72.100342
 0.625000   12.648260   -72.161247
 0.630000   12.285885   -72.557592
 0.635000   11.922684   -72.496129
 0.640000   11.560924   -72.566583
 0.645000   11.197018   -73.902246
 0.650000   10.821902   -74.758614
 0.655000   10.449432   -74.860894
 0.660000   10.073293   -76.002959
 0.665000   9.689402   -77.349723
 0.670000   9.299795   -77.443636
 0.675000   8.914966   -76.876304
 0.680000   8.531032   -77.255394
 0.685000   8.142412   -77.080470
 0.690000   7.760228   -76.354311
 0.695000   7.378869   -76.813502
 0.700000   6.992093   -77.939692
 0.705000   6.599472   -78.564827
 0.710000   6.206444   -79.239408
 0.715000   5.807078   -80.783710
 0.720000   5.398607   -81.521413
 0.725000   4.991864   -81.460997
 0.730000   4.583997   -79.265246
 0.735000   4.199211   -75.788136
 0.740000   3.826116   -71.743611
 0.745000   3.481775   -66.165053
 0.750000   3.164465   -60.745601
 0.755000   2.874319   -55.620028
 0.760000   2.608265   -48.453033
 0.765000   2.389789   -40.547238
 0.770000   2.202793   -34.911578
 0.775000   2.040673   -29.351565
 0.780000   1.909277   -23.654116
 0.785000   1.804132   -18.242146
 0.790000   1.726856   -14.032813
 0.795000   1.663804   -10.130896
 0.800000   1.625547   -5.663758
 0.805000   1.607166   -2.054763
 0.810000   1.604999   1.143653
 0.815000   1.618603   4.714225
 0.820000   1.652141   6.475351
 0.825000   1.683356   5.255166
 0.830000   1.704693   3.244764
 0.835000   1.715804   0.496702
 0.840000   1.709660   -3.513940
 0.845000   1.680664   -8.442353
 0.850000   1.625237   -13.535445
 0.855000   1.545310   -18.741542
 0.860000   1.437821   -24.581475
 0.865000   1.299495   -31.168368
 0.870000   1.126137   -38.406179
 0.875000   0.915433   -46.717153
 0.880000   0.658966   -57.004428
 0.885000   0.345389   -69.390927
 0.890000   -0.034943   -83.873689
 0.895000   -0.493348   -101.349191
 0.900000   -1.048435   -122.181597
 0.905000   -1.715164   -148.074471
 0.910000   -2.529180   -179.398671
 0.915000   -3.509151   -212.261503
 0.920000   -4.651795   -248.858749
 0.925000   -5.997738   -294.018370
 0.930000   -7.591979   -346.341518
 0.935000   -9.461153   -408.298959
 0.940000   -11.674968   -484.463817
 0.945000   -14.305791   -558.024378
 0.950000   -17.255212   -620.232542
 0.955000   -20.508117   -678.128515
 0.960000   -24.036497   -664.031980
 0.965000   -27.148437   -545.588715
 0.970000   -29.492384   -340.409422
 0.975000   -30.552531   2.946685
 0.980000   -29.462918   471.670558
 0.985000   -25.835825   913.795890
 0.990000   -20.324959   1198.452631
 0.995000   -13.851299   1263.016723
 1.000000   -7.694791   1199.586296
201 psinorm ommvb() dommvb/dpsiN
 0.000000   38.430818   21461.182468
 0.005000   128.370450   14514.670214
 0.010000   183.577520   10631.128228
 0.015000   234.681732   9370.292672
 0.020000   277.280447   7510.688661
 0.025000   309.788619   6025.985596
 0.030000   337.540303   5036.924399
 0.035000   360.157863   4134.888273
 0.040000   378.889186   3415.056493
 0.045000   394.308428   2795.485776
 0.050000   406.844044   2215.954428
 0.055000   416.467972   1789.160849
 0.060000   424.735652   1415.041513
 0.065000   430.618387   1092.623716
 0.070000   435.661889   785.169842
 0.075000   438.470086   540.101193
 0.080000   441.062901   343.579066
 0.085000   441.905876   -65.680229
 0.090000   440.406099   -255.192365
 0.095000   439.353953   -303.872574
 0.100000   437.367373   -537.600810
 0.105000   433.977945   -834.306843
 0.110000   429.024305   -929.811055
 0.115000   424.679834   -933.663348
 0.120000   419.687671   -1063.698523
 0.125000   414.042849   -1178.988424
 0.130000   407.897787   -1277.851803
 0.135000   401.264331   -1374.035270
 0.140000   394.157434   -1459.049059
 0.145000   386.673840   -1509.136503
 0.150000   379.066069   -1546.452349
 0.155000   371.209317   -1575.157198
 0.160000   363.314497   -1586.031048
 0.165000   355.349006   -1597.873941
 0.170000   347.335758   -1597.334990
 0.175000   339.375656   -1569.245144
 0.180000   331.643306   -1527.742388
 0.185000   324.098232   -1508.512629
 0.190000   316.558180   -1485.405351
 0.195000   309.244179   -1445.367173
 0.200000   302.104508   -1397.554584
 0.205000   295.268633   -1338.411242
 0.210000   288.720396   -1283.827551
 0.215000   282.430358   -1226.419785
 0.220000   276.456198   -1162.805707
 0.225000   270.802300   -1172.298767
 0.230000   264.733211   -1175.738750
 0.235000   259.044913   -1027.891849
 0.240000   254.454292   -885.799166
 0.245000   250.186921   -822.110723
 0.250000   246.233185   -760.053628
 0.255000   242.586385   -698.515405
 0.260000   239.248031   -743.134985
 0.265000   235.155035   -687.569651
 0.270000   232.372334   -509.791885
 0.275000   230.057116   -438.377929
 0.280000   227.988555   -390.843472
 0.285000   226.148682   -386.044133
 0.290000   224.128114   -393.807271
 0.295000   222.210609   -297.954659
 0.300000   221.148567   -195.562418
 0.305000   220.254985   -163.182112
 0.310000   219.516746   -173.232994
 0.315000   218.522655   -173.738584
 0.320000   217.779360   -96.931103
 0.325000   217.553344   -46.924487
 0.330000   217.310115   -54.930964
 0.335000   217.004034   -93.093834
 0.340000   216.379177   -44.723654
 0.345000   216.556798   40.084084
 0.350000   216.780018   48.363443
 0.355000   217.040432   8.296404
 0.360000   216.862982   -3.489572
 0.365000   217.005536   47.074020
 0.370000   217.333722   65.666201
 0.375000   217.662198   20.591665
 0.380000   217.539639   -8.237988
 0.385000   217.579818   46.823262
 0.390000   218.007871   87.395480
 0.395000   218.453773   20.814344
 0.400000   218.216015   -28.876360
 0.405000   218.165010   14.825508
 0.410000   218.364270   38.113427
 0.415000   218.546144   -39.648877
 0.420000   217.967781   -62.986124
 0.425000   217.916283   4.892255
 0.430000   218.016703   15.793619
 0.435000   218.074219   -91.518064
 0.440000   217.101523   -104.145040
 0.445000   217.032768   -19.680120
 0.450000   216.904722   -64.367489
 0.455000   216.389094   -164.905682
 0.460000   215.255665   -150.082459
 0.465000   214.888269   -80.981002
 0.470000   214.445855   -167.001970
 0.475000   213.218249   -230.176963
 0.480000   212.144085   -167.376384
 0.485000   211.544485   -124.190145
 0.490000   210.902184   -238.638942
 0.495000   209.158096   -245.847196
 0.500000   208.443712   -131.644317
 0.505000   207.841653   -146.825375
 0.510000   206.975458   -219.337794
 0.515000   205.648275   -172.537393
 0.520000   205.250084   -76.367925
 0.525000   204.884596   -126.357860
 0.530000   203.986506   -142.899295
 0.535000   203.455603   -61.365376
 0.540000   203.372852   -13.604478
 0.545000   203.319558   -84.572681
 0.550000   202.527125   -76.344916
 0.555000   202.556109   13.568807
 0.560000   202.662813   4.693507
 0.565000   202.603044   -43.937087
 0.570000   202.223442   -11.417748
 0.575000   202.488866   54.777165
 0.580000   202.771214   27.494159
 0.585000   202.763808   13.212834
 0.590000   202.903342   63.435884
 0.595000   203.398167   103.634783
 0.600000   203.939690   85.286946
 0.605000   204.251036   94.346816
 0.610000   204.883158   148.106824
 0.615000   205.732104   178.779803
 0.620000   206.670956   171.093124
 0.625000   207.443036   200.944822
 0.630000   208.680404   259.854797
 0.635000   210.041584   282.672965
 0.640000   211.507134   300.659564
 0.645000   213.048179   336.915288
 0.650000   214.876287   377.865179
 0.655000   216.826831   403.804034
 0.660000   218.914327   447.976565
 0.665000   221.306597   491.431705
 0.670000   223.828644   516.992317
 0.675000   226.476520   542.935596
 0.680000   229.258000   590.725183
 0.685000   232.383772   632.991169
 0.690000   235.587912   653.339870
 0.695000   238.917170   680.531433
 0.700000   242.393226   733.900035
 0.705000   246.256171   774.291517
 0.710000   250.136141   789.704571
 0.715000   254.153217   826.039240
 0.720000   258.396534   884.063811
 0.725000   262.993855   965.706623
 0.730000   268.053600   1023.677451
 0.735000   273.230629   1069.412271
 0.740000   278.747723   1139.559272
 0.745000   284.626222   1247.267249
 0.750000   291.220395   1339.538677
 0.755000   298.021609   1382.541082
 0.760000   305.045806   1445.895866
 0.765000   312.480567   1526.991916
 0.770000   320.315725   1631.335304
 0.775000   328.793920   1703.628301
 0.780000   337.352008   1740.731667
 0.785000   346.201237   1811.655775
 0.790000   355.468566   1895.709485
 0.795000   365.158332   1986.169430
 0.800000   375.330260   2074.426360
 0.805000   385.902595   2153.631602
 0.810000   396.866576   2245.357469
 0.815000   408.356170   2353.162873
 0.820000   420.398205   2463.130762
 0.825000   432.987478   2565.582394
 0.830000   446.054029   2651.011758
 0.835000   459.497595   2767.480447
 0.840000   473.728833   2914.976515
 0.845000   488.647361   3057.433648
 0.850000   504.303170   3211.610681
 0.855000   520.763467   3384.863142
 0.860000   538.151801   3586.226139
 0.865000   556.625729   3839.119835
 0.870000   576.543000   4302.069072
 0.875000   599.646419   4927.682863
 0.880000   625.819828   5585.289148
 0.885000   655.499311   6354.842409
 0.890000   689.368252   7283.898103
 0.895000   728.338292   8409.839878
 0.900000   773.466651   9773.147566
 0.905000   826.069768   11399.580809
 0.910000   887.462459   13242.559861
 0.915000   958.495366   15299.427550
 0.920000   1040.456735   17512.758827
 0.925000   1133.622954   19279.852607
 0.930000   1233.255261   19726.055441
 0.935000   1330.883509   18134.945105
 0.940000   1414.604712   14643.318668
 0.945000   1477.316696   11717.258520
 0.950000   1531.777297   16387.435482
 0.955000   1641.191050   34877.931679
 0.960000   1880.556614   67398.242472
 0.965000   2315.173475   102727.044184
 0.970000   2907.827056   120940.567383
 0.975000   3524.579149   115445.887692
 0.980000   4062.285933   106044.883863
 0.985000   4585.027988   105245.600893
 0.990000   5114.741942   80808.604123
 0.995000   5393.114029   281532.766125
 1.000000   7930.069603   733249.463479
201 psinorm ommpp() dommpp/dpsiN
 0.000000   1.684441   -21392.306736
 0.005000   -88.011073   -14485.898934
 0.010000   -143.174549   -10624.395716
 0.015000   -194.255031   -9366.617320
 0.020000   -236.840722   -7509.033767
 0.025000   -269.345368   -6026.415941
 0.030000   -297.104881   -5039.837086
 0.035000   -319.743739   -4140.273447
 0.040000   -338.507616   -3422.642544
 0.045000   -353.970165   -2805.095370
 0.050000   -366.558569   -2227.167348
 0.055000   -376.241838   -1801.323968
 0.060000   -384.571809   -1427.568538
 0.065000   -390.517523   -1105.087215
 0.070000   -395.622681   -797.258102
 0.075000   -398.490104   -551.609575
 0.080000   -401.138777   -354.261314
 0.085000   -402.032718   56.043782
 0.090000   -400.578339   246.499504
 0.095000   -399.567723   295.836264
 0.100000   -397.619976   529.920908
 0.105000   -394.268513   826.692408
 0.110000   -389.353052   921.906893
 0.115000   -385.049445   924.891350
 0.120000   -380.104139   1053.358630
 0.125000   -374.515858   1166.810774
 0.130000   -368.436031   1263.898232
 0.135000   -361.876876   1358.293463
 0.140000   -354.853097   1441.586928
 0.145000   -347.461007   1489.891936
 0.150000   -339.954177   1525.937480
 0.155000   -332.201632   1554.041814
 0.160000   -324.413759   1564.387346
 0.165000   -316.557758   1575.825762
 0.170000   -308.655501   1574.930319
 0.175000   -300.808455   1546.588551
 0.180000   -293.189616   1504.976257
 0.185000   -285.758693   1485.569199
 0.190000   -278.333924   1462.108986
 0.195000   -271.137603   1421.613440
 0.200000   -264.117790   1373.369324
 0.205000   -257.403910   1314.042421
 0.210000   -250.977365   1259.140042
 0.215000   -244.812509   1200.988125
 0.220000   -238.967484   1136.594451
 0.225000   -233.446565   1145.192630
 0.230000   -227.515558   1147.417731
 0.235000   -221.972387   998.140564
 0.240000   -217.534152   854.475482
 0.245000   -213.427632   789.510394
 0.250000   -209.639048   726.711278
 0.255000   -206.160520   664.548687
 0.260000   -202.993561   708.619779
 0.265000   -199.074322   652.274504
 0.270000   -196.470816   473.808923
 0.275000   -194.336233   402.433876
 0.280000   -192.446478   355.097799
 0.285000   -190.785255   350.491265
 0.290000   -188.941565   358.722386
 0.295000   -187.198031   263.318325
 0.300000   -186.308382   161.737455
 0.305000   -185.580656   130.689815
 0.310000   -185.001483   141.868910
 0.315000   -184.161967   143.282369
 0.320000   -183.568660   67.249556
 0.325000   -183.489472   17.864594
 0.330000   -183.390014   26.541846
 0.335000   -183.224053   64.988042
 0.340000   -182.740133   16.414504
 0.345000   -183.059908   -68.735970
 0.350000   -183.427493   -77.635868
 0.355000   -183.836267   -38.403747
 0.360000   -183.811531   -27.870219
 0.365000   -184.114969   -80.516956
 0.370000   -184.616700   -101.176208
 0.375000   -185.126731   -57.602782
 0.380000   -185.192728   -29.955885
 0.385000   -185.426290   -86.116080
 0.390000   -186.053889   -128.171525
 0.395000   -186.708005   -62.536090
 0.400000   -186.679250   -13.044564
 0.405000   -186.838451   -56.927524
 0.410000   -187.248525   -80.283451
 0.415000   -187.641285   -2.565904
 0.420000   -187.274184   20.765902
 0.425000   -187.433626   -46.898476
 0.430000   -187.743169   -57.771690
 0.435000   -188.011343   48.913683
 0.440000   -187.254032   59.776671
 0.445000   -187.413577   -27.882751
 0.450000   -187.532859   12.439352
 0.455000   -187.289183   107.080370
 0.460000   -186.462056   85.193190
 0.465000   -186.437251   8.262263
 0.470000   -186.379433   85.610917
 0.475000   -185.581142   140.490984
 0.480000   -184.974523   70.474905
 0.485000   -184.876393   21.044923
 0.490000   -184.764074   130.434722
 0.495000   -183.572046   134.147839
 0.500000   -183.422596   18.586208
 0.505000   -183.386184   34.554459
 0.510000   -183.077051   109.519201
 0.515000   -182.290992   66.499727
 0.520000   -182.412054   -24.870531
 0.525000   -182.539697   30.963661
 0.530000   -182.102417   53.742293
 0.535000   -182.002274   -22.357928
 0.540000   -182.325996   -65.813360
 0.545000   -182.660408   8.147743
 0.550000   -182.244519   1.369643
 0.555000   -182.646711   -88.794824
 0.560000   -183.132467   -81.493767
 0.565000   -183.461649   -34.779475
 0.570000   -183.480262   -69.060845
 0.575000   -184.152257   -137.100233
 0.580000   -184.851264   -111.763460
 0.585000   -185.269892   -99.225535
 0.590000   -185.843520   -150.578237
 0.595000   -186.775674   -191.211425
 0.600000   -187.755634   -172.753792
 0.605000   -188.503212   -181.318062
 0.610000   -189.568815   -234.523804
 0.615000   -190.848450   -264.377696
 0.620000   -192.212591   -255.769369
 0.625000   -193.406144   -284.957312
 0.630000   -195.062165   -343.565820
 0.635000   -196.841802   -366.434314
 0.640000   -198.726508   -384.592822
 0.645000   -200.687730   -421.241091
 0.650000   -202.938919   -462.812026
 0.655000   -205.315851   -489.402148
 0.660000   -207.832940   -534.258299
 0.665000   -210.658434   -578.425641
 0.670000   -213.617197   -604.169508
 0.675000   -216.700129   -629.771030
 0.680000   -219.914907   -677.018756
 0.685000   -223.470316   -718.719404
 0.690000   -227.102101   -738.794994
 0.695000   -230.858266   -766.196710
 0.700000   -234.764068   -819.998575
 0.705000   -239.058252   -861.068794
 0.710000   -243.374756   -877.633847
 0.715000   -247.834590   -914.959426
 0.720000   -252.524350   -973.316992
 0.725000   -257.567760   -1055.239706
 0.730000   -263.076747   -1110.920720
 0.735000   -268.676967   -1152.013849
 0.740000   -274.596886   -1217.644235
 0.745000   -280.853410   -1319.894114
 0.750000   -287.795827   -1405.888394
 0.755000   -294.912294   -1442.802987
 0.760000   -302.223857   -1498.619806
 0.765000   -309.898492   -1571.533055
 0.770000   -317.939187   -1669.181908
 0.775000   -326.590311   -1735.257248
 0.780000   -335.291760   -1766.694780
 0.785000   -344.257259   -1831.801568
 0.790000   -353.609775   -1910.786808
 0.795000   -363.365127   -1997.084542
 0.800000   -373.580621   -2080.985680
 0.805000   -384.174984   -2156.068801
 0.810000   -395.141309   -2244.114570
 0.815000   -406.616129   -2348.279828
 0.820000   -418.624107   -2456.556663
 0.825000   -431.181696   -2560.027967
 0.830000   -444.224387   -2647.547787
 0.835000   -457.657174   -2767.224686
 0.840000   -471.896634   -2919.022488
 0.845000   -486.847399   -3066.525251
 0.850000   -502.561886   -3226.159738
 0.855000   -519.108996   -3405.164540
 0.860000   -536.613532   -3612.678402
 0.865000   -555.235780   -3872.471359
 0.870000   -575.338245   -4343.176694
 0.875000   -598.667547   -4977.741053
 0.880000   -625.115656   -5646.257191
 0.885000   -655.130119   -6428.979661
 0.890000   -689.405452   -7373.539394
 0.895000   -728.865513   -8518.197376
 0.900000   -774.587426   -9903.907360
 0.905000   -827.904586   -11558.097511
 0.910000   -890.168401   -13434.625049
 0.915000   -962.250837   -15527.164297
 0.920000   -1045.440044   -17780.525398
 0.925000   -1140.056091   -19596.228366
 0.930000   -1241.402328   -20098.548812
 0.935000   -1341.041579   -18575.229211
 0.940000   -1427.154620   -15164.430622
 0.945000   -1492.685885   -12314.885116
 0.950000   -1550.303471   -17049.335132
 0.955000   -1663.179237   -35577.827531
 0.960000   -1906.081746   -68074.517864
 0.965000   -2343.924415   -103290.072673
 0.970000   -2938.982473   -121269.352601
 0.975000   -3556.617941   -115388.876403
 0.980000   -4092.871237   -105518.108469
 0.985000   -4611.799026   -104288.682801
 0.990000   -5135.758065   -79562.125189
 0.995000   -5407.420278   -280224.200570
 1.000000   -7938.000071   -732007.716670
201 psinorm omevb() domevb/dpsiN
 0.000000   19.627213   76.883604
 0.005000   19.917748   39.330344
 0.010000   20.020516   18.604970
 0.015000   20.103798   15.622943
 0.020000   20.176746   13.676697
 0.025000   20.240565   11.664746
 0.030000   20.293393   9.254764
 0.035000   20.333112   6.853707
 0.040000   20.361930   4.723328
 0.045000   20.380345   2.769351
 0.050000   20.389624   1.234654
 0.055000   20.392692   0.352149
 0.060000   20.393145   0.054996
 0.065000   20.393242   0.184334
 0.070000   20.394989   0.624443
 0.075000   20.399486   1.268249
 0.080000   20.407671   2.157364
 0.085000   20.421060   3.265202
 0.090000   20.440323   4.269876
 0.095000   20.463759   4.986569
 0.100000   20.490189   5.402169
 0.105000   20.517780   5.525878
 0.110000   20.545448   5.293443
 0.115000   20.570715   4.481949
 0.120000   20.590267   2.969443
 0.125000   20.600409   1.186125
 0.130000   20.602128   -0.536309
 0.135000   20.595046   -2.272011
 0.140000   20.579408   -3.940752
 0.145000   20.555639   -5.672559
 0.150000   20.522683   -6.893183
 0.155000   20.486707   -7.444971
 0.160000   20.448233   -7.925515
 0.165000   20.407452   -8.283168
 0.170000   20.365401   -8.593786
 0.175000   20.321514   -8.800784
 0.180000   20.277394   -8.866348
 0.185000   20.232850   -9.000620
 0.190000   20.187387   -9.311475
 0.195000   20.139736   -9.727710
 0.200000   20.090110   -10.119049
 0.205000   20.038545   -10.263366
 0.210000   19.987477   -10.543753
 0.215000   19.933108   -11.250542
 0.220000   19.874971   -11.993718
 0.225000   19.813170   -12.853116
 0.230000   19.746440   -14.033452
 0.235000   19.672836   -15.430107
 0.240000   19.592139   -16.969827
 0.245000   19.503138   -18.214725
 0.250000   19.409992   -18.925927
 0.255000   19.313878   -19.520404
 0.260000   19.214788   -20.039924
 0.265000   19.113479   -20.791821
 0.270000   19.006869   -21.452512
 0.275000   18.898954   -21.387395
 0.280000   18.792995   -21.163723
 0.285000   18.687317   -20.946537
 0.290000   18.583530   -20.455085
 0.295000   18.482766   -19.983971
 0.300000   18.383690   -19.150941
 0.305000   18.291257   -17.797516
 0.310000   18.205715   -16.649443
 0.315000   18.124762   -15.722609
 0.320000   18.048489   -14.929869
 0.325000   17.975463   -14.291030
 0.330000   17.905579   -13.603956
 0.335000   17.839424   -13.305212
 0.340000   17.772527   -13.494032
 0.345000   17.704484   -13.823103
 0.350000   17.634296   -14.430850
 0.355000   17.560175   -15.253843
 0.360000   17.481757   -16.495230
 0.365000   17.395223   -18.568172
 0.370000   17.296076   -20.625899
 0.375000   17.188964   -22.118515
 0.380000   17.074890   -23.293626
 0.385000   16.956028   -24.385770
 0.390000   16.831033   -25.863036
 0.395000   16.697397   -26.803612
 0.400000   16.562997   -26.998495
 0.405000   16.427412   -27.176120
 0.410000   16.291235   -27.241484
 0.415000   16.154997   -27.284415
 0.420000   16.018391   -27.288842
 0.425000   15.882109   -27.074638
 0.430000   15.747645   -27.047089
 0.435000   15.611638   -27.674799
 0.440000   15.470897   -29.440983
 0.445000   15.317228   -32.638471
 0.450000   15.144512   -37.007507
 0.455000   14.947153   -42.909233
 0.460000   14.715420   -49.978517
 0.465000   14.447368   -57.814084
 0.470000   14.137279   -66.493260
 0.475000   13.782435   -74.795808
 0.480000   13.389321   -82.019685
 0.485000   12.962239   -88.272556
 0.490000   12.506595   -93.341425
 0.495000   12.028824   -96.847173
 0.500000   11.538124   -98.217271
 0.505000   11.046652   -97.442151
 0.510000   10.563702   -95.002625
 0.515000   10.096625   -91.235212
 0.520000   9.651350   -86.450228
 0.525000   9.232123   -80.620905
 0.530000   8.845141   -74.399342
 0.535000   8.488130   -68.981973
 0.540000   8.155321   -64.693526
 0.545000   7.841194   -61.718329
 0.550000   7.538138   -60.287045
 0.555000   7.238324   -60.556842
 0.560000   6.932569   -62.150806
 0.565000   6.616816   -64.087489
 0.570000   6.291695   -65.870557
 0.575000   5.958110   -67.736718
 0.580000   5.614327   -69.705279
 0.585000   5.261057   -71.471644
 0.590000   4.899611   -72.624894
 0.595000   4.534809   -73.083404
 0.600000   4.168777   -72.998451
 0.605000   3.804824   -72.528305
 0.610000   3.443494   -72.000101
 0.615000   3.084823   -71.207676
 0.620000   2.731417   -70.313286
 0.625000   2.381690   -69.677377
 0.630000   2.034643   -69.404337
 0.635000   1.687647   -69.483668
 0.640000   1.339807   -69.685150
 0.645000   0.990795   -70.107831
 0.650000   0.638728   -70.759568
 0.655000   0.283200   -71.442076
 0.660000   -0.075692   -72.157479
 0.665000   -0.438375   -72.901999
 0.670000   -0.804712   -73.118098
 0.675000   -1.169556   -72.809702
 0.680000   -1.532809   -72.301710
 0.685000   -1.892573   -71.770736
 0.690000   -2.250517   -71.532469
 0.695000   -2.607898   -71.777933
 0.700000   -2.968296   -72.246948
 0.705000   -3.330367   -72.961855
 0.710000   -3.697915   -74.150403
 0.715000   -4.071871   -75.178197
 0.720000   -4.449697   -75.548345
 0.725000   -4.827355   -75.865582
 0.730000   -5.208352   -73.613165
 0.735000   -5.563487   -69.008771
 0.740000   -5.898440   -64.529119
 0.745000   -6.208778   -59.107335
 0.750000   -6.489514   -52.865406
 0.755000   -6.737432   -46.811102
 0.760000   -6.957625   -39.304067
 0.765000   -7.130472   -31.148417
 0.770000   -7.269109   -24.475566
 0.775000   -7.375228   -18.271779
 0.780000   -7.451827   -12.608721
 0.785000   -7.501315   -6.778511
 0.790000   -7.519612   -1.675111
 0.795000   -7.518066   2.552942
 0.800000   -7.494082   7.017827
 0.805000   -7.447888   11.309433
 0.810000   -7.380988   15.243176
 0.815000   -7.295456   19.254036
 0.820000   -7.188448   21.478337
 0.825000   -7.080673   21.217105
 0.830000   -6.976276   20.196408
 0.835000   -6.878709   18.487242
 0.840000   -6.791404   16.274789
 0.845000   -6.715961   14.127216
 0.850000   -6.650132   12.671592
 0.855000   -6.589245   12.420161
 0.860000   -6.525930   13.794147
 0.865000   -6.451304   17.132237
 0.870000   -6.354608   23.214902
 0.875000   -6.219155   32.826580
 0.880000   -6.026342   46.572701
 0.885000   -5.753428   65.740414
 0.890000   -5.368938   91.925983
 0.895000   -4.834168   125.671363
 0.900000   -4.112224   166.940336
 0.905000   -3.164764   212.071691
 0.910000   -1.991507   253.501717
 0.915000   -0.629747   277.911259
 0.920000   0.787605   248.682192
 0.925000   1.857075   99.675979
 0.930000   1.784365   -266.207337
 0.935000   -0.804999   -981.655380
 0.940000   -8.032189   -2160.492224
 0.945000   -22.409921   -3772.782829
 0.950000   -45.760017   -5541.202891
 0.955000   -77.821950   -6918.567179
 0.960000   -114.945689   -7306.733465
 0.965000   -150.889285   -6351.367350
 0.970000   -178.459362   -3856.747419
 0.975000   -189.456759   270.380960
 0.980000   -175.755553   5103.561037
 0.985000   -138.421148   8314.268513
 0.990000   -92.612868   8370.822074
 0.995000   -54.712928   6287.408005
 1.000000   -29.738788   3702.247985
201 psinorm omepp() domepp/dpsiN
 0.000000   20.488046   -8.007872
 0.005000   20.441629   -10.559064
 0.010000   20.382455   -11.872457
 0.015000   20.322904   -11.947592
 0.020000   20.262979   -12.021804
 0.025000   20.202686   -12.095091
 0.030000   20.142029   -12.167451
 0.035000   20.081012   -12.238881
 0.040000   20.019640   -12.309380
 0.045000   19.957918   -12.378945
 0.050000   19.895850   -12.447575
 0.055000   19.833442   -12.515267
 0.060000   19.770698   -12.582020
 0.065000   19.707622   -12.647833
 0.070000   19.644219   -12.712703
 0.075000   19.580495   -12.776630
 0.080000   19.516453   -12.839613
 0.085000   19.452099   -12.901649
 0.090000   19.387437   -12.962738
 0.095000   19.322471   -13.022879
 0.100000   19.257208   -13.082071
 0.105000   19.191651   -13.140314
 0.110000   19.125805   -13.197606
 0.115000   19.059675   -13.253947
 0.120000   18.993265   -13.309337
 0.125000   18.926581   -13.363775
 0.130000   18.859627   -13.417262
 0.135000   18.792409   -13.469796
 0.140000   18.724929   -13.521378
 0.145000   18.657195   -13.572008
 0.150000   18.589209   -13.621686
 0.155000   18.520978   -13.670412
 0.160000   18.452505   -13.718187
 0.165000   18.383796   -13.765011
 0.170000   18.314855   -13.810885
 0.175000   18.245687   -13.855809
 0.180000   18.176297   -13.899784
 0.185000   18.106689   -13.942810
 0.190000   18.036869   -13.984890
 0.195000   17.966840   -14.026023
 0.200000   17.896609   -14.066211
 0.205000   17.826178   -14.105455
 0.210000   17.755554   -14.143757
 0.215000   17.684741   -14.181117
 0.220000   17.613743   -14.217538
 0.225000   17.542565   -14.253021
 0.230000   17.471213   -14.287567
 0.235000   17.399690   -14.321178
 0.240000   17.328001   -14.353856
 0.245000   17.256151   -14.385604
 0.250000   17.184145   -14.416422
 0.255000   17.111987   -14.446314
 0.260000   17.039682   -14.475281
 0.265000   16.967234   -14.503326
 0.270000   16.894649   -14.530451
 0.275000   16.821930   -14.556658
 0.280000   16.749082   -14.581950
 0.285000   16.676110   -14.606330
 0.290000   16.603019   -14.629800
 0.295000   16.529812   -14.652363
 0.300000   16.456495   -14.674022
 0.305000   16.383072   -14.694781
 0.310000   16.309547   -14.714640
 0.315000   16.235925   -14.733605
 0.320000   16.162211   -14.751678
 0.325000   16.088409   -14.768863
 0.330000   16.014523   -14.785162
 0.335000   15.940557   -14.800579
 0.340000   15.866517   -14.815118
 0.345000   15.792406   -14.828782
 0.350000   15.718229   -14.841575
 0.355000   15.643990   -14.853500
 0.360000   15.569694   -14.864562
 0.365000   15.495345   -14.874763
 0.370000   15.420946   -14.884108
 0.375000   15.346503   -14.892602
 0.380000   15.272020   -14.900247
 0.385000   15.197501   -14.907048
 0.390000   15.122950   -14.913009
 0.395000   15.048371   -14.918134
 0.400000   14.973768   -14.922428
 0.405000   14.899147   -14.925896
 0.410000   14.824509   -14.928540
 0.415000   14.749861   -14.930366
 0.420000   14.675206   -14.931379
 0.425000   14.600547   -14.931583
 0.430000   14.525890   -14.930982
 0.435000   14.451238   -14.929582
 0.440000   14.376594   -14.927386
 0.445000   14.301964   -14.924401
 0.450000   14.227350   -14.920630
 0.455000   14.152757   -14.916079
 0.460000   14.078189   -14.910752
 0.465000   14.003650   -14.904656
 0.470000   13.929143   -14.897793
 0.475000   13.854672   -14.890171
 0.480000   13.780241   -14.881793
 0.485000   13.705854   -14.872666
 0.490000   13.631514   -14.862794
 0.495000   13.557226   -14.852183
 0.500000   13.482993   -14.840838
 0.505000   13.408818   -14.828765
 0.510000   13.334705   -14.815968
 0.515000   13.260658   -14.802454
 0.520000   13.186680   -14.788227
 0.525000   13.112776   -14.773295
 0.530000   13.038947   -14.757661
 0.535000   12.965199   -14.741331
 0.540000   12.891534   -14.724312
 0.545000   12.817956   -14.706609
 0.550000   12.744468   -14.688228
 0.555000   12.671074   -14.669174
 0.560000   12.597776   -14.649454
 0.565000   12.524579   -14.629073
 0.570000   12.451486   -14.608036
 0.575000   12.378499   -14.586351
 0.580000   12.305622   -14.564022
 0.585000   12.232859   -14.541056
 0.590000   12.160212   -14.517459
 0.595000   12.087684   -14.493237
 0.600000   12.015279   -14.468396
 0.605000   11.943000   -14.442941
 0.610000   11.870850   -14.416879
 0.615000   11.798831   -14.390217
 0.620000   11.726948   -14.362959
 0.625000   11.655202   -14.335113
 0.630000   11.583596   -14.306685
 0.635000   11.512135   -14.277682
 0.640000   11.440820   -14.248108
 0.645000   11.369654   -14.217972
 0.650000   11.298640   -14.187280
 0.655000   11.227781   -14.156038
 0.660000   11.157080   -14.124255
 0.665000   11.086538   -14.091937
 0.670000   11.016160   -14.059093
 0.675000   10.945947   -14.025732
 0.680000   10.875903   -13.991863
 0.685000   10.806029   -13.957500
 0.690000   10.736328   -13.922655
 0.695000   10.666802   -13.887345
 0.700000   10.597454   -13.851592
 0.705000   10.528286   -13.815423
 0.710000   10.459300   -13.778872
 0.715000   10.390498   -13.741989
 0.720000   10.321880   -13.704836
 0.725000   10.253449   -13.667501
 0.730000   10.185205   -13.630103
 0.735000   10.117148   -13.592807
 0.740000   10.049277   -13.555844
 0.745000   9.981590   -13.519530
 0.750000   9.914082   -13.484311
 0.755000   9.846747   -13.450803
 0.760000   9.779574   -13.419872
 0.765000   9.712548   -13.392723
 0.770000   9.645647   -13.371038
 0.775000   9.578838   -13.357168
 0.780000   9.512075   -13.354391
 0.785000   9.445294   -13.367282
 0.790000   9.378402   -13.402212
 0.795000   9.311272   -13.468054
 0.800000   9.243722   -13.577147
 0.805000   9.175500   -13.746632
 0.810000   9.106255   -14.000278
 0.815000   9.035497   -14.370991
 0.820000   8.962545   -14.904238
 0.825000   8.886455   -15.662679
 0.830000   8.805919   -16.732437
 0.835000   8.719131   -18.231481
 0.840000   8.623604   -20.320762
 0.845000   8.515923   -23.218819
 0.850000   8.391416   -27.220649
 0.855000   8.243716   -32.721559
 0.860000   8.064200   -40.246410
 0.865000   7.841252   -50.483761
 0.870000   7.559362   -64.322523
 0.875000   7.198027   -82.884770
 0.880000   6.730515   -107.540744
 0.885000   6.122620   -139.877665
 0.890000   5.331738   -181.567274
 0.895000   4.306947   -234.028861
 0.900000   2.991449   -297.700130
 0.905000   1.329946   -370.588393
 0.910000   -0.714434   -445.566905
 0.915000   -3.125723   -505.648006
 0.920000   -5.770915   -516.448763
 0.925000   -8.290211   -416.051739
 0.930000   -9.931432   -106.286034
 0.935000   -9.353071   541.371274
 0.940000   -4.517719   1639.380270
 0.945000   7.040731   3175.156233
 0.950000   27.233843   4879.303240
 0.955000   55.833764   6218.671328
 0.960000   89.420556   6630.458073
 0.965000   122.138344   5788.338860
 0.970000   147.303945   3527.962201
 0.975000   157.417966   -213.369671
 0.980000   145.170248   -4576.785643
 0.985000   111.650110   -7357.350420
 0.990000   71.596744   -7124.343140
 0.995000   40.406679   -4978.842450
 1.000000   21.808320   -2460.501177
201 psinorm kpol(km/s/T) dkpol/dpsiN
 0.000000   -0.014159   82.463969
 0.005000   0.315635   49.453715
 0.010000   0.480378   31.487347
 0.015000   0.630508   29.439865
 0.020000   0.774777   28.364375
 0.025000   0.914152   27.175830
 0.030000   1.046535   25.526584
 0.035000   1.169418   23.836930
 0.040000   1.284904   22.397659
 0.045000   1.393395   21.107824
 0.050000   1.495982   20.195365
 0.055000   1.595348   19.879945
 0.060000   1.694782   20.165776
 0.065000   1.797006   20.926345
 0.070000   1.904045   21.989450
 0.075000   2.016900   23.233237
 0.080000   2.136378   24.663665
 0.085000   2.263537   26.192874
 0.090000   2.398306   27.652957
 0.095000   2.540067   28.825414
 0.100000   2.686561   29.537075
 0.105000   2.835437   29.885004
 0.110000   2.985411   29.828473
 0.115000   3.133722   29.196730
 0.120000   3.277378   28.018237
 0.125000   3.413905   26.574452
 0.130000   3.543122   25.074371
 0.135000   3.664648   23.582431
 0.140000   3.778947   22.222763
 0.145000   3.886876   21.074828
 0.150000   3.989695   20.222515
 0.155000   4.089101   19.645537
 0.160000   4.186150   19.109294
 0.165000   4.280194   18.546671
 0.170000   4.371617   17.874559
 0.175000   4.458940   17.130024
 0.180000   4.542917   16.250460
 0.185000   4.621444   15.153874
 0.190000   4.694456   13.827276
 0.195000   4.759717   12.225605
 0.200000   4.816712   10.506507
 0.205000   4.864782   8.498853
 0.210000   4.901701   6.503475
 0.215000   4.929817   4.685402
 0.220000   4.948555   2.977496
 0.225000   4.959592   1.529669
 0.230000   4.963851   0.211800
 0.235000   4.961710   -0.839681
 0.240000   4.955455   -1.686938
 0.245000   4.944840   -2.537550
 0.250000   4.930079   -3.352308
 0.255000   4.911317   -4.280382
 0.260000   4.887275   -5.300096
 0.265000   4.858316   -6.368761
 0.270000   4.823588   -7.619726
 0.275000   4.782119   -8.853294
 0.280000   4.735055   -10.099311
 0.285000   4.681126   -11.451376
 0.290000   4.620541   -12.685737
 0.295000   4.554269   -13.924401
 0.300000   4.481297   -15.164065
 0.305000   4.402628   -16.351026
 0.310000   4.317787   -17.645965
 0.315000   4.226168   -18.997400
 0.320000   4.127813   -20.420549
 0.325000   4.021963   -22.047843
 0.330000   3.907334   -23.816673
 0.335000   3.783796   -25.671130
 0.340000   3.650623   -27.700372
 0.345000   3.506792   -29.795914
 0.350000   3.352664   -31.812055
 0.355000   3.188672   -33.641467
 0.360000   3.016249   -35.131006
 0.365000   2.837362   -36.269566
 0.370000   2.653553   -37.109991
 0.375000   2.466262   -37.574122
 0.380000   2.277812   -37.482112
 0.385000   2.091441   -37.131535
 0.390000   1.906497   -36.802322
 0.395000   1.723417   -36.417804
 0.400000   1.542319   -36.110451
 0.405000   1.362313   -35.993848
 0.410000   1.182380   -36.133241
 0.415000   1.000981   -36.577300
 0.420000   0.816607   -37.177153
 0.425000   0.629209   -37.821973
 0.430000   0.438388   -38.604517
 0.435000   0.243164   -39.838788
 0.440000   0.040000   -42.407838
 0.445000   -0.180915   -46.498722
 0.450000   -0.424988   -51.720681
 0.455000   -0.698121   -58.071978
 0.460000   -1.005707   -65.407150
 0.465000   -1.352193   -73.772643
 0.470000   -1.743434   -82.977106
 0.475000   -2.181964   -91.643271
 0.480000   -2.659866   -98.972771
 0.485000   -3.171692   -105.045350
 0.490000   -3.710320   -109.546634
 0.495000   -4.267158   -111.872761
 0.500000   -4.829048   -111.223685
 0.505000   -5.379395   -107.922720
 0.510000   -5.908275   -102.759083
 0.515000   -6.406986   -95.950559
 0.520000   -6.867780   -87.915800
 0.525000   -7.286144   -78.714723
 0.530000   -7.654928   -69.324164
 0.535000   -7.979385   -61.450004
 0.540000   -8.269428   -55.491444
 0.545000   -8.534300   -51.465458
 0.550000   -8.784082   -49.481473
 0.555000   -9.029114   -49.825520
 0.560000   -9.282337   -51.958547
 0.565000   -9.548700   -54.446679
 0.570000   -9.826804   -56.728905
 0.575000   -10.115989   -58.848406
 0.580000   -10.415288   -60.547540
 0.585000   -10.721464   -61.675394
 0.590000   -11.032042   -61.633390
 0.595000   -11.337798   -60.185239
 0.600000   -11.633895   -57.625271
 0.605000   -11.914051   -53.964045
 0.610000   -12.173535   -49.562647
 0.615000   -12.409677   -44.403000
 0.620000   -12.617565   -38.792465
 0.625000   -12.797602   -33.327022
 0.630000   -12.950835   -28.286386
 0.635000   -13.080466   -23.682107
 0.640000   -13.187656   -19.434922
 0.645000   -13.274815   -15.784036
 0.650000   -13.345497   -12.915879
 0.655000   -13.403974   -10.606033
 0.660000   -13.451557   -8.603967
 0.665000   -13.490014   -6.960725
 0.670000   -13.521164   -5.430584
 0.675000   -13.544319   -3.833055
 0.680000   -13.559495   -2.292309
 0.685000   -13.567243   -0.866730
 0.690000   -13.568162   0.587734
 0.695000   -13.561365   2.165466
 0.700000   -13.546507   3.804345
 0.705000   -13.523322   5.764700
 0.710000   -13.488860   8.324131
 0.715000   -13.440080   11.475342
 0.720000   -13.374107   15.157201
 0.725000   -13.288508   19.476904
 0.730000   -13.179338   24.558723
 0.735000   -13.042921   29.929907
 0.740000   -12.880039   34.974577
 0.745000   -12.693175   39.453840
 0.750000   -12.485500   43.078823
 0.755000   -12.262387   45.441971
 0.760000   -12.031081   46.160001
 0.765000   -11.800787   45.239766
 0.770000   -11.578683   43.045653
 0.775000   -11.370331   39.873092
 0.780000   -11.179952   36.157306
 0.785000   -11.008758   32.364586
 0.790000   -10.856306   28.736422
 0.795000   -10.721393   25.932280
 0.800000   -10.596984   24.153241
 0.805000   -10.479861   22.853710
 0.810000   -10.368446   21.697566
 0.815000   -10.262885   20.347185
 0.820000   -10.164975   18.453471
 0.825000   -10.078351   15.439907
 0.830000   -10.010576   11.109318
 0.835000   -9.967257   5.797739
 0.840000   -9.952598   -0.267994
 0.845000   -9.969937   -6.814082
 0.850000   -10.020739   -13.311915
 0.855000   -10.103057   -19.277164
 0.860000   -10.213511   -24.504086
 0.865000   -10.348097   -29.044469
 0.870000   -10.503955   -32.742953
 0.875000   -10.675527   -35.408692
 0.880000   -10.858042   -37.438798
 0.885000   -11.049915   -39.520004
 0.890000   -11.253242   -41.595063
 0.895000   -11.465866   -43.575642
 0.900000   -11.688999   -46.178146
 0.905000   -11.927647   -49.570080
 0.910000   -12.184699   -53.344985
 0.915000   -12.461097   -57.277486
 0.920000   -12.757474   -61.765684
 0.925000   -13.078754   -66.707451
 0.930000   -13.424549   -71.983680
 0.935000   -13.798590   -78.590457
 0.940000   -14.210453   -84.855704
 0.945000   -14.647147   -90.929075
 0.950000   -15.119744   -93.330199
 0.955000   -15.580449   -77.534232
 0.960000   -15.895087   -30.386040
 0.965000   -15.884310   64.330493
 0.970000   -15.251782   229.816142
 0.975000   -13.586148   469.185818
 0.980000   -10.559923   755.099033
 0.985000   -6.035158   1020.025329
 0.990000   -0.359670   1161.136557
 0.995000   5.576207   1092.988960
 1.000000   10.570220   904.615869
201 psinorm omghb() domghb/dpsiN
 0.000000   -0.000029   0.005679
 0.005000   -0.000058   -0.017444
 0.010000   -0.000203   -0.012303
 0.015000   -0.000181   0.011038
 0.020000   -0.000093   0.023967
 0.025000   0.000058   0.035679
 0.030000   0.000264   0.053181
 0.035000   0.000590   0.073629
 0.040000   0.001000   0.086132
 0.045000   0.001451   0.087032
 0.050000   0.001870   0.078380
 0.055000   0.002235   0.066976
 0.060000   0.002540   0.051507
 0.065000   0.002750   0.034668
 0.070000   0.002887   0.013825
 0.075000   0.002889   -0.002309
 0.080000   0.002864   -0.008807
 0.085000   0.002800   -0.014880
 0.090000   0.002715   -0.015652
 0.095000   0.002644   -0.017629
 0.100000   0.002539   0.002888
 0.105000   0.002673   0.048574
 0.110000   0.003024   0.085869
 0.115000   0.003531   0.123375
 0.120000   0.004258   0.160187
 0.125000   0.005133   0.200912
 0.130000   0.006267   0.235318
 0.135000   0.007487   0.231581
 0.140000   0.008583   0.209533
 0.145000   0.009582   0.201469
 0.150000   0.010598   0.178666
 0.155000   0.011369   0.159263
 0.160000   0.012190   0.132524
 0.165000   0.012694   0.097343
 0.170000   0.013164   0.099821
 0.175000   0.013692   0.107853
 0.180000   0.014242   0.115624
 0.185000   0.014848   0.108795
 0.190000   0.015330   0.102098
 0.195000   0.015869   0.132752
 0.200000   0.016658   0.159456
 0.205000   0.017464   0.156285
 0.210000   0.018221   0.148797
 0.215000   0.018952   0.141586
 0.220000   0.019636   0.153984
 0.225000   0.020492   0.306850
 0.230000   0.022705   0.381709
 0.235000   0.024309   0.307098
 0.240000   0.025776   0.290444
 0.245000   0.027213   0.266941
 0.250000   0.028445   0.286442
 0.255000   0.030078   0.237907
 0.260000   0.030824   0.162273
 0.265000   0.031700   0.178594
 0.270000   0.032610   0.160423
 0.275000   0.033304   0.134618
 0.280000   0.033957   0.193412
 0.285000   0.035239   0.034242
 0.290000   0.034299   -0.111535
 0.295000   0.034123   -0.050136
 0.300000   0.033798   -0.097317
 0.305000   0.033150   -0.109560
 0.310000   0.032702   -0.101500
 0.315000   0.032135   -0.139283
 0.320000   0.031309   -0.091939
 0.325000   0.031216   -0.004757
 0.330000   0.031262   0.020625
 0.335000   0.031422   0.073078
 0.340000   0.031992   -0.018470
 0.345000   0.031237   0.114140
 0.350000   0.033134   0.401916
 0.355000   0.035256   0.438257
 0.360000   0.037516   0.453681
 0.365000   0.039793   0.455052
 0.370000   0.042067   0.467250
 0.375000   0.044466   0.500649
 0.380000   0.047073   0.446762
 0.385000   0.048933   0.355918
 0.390000   0.050633   0.308867
 0.395000   0.052022   0.261365
 0.400000   0.053246   0.305772
 0.405000   0.055080   0.153792
 0.410000   0.054784   -0.035497
 0.415000   0.054725   0.048566
 0.420000   0.055270   0.117226
 0.425000   0.055897   0.128849
 0.430000   0.056558   0.161072
 0.435000   0.057508   0.330800
 0.440000   0.059866   0.708612
 0.445000   0.064594   1.123558
 0.450000   0.071102   1.629819
 0.455000   0.080892   2.066058
 0.460000   0.091762   2.236930
 0.465000   0.103261   2.375338
 0.470000   0.115516   2.443638
 0.475000   0.127698   2.380938
 0.480000   0.139325   2.325181
 0.485000   0.150950   1.967121
 0.490000   0.158996   1.366104
 0.495000   0.164611   0.856121
 0.500000   0.167558   0.328688
 0.505000   0.167897   -0.181628
 0.510000   0.165741   -0.855031
 0.515000   0.159347   -1.315408
 0.520000   0.152587   -1.422493
 0.525000   0.145122   -1.527114
 0.530000   0.137316   -1.552026
 0.535000   0.129602   -1.467828
 0.540000   0.122638   -1.138051
 0.545000   0.118221   -0.525786
 0.550000   0.117380   0.018591
 0.555000   0.118407   0.325268
 0.560000   0.120633   0.589327
 0.565000   0.124301   0.770508
 0.570000   0.128338   0.845708
 0.575000   0.132758   0.803784
 0.580000   0.136376   0.630910
 0.585000   0.139067   0.426085
 0.590000   0.140636   0.375846
 0.595000   0.142825   0.292678
 0.600000   0.143563   0.034394
 0.605000   0.143169   -0.119717
 0.610000   0.142366   -0.145558
 0.615000   0.141714   -0.146826
 0.620000   0.140898   -0.123714
 0.625000   0.140476   -0.076192
 0.630000   0.140136   -0.005913
 0.635000   0.140417   0.097464
 0.640000   0.141111   0.192760
 0.645000   0.142345   0.361938
 0.650000   0.144730   0.384725
 0.655000   0.146192   0.294482
 0.660000   0.147675   0.272585
 0.665000   0.148918   0.164080
 0.670000   0.149316   0.047907
 0.675000   0.149397   0.039444
 0.680000   0.149710   -0.011018
 0.685000   0.149287   -0.093840
 0.690000   0.148772   -0.060942
 0.695000   0.148678   0.075017
 0.700000   0.149522   0.287821
 0.705000   0.151556   0.671975
 0.710000   0.156241   0.699569
 0.715000   0.158551   0.160706
 0.720000   0.157849   -0.211980
 0.725000   0.156432   -0.483245
 0.730000   0.153016   -0.919231
 0.735000   0.147239   -1.053257
 0.740000   0.142484   -1.514534
 0.745000   0.132094   -2.416848
 0.750000   0.118315   -2.578720
 0.755000   0.106307   -2.478168
 0.760000   0.093533   -2.527557
 0.765000   0.081031   -2.445203
 0.770000   0.069081   -2.448352
 0.775000   0.056548   -2.264365
 0.780000   0.046438   -1.932814
 0.785000   0.037220   -1.783322
 0.790000   0.028604   -1.677617
 0.795000   0.020443   -1.730965
 0.800000   0.011295   -1.849850
 0.805000   0.001945   -1.414972
 0.810000   -0.002855   -0.987341
 0.815000   -0.007929   -0.781607
 0.820000   -0.010671   -0.273769
 0.825000   -0.010666   0.274390
 0.830000   -0.007927   0.876176
 0.835000   -0.001904   1.603951
 0.840000   0.008112   1.903580
 0.845000   0.017131   1.900067
 0.850000   0.027113   2.060050
 0.855000   0.037732   2.210417
 0.860000   0.049217   2.454741
 0.865000   0.062279   2.759386
 0.870000   0.076811   3.090549
 0.875000   0.093185   3.638341
 0.880000   0.113195   4.485762
 0.885000   0.138042   5.413266
 0.890000   0.167327   6.943329
 0.895000   0.207476   7.868815
 0.900000   0.246015   8.914973
 0.905000   0.296625   10.916635
 0.910000   0.355182   12.658849
 0.915000   0.423214   14.468999
 0.920000   0.499872   18.737217
 0.925000   0.610586   20.390104
 0.930000   0.703773   21.340549
 0.935000   0.823992   25.397334
 0.940000   0.957746   28.482971
 0.945000   1.108821   29.393798
 0.950000   1.251684   29.681802
 0.955000   1.405639   8.580214
 0.960000   1.337486   -29.677668
 0.965000   1.108863   -70.152280
 0.970000   0.635963   -120.686929
 0.975000   -0.098007   -166.426067
 0.980000   -1.028297   -184.028288
 0.985000   -1.938290   -157.433344
 0.990000   -2.602631   -80.109788
 0.995000   -2.739387   27.345443
 1.000000   -2.329176   136.739035
201 psinorm nz1(10^20/m^3) dnz1/dpsiN
 0.000000   0.012867   0.000001
 0.005000   0.012867   0.000048
 0.010000   0.012867   0.000094
 0.015000   0.012868   0.000140
 0.020000   0.012868   0.000185
 0.025000   0.012869   0.000229
 0.030000   0.012871   0.000271
 0.035000   0.012872   0.000310
 0.040000   0.012874   0.000347
 0.045000   0.012876   0.000382
 0.050000   0.012878   0.000412
 0.055000   0.012880   0.000439
 0.060000   0.012882   0.000462
 0.065000   0.012884   0.000480
 0.070000   0.012887   0.000494
 0.075000   0.012889   0.000502
 0.080000   0.012892   0.000505
 0.085000   0.012894   0.000503
 0.090000   0.012897   0.000495
 0.095000   0.012899   0.000481
 0.100000   0.012902   0.000461
 0.105000   0.012904   0.000436
 0.110000   0.012906   0.000404
 0.115000   0.012908   0.000367
 0.120000   0.012910   0.000324
 0.125000   0.012911   0.000274
 0.130000   0.012912   0.000218
 0.135000   0.012913   0.000157
 0.140000   0.012914   0.000090
 0.145000   0.012914   0.000018
 0.150000   0.012914   -0.000060
 0.155000   0.012914   -0.000143
 0.160000   0.012913   -0.000231
 0.165000   0.012911   -0.000323
 0.170000   0.012910   -0.000419
 0.175000   0.012907   -0.000519
 0.180000   0.012904   -0.000622
 0.185000   0.012901   -0.000728
 0.190000   0.012897   -0.000836
 0.195000   0.012893   -0.000946
 0.200000   0.012888   -0.001056
 0.205000   0.012882   -0.001168
 0.210000   0.012876   -0.001279
 0.215000   0.012869   -0.001389
 0.220000   0.012862   -0.001497
 0.225000   0.012854   -0.001602
 0.230000   0.012846   -0.001703
 0.235000   0.012837   -0.001800
 0.240000   0.012828   -0.001890
 0.245000   0.012818   -0.001976
 0.250000   0.012808   -0.002055
 0.255000   0.012798   -0.002129
 0.260000   0.012787   -0.002197
 0.265000   0.012776   -0.002259
 0.270000   0.012764   -0.002315
 0.275000   0.012753   -0.002363
 0.280000   0.012741   -0.002403
 0.285000   0.012729   -0.002435
 0.290000   0.012716   -0.002455
 0.295000   0.012704   -0.002464
 0.300000   0.012692   -0.002461
 0.305000   0.012679   -0.002445
 0.310000   0.012667   -0.002416
 0.315000   0.012655   -0.002373
 0.320000   0.012644   -0.002316
 0.325000   0.012632   -0.002244
 0.330000   0.012621   -0.002159
 0.335000   0.012611   -0.002061
 0.340000   0.012601   -0.001951
 0.345000   0.012591   -0.001828
 0.350000   0.012582   -0.001695
 0.355000   0.012574   -0.001554
 0.360000   0.012567   -0.001405
 0.365000   0.012560   -0.001249
 0.370000   0.012554   -0.001087
 0.375000   0.012549   -0.000919
 0.380000   0.012545   -0.000745
 0.385000   0.012542   -0.000565
 0.390000   0.012539   -0.000378
 0.395000   0.012538   -0.000184
 0.400000   0.012538   0.000019
 0.405000   0.012538   0.000228
 0.410000   0.012540   0.000445
 0.415000   0.012543   0.000668
 0.420000   0.012546   0.000896
 0.425000   0.012552   0.001126
 0.430000   0.012558   0.001357
 0.435000   0.012565   0.001588
 0.440000   0.012574   0.001814
 0.445000   0.012583   0.002035
 0.450000   0.012594   0.002247
 0.455000   0.012606   0.002450
 0.460000   0.012618   0.002640
 0.465000   0.012632   0.002815
 0.470000   0.012647   0.002973
 0.475000   0.012662   0.003116
 0.480000   0.012678   0.003244
 0.485000   0.012694   0.003357
 0.490000   0.012711   0.003454
 0.495000   0.012729   0.003535
 0.500000   0.012747   0.003602
 0.505000   0.012765   0.003657
 0.510000   0.012783   0.003699
 0.515000   0.012802   0.003725
 0.520000   0.012821   0.003733
 0.525000   0.012839   0.003722
 0.530000   0.012858   0.003689
 0.535000   0.012876   0.003633
 0.540000   0.012894   0.003554
 0.545000   0.012912   0.003451
 0.550000   0.012929   0.003325
 0.555000   0.012945   0.003175
 0.560000   0.012960   0.003002
 0.565000   0.012975   0.002806
 0.570000   0.012988   0.002588
 0.575000   0.013001   0.002347
 0.580000   0.013012   0.002084
 0.585000   0.013022   0.001800
 0.590000   0.013030   0.001494
 0.595000   0.013037   0.001167
 0.600000   0.013042   0.000819
 0.605000   0.013045   0.000451
 0.610000   0.013046   0.000063
 0.615000   0.013045   -0.000344
 0.620000   0.013043   -0.000767
 0.625000   0.013038   -0.001207
 0.630000   0.013031   -0.001660
 0.635000   0.013021   -0.002125
 0.640000   0.013009   -0.002601
 0.645000   0.012995   -0.003088
 0.650000   0.012978   -0.003588
 0.655000   0.012959   -0.004102
 0.660000   0.012937   -0.004629
 0.665000   0.012913   -0.005170
 0.670000   0.012886   -0.005722
 0.675000   0.012856   -0.006286
 0.680000   0.012823   -0.006862
 0.685000   0.012787   -0.007444
 0.690000   0.012748   -0.008023
 0.695000   0.012707   -0.008600
 0.700000   0.012662   -0.009187
 0.705000   0.012615   -0.009806
 0.710000   0.012564   -0.010522
 0.715000   0.012510   -0.011376
 0.720000   0.012451   -0.012339
 0.725000   0.012386   -0.013391
 0.730000   0.012317   -0.014533
 0.735000   0.012241   -0.015752
 0.740000   0.012159   -0.017078
 0.745000   0.012070   -0.018467
 0.750000   0.011974   -0.019767
 0.755000   0.011873   -0.020920
 0.760000   0.011765   -0.021914
 0.765000   0.011653   -0.022697
 0.770000   0.011538   -0.023225
 0.775000   0.011421   -0.023432
 0.780000   0.011304   -0.023292
 0.785000   0.011188   -0.022864
 0.790000   0.011075   -0.022197
 0.795000   0.010966   -0.021325
 0.800000   0.010862   -0.020267
 0.805000   0.010764   -0.019042
 0.810000   0.010672   -0.017769
 0.815000   0.010586   -0.016522
 0.820000   0.010506   -0.015298
 0.825000   0.010433   -0.014123
 0.830000   0.010365   -0.013012
 0.835000   0.010303   -0.011979
 0.840000   0.010245   -0.011064
 0.845000   0.010192   -0.010245
 0.850000   0.010143   -0.009466
 0.855000   0.010098   -0.008714
 0.860000   0.010056   -0.007982
 0.865000   0.010018   -0.007273
 0.870000   0.009983   -0.006600
 0.875000   0.009952   -0.005973
 0.880000   0.009923   -0.005403
 0.885000   0.009898   -0.004905
 0.890000   0.009874   -0.004490
 0.895000   0.009853   -0.004189
 0.900000   0.009832   -0.004005
 0.905000   0.009813   -0.003936
 0.910000   0.009793   -0.004025
 0.915000   0.009772   -0.004341
 0.920000   0.009750   -0.005036
 0.925000   0.009722   -0.006541
 0.930000   0.009684   -0.009403
 0.935000   0.009628   -0.014440
 0.940000   0.009540   -0.023022
 0.945000   0.009398   -0.036777
 0.950000   0.009172   -0.057224
 0.955000   0.008826   -0.085817
 0.960000   0.008314   -0.120281
 0.965000   0.007623   -0.154208
 0.970000   0.006772   -0.180219
 0.975000   0.005821   -0.191363
 0.980000   0.004858   -0.184732
 0.985000   0.003973   -0.163310
 0.990000   0.003225   -0.133587
 0.995000   0.002637   -0.102850
 1.000000   0.002197   -0.073490
201 psinorm vtor1(km/s) dvtor1/dpsiN
 0.000000   69.656116   365.610170
 0.005000   71.074306   201.665627
 0.010000   71.672773   105.342042
 0.015000   72.127726   83.101618
 0.020000   72.503789   70.172123
 0.025000   72.829448   61.842732
 0.030000   73.122216   55.909953
 0.035000   73.388547   50.883290
 0.040000   73.631049   46.640051
 0.045000   73.854948   43.205090
 0.050000   74.063100   40.147287
 0.055000   74.256420   37.241169
 0.060000   74.435512   34.612244
 0.065000   74.602543   32.236616
 0.070000   74.757878   29.898463
 0.075000   74.901528   27.666367
 0.080000   75.034541   25.591713
 0.085000   75.157445   23.606367
 0.090000   75.270605   21.630025
 0.095000   75.373745   19.737253
 0.100000   75.467978   17.993092
 0.105000   75.553676   16.295283
 0.110000   75.630931   14.605194
 0.115000   75.699728   12.992109
 0.120000   75.760852   11.437456
 0.125000   75.814102   9.845926
 0.130000   75.859311   8.288122
 0.135000   75.896984   6.747140
 0.140000   75.926782   5.140548
 0.145000   75.948389   3.474281
 0.150000   75.961525   1.764676
 0.155000   75.966036   0.002791
 0.160000   75.961553   -1.841713
 0.165000   75.947619   -3.724713
 0.170000   75.924306   -5.604513
 0.175000   75.891574   -7.509633
 0.180000   75.849210   -9.457577
 0.185000   75.796998   -11.417812
 0.190000   75.735031   -13.377152
 0.195000   75.663226   -15.353429
 0.200000   75.581497   -17.304010
 0.205000   75.490186   -19.194633
 0.210000   75.389551   -21.037748
 0.215000   75.279809   -22.843198
 0.220000   75.161119   -24.577851
 0.225000   75.034030   -26.218024
 0.230000   74.898939   -27.837974
 0.235000   74.755650   -29.464047
 0.240000   74.604298   -31.046538
 0.245000   74.445185   -32.558653
 0.250000   74.278712   -33.967681
 0.255000   74.105508   -35.155036
 0.260000   73.927161   -36.140705
 0.265000   73.744101   -37.009105
 0.270000   73.557070   -37.729590
 0.275000   73.366805   -38.301184
 0.280000   73.174058   -38.733676
 0.285000   72.979468   -38.971271
 0.290000   72.784346   -39.139862
 0.295000   72.588070   -39.339736
 0.300000   72.390948   -39.488555
 0.305000   72.193184   -39.607189
 0.310000   71.994876   -39.711934
 0.315000   71.796065   -39.771669
 0.320000   71.597160   -39.919303
 0.325000   71.396872   -40.235122
 0.330000   71.194808   -40.613256
 0.335000   70.990739   -41.024704
 0.340000   70.784561   -41.420436
 0.345000   70.576535   -41.703651
 0.350000   70.367525   -41.894744
 0.355000   70.157588   -42.112344
 0.360000   69.946401   -42.408253
 0.365000   69.733505   -42.808971
 0.370000   69.518312   -43.343847
 0.375000   69.300067   -44.108888
 0.380000   69.077223   -45.095034
 0.385000   68.849116   -46.195281
 0.390000   68.615270   -47.402659
 0.395000   68.375090   -48.719418
 0.400000   68.128076   -50.103689
 0.405000   67.874053   -51.586489
 0.410000   67.612211   -53.037203
 0.415000   67.343681   -54.239235
 0.420000   67.069819   -55.201215
 0.425000   66.791669   -55.949519
 0.430000   66.510323   -56.474816
 0.435000   66.226920   -56.739003
 0.440000   65.942933   -56.764277
 0.445000   65.659278   -56.806232
 0.450000   65.374871   -57.138124
 0.455000   65.087896   -57.874820
 0.460000   64.796123   -59.071210
 0.465000   64.497184   -60.870477
 0.470000   64.187418   -63.312841
 0.475000   63.864056   -65.974059
 0.480000   63.527678   -68.610920
 0.485000   63.177947   -71.265015
 0.490000   62.815027   -73.840691
 0.495000   62.439540   -76.381078
 0.500000   62.051217   -78.849051
 0.505000   61.651049   -80.716822
 0.510000   61.244048   -81.821065
 0.515000   60.832839   -82.391623
 0.520000   60.420132   -82.421262
 0.525000   60.008626   -81.928237
 0.530000   59.600850   -80.927262
 0.535000   59.199353   -79.489543
 0.540000   58.805954   -77.876815
 0.545000   58.420585   -76.330018
 0.550000   58.042654   -74.931302
 0.555000   57.671272   -73.741789
 0.560000   57.305236   -72.845490
 0.565000   56.942817   -72.247316
 0.570000   56.582763   -71.965957
 0.575000   56.223158   -72.093976
 0.580000   55.861823   -72.678793
 0.585000   55.496370   -73.775478
 0.590000   55.124069   -75.484796
 0.595000   54.741522   -77.796161
 0.600000   54.346107   -80.702392
 0.605000   53.934498   -84.286204
 0.610000   53.503245   -88.571171
 0.615000   53.048786   -93.570435
 0.620000   52.567541   -99.284249
 0.625000   52.055944   -105.495683
 0.630000   51.512584   -111.951530
 0.635000   50.936428   -118.544992
 0.640000   50.327134   -125.126825
 0.645000   49.685160   -131.535521
 0.650000   49.011779   -137.340637
 0.655000   48.311754   -142.527098
 0.660000   47.586508   -147.334893
 0.665000   46.838405   -151.609016
 0.670000   46.070417   -155.283995
 0.675000   45.285565   -158.375635
 0.680000   44.486661   -160.689264
 0.685000   43.678672   -162.775931
 0.690000   42.858902   -165.401521
 0.695000   42.024657   -168.531893
 0.700000   41.173583   -172.186614
 0.705000   40.302791   -176.429865
 0.710000   39.409284   -181.460773
 0.715000   38.488183   -186.804087
 0.720000   37.541243   -191.309351
 0.725000   36.575090   -194.484575
 0.730000   35.596398   -196.238264
 0.735000   34.612707   -196.435101
 0.740000   33.632047   -194.964557
 0.745000   32.663062   -191.672970
 0.750000   31.715317   -186.657864
 0.755000   30.796483   -180.223573
 0.760000   29.913081   -172.643134
 0.765000   29.070052   -164.250186
 0.770000   28.270579   -155.361747
 0.775000   27.516434   -146.396930
 0.780000   26.806610   -137.680075
 0.785000   26.139633   -129.164981
 0.790000   25.514960   -120.762053
 0.795000   24.932013   -112.469100
 0.800000   24.390269   -104.307877
 0.805000   23.888934   -96.181995
 0.810000   23.428449   -87.840728
 0.815000   23.010527   -79.404726
 0.820000   22.634402   -71.294939
 0.825000   22.297577   -63.842832
 0.830000   21.995974   -57.339538
 0.835000   21.724182   -52.019390
 0.840000   21.475780   -48.070213
 0.845000   21.243480   -45.611167
 0.850000   21.019668   -44.718012
 0.855000   20.796300   -45.477340
 0.860000   20.564895   -47.986886
 0.865000   20.316431   -52.530745
 0.870000   20.039587   -59.477090
 0.875000   19.721660   -69.171434
 0.880000   19.347873   -82.063252
 0.885000   18.901027   -98.664510
 0.890000   18.361228   -119.532338
 0.895000   17.705704   -146.091006
 0.900000   16.900318   -177.902753
 0.905000   15.926677   -214.007753
 0.910000   14.760240   -254.726481
 0.915000   13.379412   -299.103349
 0.920000   11.769207   -345.339005
 0.925000   9.926022   -392.718935
 0.930000   7.842017   -435.563670
 0.935000   5.570385   -466.396332
 0.940000   3.178054   -480.996783
 0.945000   0.760417   -473.821283
 0.950000   -1.560159   -440.399464
 0.955000   -3.643578   -379.097616
 0.960000   -5.351135   -290.661209
 0.965000   -6.550190   -180.895071
 0.970000   -7.160086   -60.775802
 0.975000   -7.157948   57.697522
 0.980000   -6.583110   162.515007
 0.985000   -5.532798   242.846733
 0.990000   -4.154643   292.003930
 0.995000   -2.612758   309.119954
 1.000000   -1.063444   310.605921
201 psinorm vpol1(km/s) dvpol1/dpsiN
 0.000000   -0.000088   3.087695
 0.005000   0.016662   3.612305
 0.010000   0.036035   4.131445
 0.015000   0.057977   4.608594
 0.020000   0.082121   5.008398
 0.025000   0.108061   5.314648
 0.030000   0.135268   5.492578
 0.035000   0.162986   5.577148
 0.040000   0.191039   5.629883
 0.045000   0.219285   5.666016
 0.050000   0.247699   5.723828
 0.055000   0.276523   5.850586
 0.060000   0.306205   6.076172
 0.065000   0.337285   6.394336
 0.070000   0.370148   6.775391
 0.075000   0.405039   7.208789
 0.080000   0.442236   7.696289
 0.085000   0.482002   8.224023
 0.090000   0.524477   8.752539
 0.095000   0.569527   9.226562
 0.100000   0.616742   9.614258
 0.105000   0.665670   9.910156
 0.110000   0.715844   10.101367
 0.115000   0.766684   10.148242
 0.120000   0.817326   10.040820
 0.125000   0.867092   9.839062
 0.130000   0.915717   9.597266
 0.135000   0.963064   9.337109
 0.140000   1.009088   9.086523
 0.145000   1.053930   8.871484
 0.150000   1.097803   8.724805
 0.155000   1.141178   8.639844
 0.160000   1.184201   8.558203
 0.165000   1.226760   8.455273
 0.170000   1.268754   8.323047
 0.175000   1.309990   8.150391
 0.180000   1.350258   7.925391
 0.185000   1.389244   7.634180
 0.190000   1.426600   7.251758
 0.195000   1.461762   6.781641
 0.200000   1.494416   6.243359
 0.205000   1.524195   5.616797
 0.210000   1.550584   4.960547
 0.215000   1.573801   4.340039
 0.220000   1.593984   3.761328
 0.225000   1.611414   3.234570
 0.230000   1.626330   2.760352
 0.235000   1.639018   2.343359
 0.240000   1.649764   1.986914
 0.245000   1.658887   1.652344
 0.250000   1.666287   1.296094
 0.255000   1.671848   0.912695
 0.260000   1.675414   0.492187
 0.265000   1.676770   0.034961
 0.270000   1.675764   -0.461328
 0.275000   1.672156   -0.986719
 0.280000   1.665896   -1.523437
 0.285000   1.656922   -2.071484
 0.290000   1.645182   -2.616211
 0.295000   1.630760   -3.158008
 0.300000   1.613602   -3.687695
 0.305000   1.593883   -4.229102
 0.310000   1.571311   -4.799414
 0.315000   1.545889   -5.389258
 0.320000   1.517418   -6.029492
 0.325000   1.485594   -6.731836
 0.330000   1.450100   -7.493359
 0.335000   1.410660   -8.308594
 0.340000   1.367014   -9.177344
 0.345000   1.318887   -10.080859
 0.350000   1.266205   -10.973242
 0.355000   1.209154   -11.783984
 0.360000   1.148365   -12.473047
 0.365000   1.084424   -13.041797
 0.370000   1.017947   -13.483203
 0.375000   0.949592   -13.779687
 0.380000   0.880150   -13.870117
 0.385000   0.810891   -13.846484
 0.390000   0.741686   -13.822656
 0.395000   0.672664   -13.783008
 0.400000   0.603855   -13.763477
 0.405000   0.535029   -13.808203
 0.410000   0.465773   -13.959375
 0.415000   0.395436   -14.226367
 0.420000   0.323510   -14.546680
 0.425000   0.249969   -14.889844
 0.430000   0.174611   -15.286719
 0.435000   0.097102   -15.859766
 0.440000   0.016014   -16.970312
 0.445000   -0.072602   -18.695898
 0.450000   -0.170945   -20.885742
 0.455000   -0.281459   -23.541992
 0.460000   -0.406365   -26.605273
 0.465000   -0.547512   -30.103516
 0.470000   -0.707400   -33.963867
 0.475000   -0.887150   -37.609180
 0.480000   -1.083492   -40.725195
 0.485000   -1.294402   -43.355273
 0.490000   -1.517045   -45.330859
 0.495000   -1.747711   -46.410352
 0.500000   -1.981148   -46.289062
 0.505000   -2.210602   -45.063672
 0.510000   -2.431785   -43.034570
 0.515000   -2.640947   -40.326953
 0.520000   -2.835055   -37.121484
 0.525000   -3.012162   -33.366992
 0.530000   -3.168725   -29.513867
 0.535000   -3.307301   -26.320508
 0.540000   -3.431930   -23.877734
 0.545000   -3.546078   -22.202930
 0.550000   -3.653959   -21.400781
 0.555000   -3.760086   -21.581836
 0.560000   -3.869777   -22.456250
 0.565000   -3.984648   -23.485352
 0.570000   -4.104631   -24.481250
 0.575000   -4.229461   -25.371680
 0.580000   -4.358348   -26.063281
 0.585000   -4.490094   -26.553711
 0.590000   -4.623885   -26.567383
 0.595000   -4.755768   -25.933594
 0.600000   -4.883221   -24.837109
 0.605000   -5.004139   -23.329883
 0.610000   -5.116520   -21.467383
 0.615000   -5.218813   -19.254688
 0.620000   -5.309066   -16.887305
 0.625000   -5.387686   -14.597461
 0.630000   -5.455041   -12.421680
 0.635000   -5.511902   -10.430469
 0.640000   -5.559346   -8.647266
 0.645000   -5.598375   -7.080859
 0.650000   -5.630154   -5.812109
 0.655000   -5.656496   -4.809766
 0.660000   -5.678252   -3.966797
 0.665000   -5.696164   -3.218750
 0.670000   -5.710439   -2.514453
 0.675000   -5.721309   -1.836914
 0.680000   -5.728809   -1.166797
 0.685000   -5.732977   -0.509961
 0.690000   -5.733908   0.139844
 0.695000   -5.731578   0.806836
 0.700000   -5.725840   1.537305
 0.705000   -5.716205   2.415625
 0.710000   -5.701684   3.509570
 0.715000   -5.681109   4.848047
 0.720000   -5.653203   6.448047
 0.725000   -5.616629   8.310547
 0.730000   -5.570098   10.457031
 0.735000   -5.512059   12.744922
 0.740000   -5.442648   14.911328
 0.745000   -5.362945   16.817578
 0.750000   -5.274473   18.344141
 0.755000   -5.179504   19.364062
 0.760000   -5.080832   19.691016
 0.765000   -4.982594   19.298047
 0.770000   -4.887852   18.370313
 0.775000   -4.798891   17.047656
 0.780000   -4.717375   15.489844
 0.785000   -4.643992   13.882422
 0.790000   -4.578551   12.356641
 0.795000   -4.520426   11.186328
 0.800000   -4.466687   10.437500
 0.805000   -4.416051   9.883984
 0.810000   -4.367848   9.404688
 0.815000   -4.322004   8.844531
 0.820000   -4.279402   8.042578
 0.825000   -4.241578   6.773828
 0.830000   -4.211664   4.963281
 0.835000   -4.191945   2.737500
 0.840000   -4.184289   0.185937
 0.845000   -4.190086   -2.545703
 0.850000   -4.209746   -5.241797
 0.855000   -4.242504   -7.729688
 0.860000   -4.287043   -9.916406
 0.865000   -4.341668   -11.748047
 0.870000   -4.404523   -13.217969
 0.875000   -4.473848   -14.314844
 0.880000   -4.547672   -15.113672
 0.885000   -4.624984   -15.832617
 0.890000   -4.705998   -16.576367
 0.895000   -4.790748   -17.373242
 0.900000   -4.879730   -18.295898
 0.905000   -4.973707   -19.441406
 0.910000   -5.074145   -20.863281
 0.915000   -5.182340   -22.437891
 0.920000   -5.298523   -24.092383
 0.925000   -5.423264   -25.903125
 0.930000   -5.557555   -27.977148
 0.935000   -5.703035   -30.981445
 0.940000   -5.867369   -35.123828
 0.945000   -6.054273   -38.905664
 0.950000   -6.256426   -39.978516
 0.955000   -6.454059   -34.775391
 0.960000   -6.604180   -17.452930
 0.965000   -6.628588   21.202148
 0.970000   -6.392158   91.013477
 0.975000   -5.718453   193.756445
 0.980000   -4.454594   316.779492
 0.985000   -2.550658   430.230078
 0.990000   -0.152293   491.559766
 0.995000   2.364939   462.660156
 1.000000   4.474309   381.087500
3 N Z A of ION SPECIES
 6.000000   6.000000   12.010700
 1.000000   1.000000   2.000000
 1.000000   1.000000   2.000000
