201 psinorm ne(10^20/m^3) dne/dpsiN
 0.000000   0.799674   -0.315564
 0.005000   0.798096   -0.315598
 0.010000   0.796518   -0.315631
 0.015000   0.794940   -0.315661
 0.020000   0.793361   -0.315688
 0.025000   0.791783   -0.315713
 0.030000   0.790204   -0.315735
 0.035000   0.788626   -0.315754
 0.040000   0.787047   -0.315771
 0.045000   0.785468   -0.315785
 0.050000   0.783889   -0.315797
 0.055000   0.782310   -0.315805
 0.060000   0.780731   -0.315812
 0.065000   0.779152   -0.315815
 0.070000   0.777573   -0.315816
 0.075000   0.775994   -0.315815
 0.080000   0.774415   -0.315810
 0.085000   0.772835   -0.315804
 0.090000   0.771256   -0.315794
 0.095000   0.769678   -0.315782
 0.100000   0.768099   -0.315768
 0.105000   0.766520   -0.315751
 0.110000   0.764941   -0.315731
 0.115000   0.763363   -0.315709
 0.120000   0.761784   -0.315684
 0.125000   0.760206   -0.315656
 0.130000   0.758627   -0.315627
 0.135000   0.757049   -0.315594
 0.140000   0.755472   -0.315559
 0.145000   0.753894   -0.315522
 0.150000   0.752316   -0.315482
 0.155000   0.750739   -0.315439
 0.160000   0.749162   -0.315394
 0.165000   0.747585   -0.315347
 0.170000   0.746008   -0.315297
 0.175000   0.744432   -0.315244
 0.180000   0.742856   -0.315189
 0.185000   0.741280   -0.315132
 0.190000   0.739705   -0.315072
 0.195000   0.738130   -0.315009
 0.200000   0.736555   -0.314944
 0.205000   0.734980   -0.314877
 0.210000   0.733406   -0.314807
 0.215000   0.731832   -0.314735
 0.220000   0.730258   -0.314660
 0.225000   0.728685   -0.314583
 0.230000   0.727113   -0.314504
 0.235000   0.725540   -0.314422
 0.240000   0.723968   -0.314337
 0.245000   0.722397   -0.314251
 0.250000   0.720826   -0.314162
 0.255000   0.719255   -0.314070
 0.260000   0.717685   -0.313976
 0.265000   0.716116   -0.313880
 0.270000   0.714546   -0.313781
 0.275000   0.712978   -0.313680
 0.280000   0.711410   -0.313577
 0.285000   0.709842   -0.313471
 0.290000   0.708275   -0.313363
 0.295000   0.706708   -0.313252
 0.300000   0.705142   -0.313139
 0.305000   0.703577   -0.313024
 0.310000   0.702012   -0.312907
 0.315000   0.700448   -0.312787
 0.320000   0.698884   -0.312665
 0.325000   0.697321   -0.312541
 0.330000   0.695759   -0.312414
 0.335000   0.694197   -0.312285
 0.340000   0.692636   -0.312154
 0.345000   0.691076   -0.312020
 0.350000   0.689516   -0.311884
 0.355000   0.687957   -0.311746
 0.360000   0.686398   -0.311606
 0.365000   0.684841   -0.311463
 0.370000   0.683284   -0.311319
 0.375000   0.681728   -0.311172
 0.380000   0.680172   -0.311022
 0.385000   0.678617   -0.310871
 0.390000   0.677063   -0.310717
 0.395000   0.675510   -0.310561
 0.400000   0.673958   -0.310403
 0.405000   0.672406   -0.310243
 0.410000   0.670855   -0.310081
 0.415000   0.669305   -0.309916
 0.420000   0.667756   -0.309749
 0.425000   0.666208   -0.309580
 0.430000   0.664660   -0.309409
 0.435000   0.663114   -0.309236
 0.440000   0.661568   -0.309060
 0.445000   0.660023   -0.308883
 0.450000   0.658479   -0.308703
 0.455000   0.656936   -0.308521
 0.460000   0.655394   -0.308337
 0.465000   0.653853   -0.308151
 0.470000   0.652312   -0.307963
 0.475000   0.650773   -0.307773
 0.480000   0.649235   -0.307580
 0.485000   0.647697   -0.307386
 0.490000   0.646161   -0.307190
 0.495000   0.644625   -0.306991
 0.500000   0.643091   -0.306790
 0.505000   0.641557   -0.306588
 0.510000   0.640025   -0.306383
 0.515000   0.638494   -0.306176
 0.520000   0.636963   -0.305968
 0.525000   0.635434   -0.305757
 0.530000   0.633906   -0.305544
 0.535000   0.632379   -0.305329
 0.540000   0.630852   -0.305113
 0.545000   0.629327   -0.304894
 0.550000   0.627803   -0.304673
 0.555000   0.626281   -0.304450
 0.560000   0.624759   -0.304226
 0.565000   0.623238   -0.303999
 0.570000   0.621719   -0.303770
 0.575000   0.620201   -0.303540
 0.580000   0.618684   -0.303307
 0.585000   0.617168   -0.303073
 0.590000   0.615653   -0.302836
 0.595000   0.614139   -0.302597
 0.600000   0.612627   -0.302357
 0.605000   0.611116   -0.302115
 0.610000   0.609606   -0.301870
 0.615000   0.608097   -0.301624
 0.620000   0.606589   -0.301375
 0.625000   0.605083   -0.301124
 0.630000   0.603578   -0.300871
 0.635000   0.602075   -0.300616
 0.640000   0.600572   -0.300359
 0.645000   0.599071   -0.300099
 0.650000   0.597571   -0.299836
 0.655000   0.596073   -0.299571
 0.660000   0.594575   -0.299302
 0.665000   0.593080   -0.299030
 0.670000   0.591585   -0.298754
 0.675000   0.590092   -0.298473
 0.680000   0.588600   -0.298187
 0.685000   0.587110   -0.297895
 0.690000   0.585621   -0.297595
 0.695000   0.584134   -0.297287
 0.700000   0.582649   -0.296967
 0.705000   0.581165   -0.296635
 0.710000   0.579682   -0.296286
 0.715000   0.578202   -0.295918
 0.720000   0.576723   -0.295524
 0.725000   0.575246   -0.295100
 0.730000   0.573772   -0.294636
 0.735000   0.572300   -0.294125
 0.740000   0.570831   -0.293554
 0.745000   0.569365   -0.292906
 0.750000   0.567902   -0.292165
 0.755000   0.566443   -0.291305
 0.760000   0.564989   -0.290298
 0.765000   0.563540   -0.289105
 0.770000   0.562098   -0.287682
 0.775000   0.560663   -0.285970
 0.780000   0.559238   -0.283900
 0.785000   0.557824   -0.281384
 0.790000   0.556424   -0.278314
 0.795000   0.555041   -0.274557
 0.800000   0.553679   -0.269953
 0.805000   0.552341   -0.264305
 0.810000   0.551035   -0.257373
 0.815000   0.549768   -0.248870
 0.820000   0.548547   -0.238453
 0.825000   0.547383   -0.225715
 0.830000   0.546290   -0.210176
 0.835000   0.545281   -0.191285
 0.840000   0.544377   -0.168409
 0.845000   0.543597   -0.140850
 0.850000   0.542968   -0.107855
 0.855000   0.542519   -0.068656
 0.860000   0.542282   -0.022537
 0.865000   0.542293   0.031052
 0.870000   0.542592   0.092314
 0.875000   0.543217   0.160820
 0.880000   0.544200   0.235066
 0.885000   0.545567   0.311831
 0.890000   0.547319   0.385228
 0.895000   0.549419   0.445392
 0.900000   0.551773   0.476751
 0.905000   0.554187   0.455941
 0.910000   0.556332   0.349695
 0.915000   0.557684   0.113586
 0.920000   0.557468   -0.306654
 0.925000   0.554617   -0.968490
 0.930000   0.547783   -1.917415
 0.935000   0.535443   -3.161880
 0.940000   0.516164   -4.643127
 0.945000   0.489012   -6.214740
 0.950000   0.454017   -7.653770
 0.955000   0.412474   -8.716509
 0.960000   0.366852   -9.222911
 0.965000   0.320245   -9.124304
 0.970000   0.275609   -8.512279
 0.975000   0.235122   -7.566917
 0.980000   0.199940   -6.482314
 0.985000   0.170299   -5.411385
 0.990000   0.145826   -4.446268
 0.995000   0.125837   -3.625725
 1.000000   0.109568   -2.881528
201 psinorm te(KeV) dte/dpsiN
 0.000000   4.045405   -3.247967
 0.005000   4.029130   -3.261980
 0.010000   4.012785   -3.275854
 0.015000   3.996371   -3.289451
 0.020000   3.979890   -3.302770
 0.025000   3.963344   -3.315811
 0.030000   3.946732   -3.328575
 0.035000   3.930058   -3.341060
 0.040000   3.913322   -3.353267
 0.045000   3.896525   -3.365196
 0.050000   3.879670   -3.376847
 0.055000   3.862757   -3.388219
 0.060000   3.845788   -3.399314
 0.065000   3.828764   -3.410130
 0.070000   3.811686   -3.420669
 0.075000   3.794557   -3.430929
 0.080000   3.777377   -3.440912
 0.085000   3.760148   -3.450618
 0.090000   3.742871   -3.460047
 0.095000   3.725547   -3.469199
 0.100000   3.708179   -3.478075
 0.105000   3.690767   -3.486675
 0.110000   3.673312   -3.495000
 0.115000   3.655817   -3.503049
 0.120000   3.638282   -3.510824
 0.125000   3.620708   -3.518325
 0.130000   3.603098   -3.525553
 0.135000   3.585453   -3.532507
 0.140000   3.567773   -3.539190
 0.145000   3.550061   -3.545601
 0.150000   3.532317   -3.551741
 0.155000   3.514543   -3.557611
 0.160000   3.496741   -3.563211
 0.165000   3.478911   -3.568543
 0.170000   3.461056   -3.573608
 0.175000   3.443175   -3.578405
 0.180000   3.425272   -3.582936
 0.185000   3.407346   -3.587203
 0.190000   3.389400   -3.591205
 0.195000   3.371434   -3.594945
 0.200000   3.353450   -3.598422
 0.205000   3.335450   -3.601638
 0.210000   3.317434   -3.604594
 0.215000   3.299404   -3.607292
 0.220000   3.281361   -3.609731
 0.225000   3.263306   -3.611914
 0.230000   3.245242   -3.613842
 0.235000   3.227168   -3.615516
 0.240000   3.209087   -3.616936
 0.245000   3.190999   -3.618106
 0.250000   3.172905   -3.619024
 0.255000   3.154808   -3.619694
 0.260000   3.136709   -3.620116
 0.265000   3.118607   -3.620292
 0.270000   3.100506   -3.620223
 0.275000   3.082405   -3.619911
 0.280000   3.064306   -3.619356
 0.285000   3.046211   -3.618561
 0.290000   3.028121   -3.617527
 0.295000   3.010036   -3.616256
 0.300000   2.991958   -3.614749
 0.305000   2.973889   -3.613007
 0.310000   2.955828   -3.611032
 0.315000   2.937778   -3.608827
 0.320000   2.919740   -3.606392
 0.325000   2.901714   -3.603729
 0.330000   2.883703   -3.600839
 0.335000   2.865706   -3.597726
 0.340000   2.847725   -3.594389
 0.345000   2.829762   -3.590832
 0.350000   2.811817   -3.587055
 0.355000   2.793892   -3.583060
 0.360000   2.775987   -3.578850
 0.365000   2.758103   -3.574426
 0.370000   2.740242   -3.569790
 0.375000   2.722405   -3.564944
 0.380000   2.704593   -3.559889
 0.385000   2.686806   -3.554628
 0.390000   2.669047   -3.549162
 0.395000   2.651315   -3.543493
 0.400000   2.633612   -3.537623
 0.405000   2.615938   -3.531555
 0.410000   2.598296   -3.525290
 0.415000   2.580686   -3.518829
 0.420000   2.563108   -3.512176
 0.425000   2.545564   -3.505332
 0.430000   2.528054   -3.498299
 0.435000   2.510581   -3.491078
 0.440000   2.493144   -3.483673
 0.445000   2.475744   -3.476085
 0.450000   2.458383   -3.468316
 0.455000   2.441061   -3.460368
 0.460000   2.423779   -3.452243
 0.465000   2.406538   -3.443944
 0.470000   2.389340   -3.435471
 0.475000   2.372184   -3.426829
 0.480000   2.355071   -3.418018
 0.485000   2.338004   -3.409040
 0.490000   2.320981   -3.399899
 0.495000   2.304005   -3.390595
 0.500000   2.287075   -3.381131
 0.505000   2.270193   -3.371509
 0.510000   2.253360   -3.361732
 0.515000   2.236576   -3.351801
 0.520000   2.219842   -3.341719
 0.525000   2.203159   -3.331487
 0.530000   2.186527   -3.321109
 0.535000   2.169948   -3.310585
 0.540000   2.153421   -3.299919
 0.545000   2.136948   -3.289112
 0.550000   2.120530   -3.278166
 0.555000   2.104167   -3.267084
 0.560000   2.087859   -3.255869
 0.565000   2.071608   -3.244521
 0.570000   2.055414   -3.233044
 0.575000   2.039278   -3.221439
 0.580000   2.023200   -3.209708
 0.585000   2.007181   -3.197855
 0.590000   1.991221   -3.185881
 0.595000   1.975322   -3.173788
 0.600000   1.959483   -3.161578
 0.605000   1.943706   -3.149255
 0.610000   1.927991   -3.136819
 0.615000   1.912338   -3.124273
 0.620000   1.896748   -3.111620
 0.625000   1.881222   -3.098862
 0.630000   1.865759   -3.086000
 0.635000   1.850362   -3.073038
 0.640000   1.835029   -3.059977
 0.645000   1.819762   -3.046821
 0.650000   1.804561   -3.033571
 0.655000   1.789426   -3.020229
 0.660000   1.774358   -3.006800
 0.665000   1.759358   -2.993284
 0.670000   1.744426   -2.979685
 0.675000   1.729561   -2.966005
 0.680000   1.714766   -2.952248
 0.685000   1.700039   -2.938417
 0.690000   1.685381   -2.924515
 0.695000   1.670794   -2.910545
 0.700000   1.656276   -2.896512
 0.705000   1.641829   -2.882421
 0.710000   1.627452   -2.868275
 0.715000   1.613146   -2.854081
 0.720000   1.598911   -2.839844
 0.725000   1.584747   -2.825573
 0.730000   1.570655   -2.811276
 0.735000   1.556635   -2.796963
 0.740000   1.542686   -2.782645
 0.745000   1.528808   -2.768338
 0.750000   1.515002   -2.754058
 0.755000   1.501268   -2.739827
 0.760000   1.487604   -2.725669
 0.765000   1.474011   -2.711618
 0.770000   1.460488   -2.697711
 0.775000   1.447034   -2.683998
 0.780000   1.433648   -2.670538
 0.785000   1.420328   -2.657406
 0.790000   1.407074   -2.644698
 0.795000   1.393881   -2.632531
 0.800000   1.380748   -2.621055
 0.805000   1.367671   -2.610458
 0.810000   1.354644   -2.600980
 0.815000   1.341661   -2.592922
 0.820000   1.328715   -2.586669
 0.825000   1.315794   -2.582709
 0.830000   1.302888   -2.581665
 0.835000   1.289978   -2.584327
 0.840000   1.277044   -2.591708
 0.845000   1.264061   -2.605095
 0.850000   1.250993   -2.626132
 0.855000   1.237799   -2.656917
 0.860000   1.224424   -2.700119
 0.865000   1.210798   -2.759135
 0.870000   1.196833   -2.838273
 0.875000   1.182415   -2.942979
 0.880000   1.167403   -3.080098
 0.885000   1.151614   -3.258176
 0.890000   1.134821   -3.487770
 0.895000   1.116737   -3.781742
 0.900000   1.097004   -4.155450
 0.905000   1.075182   -4.626711
 0.910000   1.050737   -5.215319
 0.915000   1.023029   -5.941783
 0.920000   0.991319   -6.824831
 0.925000   0.954781   -7.877099
 0.930000   0.912548   -9.098460
 0.935000   0.863796   -10.466803
 0.940000   0.807880   -11.927017
 0.945000   0.744526   -13.380856
 0.950000   0.674071   -14.682940
 0.955000   0.597697   -15.650448
 0.960000   0.517567   -16.093231
 0.965000   0.436764   -15.864007
 0.970000   0.358927   -14.914597
 0.975000   0.287618   -13.331269
 0.980000   0.225614   -11.323571
 0.985000   0.174383   -9.163848
 0.990000   0.133976   -7.105584
 0.995000   0.103327   -5.321474
 1.000000   0.080761   -3.704878
201 psinorm ni(10^20/m^3) dni/dpsiN
 0.000000   0.445480   -0.391004
 0.005000   0.443608   -0.358131
 0.010000   0.441899   -0.326420
 0.015000   0.440343   -0.297408
 0.020000   0.438925   -0.271105
 0.025000   0.437632   -0.247369
 0.030000   0.436451   -0.226034
 0.035000   0.435372   -0.206804
 0.040000   0.434383   -0.189717
 0.045000   0.433475   -0.173953
 0.050000   0.432644   -0.159818
 0.055000   0.431877   -0.147423
 0.060000   0.431170   -0.136618
 0.065000   0.430511   -0.127158
 0.070000   0.429898   -0.118896
 0.075000   0.429322   -0.112293
 0.080000   0.428775   -0.106531
 0.085000   0.428256   -0.101632
 0.090000   0.427759   -0.097773
 0.095000   0.427279   -0.094721
 0.100000   0.426812   -0.092432
 0.105000   0.426354   -0.090960
 0.110000   0.425902   -0.090202
 0.115000   0.425452   -0.089979
 0.120000   0.425002   -0.090303
 0.125000   0.424549   -0.091158
 0.130000   0.424091   -0.092497
 0.135000   0.423624   -0.094261
 0.140000   0.423148   -0.096383
 0.145000   0.422660   -0.098863
 0.150000   0.422159   -0.101745
 0.155000   0.421643   -0.104987
 0.160000   0.421109   -0.108513
 0.165000   0.420558   -0.112302
 0.170000   0.419986   -0.116344
 0.175000   0.419394   -0.120619
 0.180000   0.418780   -0.125278
 0.185000   0.418142   -0.130237
 0.190000   0.417478   -0.135221
 0.195000   0.416789   -0.140268
 0.200000   0.416075   -0.145423
 0.205000   0.415335   -0.150638
 0.210000   0.414569   -0.155887
 0.215000   0.413776   -0.161156
 0.220000   0.412957   -0.166492
 0.225000   0.412111   -0.172032
 0.230000   0.411237   -0.177553
 0.235000   0.410336   -0.182958
 0.240000   0.409407   -0.188462
 0.245000   0.408451   -0.194081
 0.250000   0.407467   -0.199826
 0.255000   0.406453   -0.205952
 0.260000   0.405407   -0.212205
 0.265000   0.404331   -0.218337
 0.270000   0.403224   -0.224601
 0.275000   0.402085   -0.230987
 0.280000   0.400914   -0.237610
 0.285000   0.399709   -0.244361
 0.290000   0.398470   -0.250965
 0.295000   0.397199   -0.257449
 0.300000   0.395896   -0.263864
 0.305000   0.394560   -0.270276
 0.310000   0.393193   -0.276569
 0.315000   0.391795   -0.282549
 0.320000   0.390367   -0.288298
 0.325000   0.388912   -0.293903
 0.330000   0.387428   -0.299465
 0.335000   0.385917   -0.304896
 0.340000   0.384379   -0.310137
 0.345000   0.382816   -0.315335
 0.350000   0.381226   -0.320485
 0.355000   0.379611   -0.325498
 0.360000   0.377971   -0.330277
 0.365000   0.376308   -0.334796
 0.370000   0.374623   -0.339049
 0.375000   0.372918   -0.342992
 0.380000   0.371193   -0.346525
 0.385000   0.369452   -0.349599
 0.390000   0.367697   -0.352226
 0.395000   0.365930   -0.354369
 0.400000   0.364154   -0.355987
 0.405000   0.362370   -0.357012
 0.410000   0.360583   -0.357488
 0.415000   0.358795   -0.357546
 0.420000   0.357008   -0.357234
 0.425000   0.355223   -0.356573
 0.430000   0.353442   -0.355588
 0.435000   0.351667   -0.354292
 0.440000   0.349899   -0.352711
 0.445000   0.348140   -0.350822
 0.450000   0.346391   -0.348544
 0.455000   0.344655   -0.345794
 0.460000   0.342933   -0.342477
 0.465000   0.341230   -0.338538
 0.470000   0.339548   -0.333915
 0.475000   0.337891   -0.328541
 0.480000   0.336262   -0.322433
 0.485000   0.334666   -0.315649
 0.490000   0.333106   -0.308243
 0.495000   0.331584   -0.300260
 0.500000   0.330103   -0.291767
 0.505000   0.328666   -0.282871
 0.510000   0.327275   -0.273660
 0.515000   0.325930   -0.264189
 0.520000   0.324633   -0.254508
 0.525000   0.323385   -0.244671
 0.530000   0.322186   -0.234728
 0.535000   0.321037   -0.224640
 0.540000   0.319940   -0.214352
 0.545000   0.318894   -0.203854
 0.550000   0.317901   -0.193116
 0.555000   0.316963   -0.182122
 0.560000   0.316080   -0.170887
 0.565000   0.315254   -0.159478
 0.570000   0.314485   -0.147959
 0.575000   0.313774   -0.136375
 0.580000   0.313121   -0.124769
 0.585000   0.312526   -0.113176
 0.590000   0.311990   -0.101614
 0.595000   0.311510   -0.090083
 0.600000   0.311089   -0.078582
 0.605000   0.310725   -0.067124
 0.610000   0.310417   -0.055729
 0.615000   0.310167   -0.044405
 0.620000   0.309973   -0.033134
 0.625000   0.309836   -0.022013
 0.630000   0.309753   -0.011141
 0.635000   0.309724   -0.000530
 0.640000   0.309748   0.009804
 0.645000   0.309823   0.019852
 0.650000   0.309947   0.030183
 0.655000   0.310124   0.041959
 0.660000   0.310366   0.055974
 0.665000   0.310684   0.072532
 0.670000   0.311091   0.091615
 0.675000   0.311600   0.112988
 0.680000   0.312221   0.137833
 0.685000   0.312979   0.164528
 0.690000   0.313867   0.189873
 0.695000   0.314877   0.213631
 0.700000   0.316003   0.235405
 0.705000   0.317231   0.254368
 0.710000   0.318547   0.270261
 0.715000   0.319934   0.281302
 0.720000   0.321360   0.285865
 0.725000   0.322793   0.284618
 0.730000   0.324206   0.278015
 0.735000   0.325573   0.266317
 0.740000   0.326869   0.249090
 0.745000   0.328064   0.226765
 0.750000   0.329137   0.202198
 0.755000   0.330086   0.177193
 0.760000   0.330909   0.152213
 0.765000   0.331608   0.128130
 0.770000   0.332190   0.105217
 0.775000   0.332660   0.084455
 0.780000   0.333034   0.067564
 0.785000   0.333336   0.054364
 0.790000   0.333578   0.043875
 0.795000   0.333774   0.035645
 0.800000   0.333934   0.029072
 0.805000   0.334065   0.023480
 0.810000   0.334169   0.018657
 0.815000   0.334252   0.015079
 0.820000   0.334320   0.013356
 0.825000   0.334385   0.014050
 0.830000   0.334461   0.017752
 0.835000   0.334563   0.025065
 0.840000   0.334711   0.036833
 0.845000   0.334931   0.053959
 0.850000   0.335251   0.077339
 0.855000   0.335704   0.108010
 0.860000   0.336331   0.146951
 0.865000   0.337174   0.195143
 0.870000   0.338282   0.252573
 0.875000   0.339700   0.318489
 0.880000   0.341467   0.391789
 0.885000   0.343618   0.469705
 0.890000   0.346164   0.546942
 0.895000   0.349087   0.615695
 0.900000   0.352321   0.661181
 0.905000   0.355699   0.661681
 0.910000   0.358938   0.588813
 0.915000   0.361587   0.404144
 0.920000   0.362979   0.062770
 0.925000   0.362215   -0.468879
 0.930000   0.358291   -1.215357
 0.935000   0.350061   -2.164832
 0.940000   0.336642   -3.227930
 0.945000   0.317782   -4.243949
 0.950000   0.294203   -5.011437
 0.955000   0.267667   -5.341155
 0.960000   0.240791   -5.231141
 0.965000   0.215356   -4.847567
 0.970000   0.192316   -4.362558
 0.975000   0.171730   -3.911737
 0.980000   0.153198   -3.535695
 0.985000   0.136373   -3.205914
 0.990000   0.121139   -2.885182
 0.995000   0.107522   -2.555327
 1.000000   0.095586   -2.218968
201 psinorm ti(KeV) dti/dpsiN
 0.000000   4.649436   0.003197
 0.005000   4.648966   -0.190976
 0.010000   4.647526   -0.389868
 0.015000   4.645068   -0.597988
 0.020000   4.641546   -0.814798
 0.025000   4.636920   -1.039542
 0.030000   4.631151   -1.271243
 0.035000   4.624207   -1.508726
 0.040000   4.616063   -1.750127
 0.045000   4.606706   -1.994069
 0.050000   4.596123   -2.239549
 0.055000   4.584310   -2.485000
 0.060000   4.571273   -2.729141
 0.065000   4.557019   -2.970923
 0.070000   4.541564   -3.208191
 0.075000   4.524937   -3.440140
 0.080000   4.507162   -3.666362
 0.085000   4.488274   -3.884642
 0.090000   4.468316   -4.093548
 0.095000   4.447338   -4.292270
 0.100000   4.425393   -4.478439
 0.105000   4.402554   -4.653694
 0.110000   4.378856   -4.822132
 0.115000   4.354332   -4.983558
 0.120000   4.329020   -5.137326
 0.125000   4.302959   -5.282962
 0.130000   4.276191   -5.417866
 0.135000   4.248780   -5.540718
 0.140000   4.220784   -5.653286
 0.145000   4.192248   -5.755801
 0.150000   4.163226   -5.847693
 0.155000   4.133771   -5.929147
 0.160000   4.103934   -5.999264
 0.165000   4.073778   -6.058533
 0.170000   4.043349   -6.109993
 0.175000   4.012678   -6.154557
 0.180000   3.981803   -6.192255
 0.185000   3.950756   -6.224608
 0.190000   3.919557   -6.253947
 0.195000   3.888216   -6.284229
 0.200000   3.856715   -6.316445
 0.205000   3.825052   -6.349244
 0.210000   3.793223   -6.382740
 0.215000   3.761224   -6.416798
 0.220000   3.729055   -6.452777
 0.225000   3.696696   -6.493165
 0.230000   3.664123   -6.530195
 0.235000   3.631394   -6.558183
 0.240000   3.598541   -6.579358
 0.245000   3.565601   -6.592054
 0.250000   3.532621   -6.595497
 0.255000   3.499646   -6.589663
 0.260000   3.466724   -6.567541
 0.265000   3.433971   -6.526314
 0.270000   3.401461   -6.469963
 0.275000   3.369271   -6.398296
 0.280000   3.337478   -6.311096
 0.285000   3.306160   -6.204536
 0.290000   3.275432   -6.081568
 0.295000   3.245344   -5.950331
 0.300000   3.215929   -5.814221
 0.305000   3.187202   -5.676511
 0.310000   3.159164   -5.539499
 0.315000   3.131807   -5.403038
 0.320000   3.105134   -5.271550
 0.325000   3.079092   -5.147586
 0.330000   3.053658   -5.028295
 0.335000   3.028809   -4.913802
 0.340000   3.004520   -4.804152
 0.345000   2.980767   -4.701630
 0.350000   2.957503   -4.605075
 0.355000   2.934716   -4.510624
 0.360000   2.912397   -4.416816
 0.365000   2.890548   -4.321270
 0.370000   2.869185   -4.221448
 0.375000   2.848334   -4.115029
 0.380000   2.828034   -3.999671
 0.385000   2.808337   -3.876717
 0.390000   2.789267   -3.749942
 0.395000   2.770838   -3.621615
 0.400000   2.753051   -3.493841
 0.405000   2.735899   -3.366410
 0.410000   2.719387   -3.241791
 0.415000   2.703481   -3.123988
 0.420000   2.688147   -3.012435
 0.425000   2.673357   -2.906489
 0.430000   2.659082   -2.806570
 0.435000   2.645291   -2.711965
 0.440000   2.631962   -2.624053
 0.445000   2.619051   -2.545445
 0.450000   2.606508   -2.475424
 0.455000   2.594296   -2.412950
 0.460000   2.582378   -2.357976
 0.465000   2.570717   -2.310685
 0.470000   2.559272   -2.270809
 0.475000   2.548009   -2.235744
 0.480000   2.536914   -2.203092
 0.485000   2.525978   -2.172597
 0.490000   2.515188   -2.144448
 0.495000   2.504533   -2.118902
 0.500000   2.493999   -2.096010
 0.505000   2.483573   -2.076107
 0.510000   2.473238   -2.059386
 0.515000   2.462979   -2.045631
 0.520000   2.452782   -2.034774
 0.525000   2.442631   -2.026603
 0.530000   2.432516   -2.020812
 0.535000   2.422423   -2.017930
 0.540000   2.412336   -2.018178
 0.545000   2.402242   -2.021064
 0.550000   2.392126   -2.026503
 0.555000   2.381977   -2.034376
 0.560000   2.371782   -2.044589
 0.565000   2.361531   -2.057415
 0.570000   2.351208   -2.073061
 0.575000   2.340800   -2.091735
 0.580000   2.330291   -2.114003
 0.585000   2.319660   -2.140463
 0.590000   2.308886   -2.173316
 0.595000   2.297927   -2.211254
 0.600000   2.286773   -2.251891
 0.605000   2.275408   -2.295790
 0.610000   2.263815   -2.342451
 0.615000   2.251983   -2.391300
 0.620000   2.239902   -2.444484
 0.625000   2.227539   -2.498270
 0.630000   2.214920   -2.548735
 0.635000   2.202051   -2.598109
 0.640000   2.188939   -2.646144
 0.645000   2.175590   -2.692365
 0.650000   2.162015   -2.737612
 0.655000   2.148214   -2.778870
 0.660000   2.134226   -2.812793
 0.665000   2.120086   -2.839688
 0.670000   2.105829   -2.858492
 0.675000   2.091501   -2.868182
 0.680000   2.077148   -2.865979
 0.685000   2.062841   -2.853108
 0.690000   2.048617   -2.834776
 0.695000   2.034493   -2.812493
 0.700000   2.020492   -2.786601
 0.705000   2.006627   -2.757981
 0.710000   1.992912   -2.725336
 0.715000   1.979374   -2.691245
 0.720000   1.965999   -2.660533
 0.725000   1.952769   -2.633040
 0.730000   1.939669   -2.609088
 0.735000   1.926678   -2.590897
 0.740000   1.913760   -2.582640
 0.745000   1.900851   -2.589289
 0.750000   1.887867   -2.608274
 0.755000   1.874769   -2.633655
 0.760000   1.861531   -2.662800
 0.765000   1.848141   -2.693421
 0.770000   1.834596   -2.725892
 0.775000   1.820882   -2.759024
 0.780000   1.807006   -2.786782
 0.785000   1.793014   -2.808562
 0.790000   1.778920   -2.827831
 0.795000   1.764736   -2.846106
 0.800000   1.750459   -2.866681
 0.805000   1.736069   -2.893014
 0.810000   1.721529   -2.921965
 0.815000   1.706849   -2.951032
 0.820000   1.692019   -2.981613
 0.825000   1.677033   -3.013479
 0.830000   1.661884   -3.048050
 0.835000   1.646552   -3.092560
 0.840000   1.630959   -3.151970
 0.845000   1.615033   -3.227759
 0.850000   1.598681   -3.322375
 0.855000   1.581809   -3.435867
 0.860000   1.564322   -3.569872
 0.865000   1.546110   -3.735211
 0.870000   1.526970   -3.920433
 0.875000   1.506906   -4.115336
 0.880000   1.485817   -4.332952
 0.885000   1.463576   -4.579361
 0.890000   1.440023   -4.863142
 0.895000   1.414945   -5.219052
 0.900000   1.387833   -5.631457
 0.905000   1.358630   -6.077011
 0.910000   1.327063   -6.577282
 0.915000   1.292858   -7.129131
 0.920000   1.255771   -7.723922
 0.925000   1.215618   -8.382909
 0.930000   1.171942   -9.047848
 0.935000   1.125140   -9.650098
 0.940000   1.075441   -10.193239
 0.945000   1.023208   -10.646970
 0.950000   0.968972   -10.977642
 0.955000   0.913431   -11.161568
 0.960000   0.857356   -11.159209
 0.965000   0.801839   -10.950561
 0.970000   0.747850   -10.552116
 0.975000   0.696318   -9.975870
 0.980000   0.648092   -9.243152
 0.985000   0.603886   -8.368244
 0.990000   0.564409   -7.398185
 0.995000   0.529904   -6.402780
 1.000000   0.500381   -5.406483
201 psinorm nb(10^20/m^3) dnb/dpsiN
 0.000000   0.047899   0.075440
 0.005000   0.048205   0.046901
 0.010000   0.048368   0.019552
 0.015000   0.048401   -0.005048
 0.020000   0.048318   -0.026903
 0.025000   0.048132   -0.046170
 0.030000   0.047856   -0.063033
 0.035000   0.047501   -0.077804
 0.040000   0.047078   -0.090471
 0.045000   0.046597   -0.101870
 0.050000   0.046059   -0.111711
 0.055000   0.045479   -0.119906
 0.060000   0.044860   -0.126629
 0.065000   0.044213   -0.132150
 0.070000   0.043539   -0.136658
 0.075000   0.042847   -0.139700
 0.080000   0.042142   -0.142084
 0.085000   0.041426   -0.143799
 0.090000   0.040704   -0.144670
 0.095000   0.039979   -0.144930
 0.100000   0.039254   -0.144622
 0.105000   0.038533   -0.143680
 0.110000   0.037818   -0.142209
 0.115000   0.037111   -0.140410
 0.120000   0.036414   -0.138278
 0.125000   0.035728   -0.135826
 0.130000   0.035055   -0.133097
 0.135000   0.034397   -0.130143
 0.140000   0.033754   -0.127039
 0.145000   0.033127   -0.123792
 0.150000   0.032516   -0.120365
 0.155000   0.031923   -0.116801
 0.160000   0.031348   -0.113174
 0.165000   0.030791   -0.109511
 0.170000   0.030253   -0.105830
 0.175000   0.029733   -0.102153
 0.180000   0.029231   -0.098331
 0.185000   0.028750   -0.094444
 0.190000   0.028287   -0.090768
 0.195000   0.027842   -0.087257
 0.200000   0.027414   -0.083832
 0.205000   0.027004   -0.080502
 0.210000   0.026609   -0.077273
 0.215000   0.026231   -0.074150
 0.220000   0.025868   -0.071075
 0.225000   0.025520   -0.067903
 0.230000   0.025189   -0.064921
 0.235000   0.024871   -0.062281
 0.240000   0.024566   -0.059760
 0.245000   0.024273   -0.057357
 0.250000   0.023992   -0.055068
 0.255000   0.023723   -0.052630
 0.260000   0.023466   -0.050336
 0.265000   0.023219   -0.048446
 0.270000   0.022982   -0.046663
 0.275000   0.022753   -0.044982
 0.280000   0.022532   -0.043261
 0.285000   0.022320   -0.041581
 0.290000   0.022116   -0.040169
 0.295000   0.021918   -0.038935
 0.300000   0.021727   -0.037787
 0.305000   0.021540   -0.036612
 0.310000   0.021361   -0.035490
 0.315000   0.021186   -0.034583
 0.320000   0.021015   -0.033803
 0.325000   0.020848   -0.033089
 0.330000   0.020684   -0.032354
 0.335000   0.020524   -0.031709
 0.340000   0.020367   -0.031229
 0.345000   0.020212   -0.030795
 0.350000   0.020059   -0.030379
 0.355000   0.019908   -0.029992
 0.360000   0.019759   -0.029696
 0.365000   0.019611   -0.029473
 0.370000   0.019464   -0.029279
 0.375000   0.019318   -0.029102
 0.380000   0.019173   -0.028974
 0.385000   0.019028   -0.028899
 0.390000   0.018884   -0.028842
 0.395000   0.018740   -0.028804
 0.400000   0.018596   -0.028793
 0.405000   0.018452   -0.028806
 0.410000   0.018308   -0.028828
 0.415000   0.018164   -0.028863
 0.420000   0.018019   -0.028912
 0.425000   0.017875   -0.028963
 0.430000   0.017730   -0.029014
 0.435000   0.017585   -0.029071
 0.440000   0.017439   -0.029138
 0.445000   0.017293   -0.029202
 0.450000   0.017147   -0.029258
 0.455000   0.017001   -0.029314
 0.460000   0.016854   -0.029379
 0.465000   0.016707   -0.029443
 0.470000   0.016559   -0.029495
 0.475000   0.016412   -0.029547
 0.480000   0.016264   -0.029608
 0.485000   0.016116   -0.029670
 0.490000   0.015967   -0.029720
 0.495000   0.015819   -0.029767
 0.500000   0.015670   -0.029817
 0.505000   0.015520   -0.029865
 0.510000   0.015371   -0.029900
 0.515000   0.015221   -0.029930
 0.520000   0.015072   -0.029957
 0.525000   0.014922   -0.029984
 0.530000   0.014772   -0.030008
 0.535000   0.014622   -0.030025
 0.540000   0.014472   -0.030040
 0.545000   0.014321   -0.030057
 0.550000   0.014171   -0.030076
 0.555000   0.014021   -0.030094
 0.560000   0.013870   -0.030114
 0.565000   0.013719   -0.030139
 0.570000   0.013569   -0.030173
 0.575000   0.013418   -0.030211
 0.580000   0.013267   -0.030251
 0.585000   0.013115   -0.030296
 0.590000   0.012964   -0.030357
 0.595000   0.012812   -0.030429
 0.600000   0.012659   -0.030504
 0.605000   0.012507   -0.030586
 0.610000   0.012353   -0.030674
 0.615000   0.012200   -0.030785
 0.620000   0.012046   -0.030905
 0.625000   0.011891   -0.031019
 0.630000   0.011735   -0.031140
 0.635000   0.011579   -0.031273
 0.640000   0.011423   -0.031435
 0.645000   0.011265   -0.031602
 0.650000   0.011107   -0.031756
 0.655000   0.010948   -0.031918
 0.660000   0.010788   -0.032085
 0.665000   0.010627   -0.032286
 0.670000   0.010465   -0.032494
 0.675000   0.010302   -0.032681
 0.680000   0.010138   -0.032874
 0.685000   0.009973   -0.033069
 0.690000   0.009807   -0.033287
 0.695000   0.009640   -0.033525
 0.700000   0.009472   -0.033747
 0.705000   0.009303   -0.033954
 0.710000   0.009132   -0.034160
 0.715000   0.008961   -0.034362
 0.720000   0.008789   -0.034572
 0.725000   0.008615   -0.034780
 0.730000   0.008441   -0.034960
 0.735000   0.008266   -0.035119
 0.740000   0.008090   -0.035265
 0.745000   0.007913   -0.035397
 0.750000   0.007736   -0.035515
 0.755000   0.007558   -0.035622
 0.760000   0.007380   -0.035711
 0.765000   0.007201   -0.035776
 0.770000   0.007022   -0.035829
 0.775000   0.006843   -0.035873
 0.780000   0.006663   -0.035907
 0.785000   0.006483   -0.035930
 0.790000   0.006304   -0.035942
 0.795000   0.006124   -0.035944
 0.800000   0.005944   -0.035933
 0.805000   0.005765   -0.035909
 0.810000   0.005585   -0.035872
 0.815000   0.005406   -0.035824
 0.820000   0.005227   -0.035762
 0.825000   0.005048   -0.035687
 0.830000   0.004870   -0.035604
 0.835000   0.004692   -0.035504
 0.840000   0.004515   -0.035387
 0.845000   0.004338   -0.035261
 0.850000   0.004162   -0.035123
 0.855000   0.003987   -0.034976
 0.860000   0.003813   -0.034817
 0.865000   0.003639   -0.034637
 0.870000   0.003466   -0.034444
 0.875000   0.003295   -0.034253
 0.880000   0.003124   -0.034063
 0.885000   0.002954   -0.033862
 0.890000   0.002785   -0.033631
 0.895000   0.002618   -0.033345
 0.900000   0.002452   -0.032970
 0.905000   0.002288   -0.032461
 0.910000   0.002127   -0.031778
 0.915000   0.001970   -0.030891
 0.920000   0.001818   -0.029763
 0.925000   0.001673   -0.028394
 0.930000   0.001534   -0.026845
 0.935000   0.001404   -0.025264
 0.940000   0.001282   -0.023880
 0.945000   0.001165   -0.022972
 0.950000   0.001052   -0.022761
 0.955000   0.000938   -0.023199
 0.960000   0.000820   -0.023811
 0.965000   0.000700   -0.023873
 0.970000   0.000581   -0.022794
 0.975000   0.000472   -0.020434
 0.980000   0.000377   -0.017321
 0.985000   0.000298   -0.014446
 0.990000   0.000232   -0.012644
 0.995000   0.000172   -0.012395
 1.000000   0.000108   -0.013016
201 psinorm pb(KPa) dpb/dpsiN
 0.000000   19.453945   26.235082
 0.005000   19.559309   15.910256
 0.010000   19.613048   5.316559
 0.015000   19.612474   -5.058859
 0.020000   19.562459   -14.286254
 0.025000   19.469612   -22.221372
 0.030000   19.340246   -29.064351
 0.035000   19.178968   -35.023022
 0.040000   18.990015   -40.137792
 0.045000   18.777590   -44.725932
 0.050000   18.542756   -48.717431
 0.055000   18.290416   -52.032126
 0.060000   18.022435   -54.676597
 0.065000   17.743650   -56.806871
 0.070000   17.454366   -58.520456
 0.075000   17.158446   -59.607174
 0.080000   16.858294   -60.421595
 0.085000   16.554230   -60.999611
 0.090000   16.248298   -61.245922
 0.095000   15.941770   -61.246619
 0.100000   15.635832   -61.020541
 0.105000   15.331565   -60.506438
 0.110000   15.030768   -59.776259
 0.115000   14.733802   -58.957495
 0.120000   14.441193   -58.019731
 0.125000   14.153605   -56.957441
 0.130000   13.871618   -55.787611
 0.135000   13.595729   -54.541725
 0.140000   13.326201   -53.266756
 0.145000   13.063061   -51.948763
 0.150000   12.806713   -50.531581
 0.155000   12.557746   -49.041994
 0.160000   12.316294   -47.530738
 0.165000   12.082438   -46.008021
 0.170000   11.856213   -44.482839
 0.175000   11.637610   -42.961682
 0.180000   11.426597   -41.360420
 0.185000   11.224006   -39.731656
 0.190000   11.029280   -38.216295
 0.195000   10.841843   -36.777305
 0.200000   10.661507   -35.376322
 0.205000   10.488079   -34.015547
 0.210000   10.321351   -32.697544
 0.215000   10.161104   -31.423987
 0.220000   10.007112   -30.172802
 0.225000   9.859376   -28.899680
 0.230000   9.718115   -27.705336
 0.235000   9.582323   -26.633648
 0.240000   9.451778   -25.608123
 0.245000   9.326241   -24.630824
 0.250000   9.205470   -23.699504
 0.255000   9.089246   -22.714520
 0.260000   8.978325   -21.787039
 0.265000   8.871376   -21.014890
 0.270000   8.768176   -20.287047
 0.275000   8.668505   -19.602204
 0.280000   8.572154   -18.904891
 0.285000   8.479457   -18.221816
 0.290000   8.389936   -17.638569
 0.295000   8.303071   -17.124302
 0.300000   8.218693   -16.643203
 0.305000   8.136639   -16.153234
 0.310000   8.057160   -15.684240
 0.315000   7.979796   -15.298074
 0.320000   7.904180   -14.961775
 0.325000   7.830179   -14.651070
 0.330000   7.757669   -14.328594
 0.335000   7.686893   -14.040160
 0.340000   7.617267   -13.820372
 0.345000   7.548689   -13.620153
 0.350000   7.481066   -13.427295
 0.355000   7.414416   -13.246664
 0.360000   7.348599   -13.101891
 0.365000   7.283397   -12.985632
 0.370000   7.218743   -12.881557
 0.375000   7.154582   -12.785146
 0.380000   7.090891   -12.708271
 0.385000   7.027499   -12.652983
 0.390000   6.964362   -12.605927
 0.395000   6.901440   -12.567875
 0.400000   6.838683   -12.539948
 0.405000   6.776040   -12.518783
 0.410000   6.713495   -12.500785
 0.415000   6.651032   -12.488249
 0.420000   6.588612   -12.480998
 0.425000   6.526222   -12.473955
 0.430000   6.463873   -12.466394
 0.435000   6.401558   -12.461997
 0.440000   6.339253   -12.462268
 0.445000   6.276936   -12.461798
 0.450000   6.214635   -12.457850
 0.455000   6.152357   -12.452717
 0.460000   6.090108   -12.453349
 0.465000   6.027824   -12.455538
 0.470000   5.965552   -12.453116
 0.475000   5.903293   -12.451001
 0.480000   5.841042   -12.456270
 0.485000   5.778730   -12.462896
 0.490000   5.716413   -12.463089
 0.495000   5.654099   -12.463131
 0.500000   5.591782   -12.469834
 0.505000   5.529401   -12.474941
 0.510000   5.467033   -12.469949
 0.515000   5.404701   -12.462280
 0.520000   5.342410   -12.454949
 0.525000   5.280152   -12.449729
 0.530000   5.217913   -12.440299
 0.535000   5.155749   -12.426038
 0.540000   5.093652   -12.413576
 0.545000   5.031613   -12.402095
 0.550000   4.969631   -12.389335
 0.555000   4.907720   -12.374444
 0.560000   4.845887   -12.358928
 0.565000   4.784130   -12.348936
 0.570000   4.722398   -12.341530
 0.575000   4.660715   -12.330840
 0.580000   4.599089   -12.320157
 0.585000   4.537513   -12.310558
 0.590000   4.475984   -12.308808
 0.595000   4.414425   -12.310402
 0.600000   4.352880   -12.310532
 0.605000   4.291320   -12.313950
 0.610000   4.229740   -12.316766
 0.615000   4.168152   -12.326835
 0.620000   4.106472   -12.338583
 0.625000   4.044766   -12.344456
 0.630000   3.983027   -12.352054
 0.635000   3.921246   -12.362751
 0.640000   3.859400   -12.383502
 0.645000   3.797411   -12.404034
 0.650000   3.735359   -12.417280
 0.655000   3.673238   -12.431526
 0.660000   3.611044   -12.446174
 0.665000   3.548776   -12.471612
 0.670000   3.486328   -12.497569
 0.675000   3.423801   -12.513849
 0.680000   3.361189   -12.530196
 0.685000   3.298499   -12.545401
 0.690000   3.235735   -12.567760
 0.695000   3.172821   -12.596913
 0.700000   3.109766   -12.619095
 0.705000   3.046630   -12.634810
 0.710000   2.983418   -12.649023
 0.715000   2.920140   -12.660567
 0.720000   2.856812   -12.673782
 0.725000   2.793402   -12.685130
 0.730000   2.729961   -12.685702
 0.735000   2.666545   -12.678334
 0.740000   2.603178   -12.665760
 0.745000   2.539887   -12.647001
 0.750000   2.476708   -12.621703
 0.755000   2.413670   -12.591371
 0.760000   2.350794   -12.554311
 0.765000   2.288127   -12.509607
 0.770000   2.225698   -12.460555
 0.775000   2.163522   -12.408911
 0.780000   2.101609   -12.354987
 0.785000   2.039972   -12.298086
 0.790000   1.978628   -12.237663
 0.795000   1.917595   -12.174769
 0.800000   1.856880   -12.109388
 0.805000   1.796501   -12.040277
 0.810000   1.736478   -11.967983
 0.815000   1.676822   -11.893138
 0.820000   1.617546   -11.815475
 0.825000   1.558667   -11.735311
 0.830000   1.500193   -11.653961
 0.835000   1.442127   -11.568714
 0.840000   1.384506   -11.479805
 0.845000   1.327329   -11.390054
 0.850000   1.270605   -11.298095
 0.855000   1.214348   -11.205039
 0.860000   1.158555   -11.110450
 0.865000   1.103244   -11.011562
 0.870000   1.048439   -10.909652
 0.875000   0.994147   -10.807722
 0.880000   0.940362   -10.705075
 0.885000   0.887096   -10.598090
 0.890000   0.834381   -10.482248
 0.895000   0.782274   -10.351845
 0.900000   0.730863   -10.198257
 0.905000   0.680291   -10.008860
 0.910000   0.630774   -9.773854
 0.915000   0.582553   -9.484585
 0.920000   0.535928   -9.130440
 0.925000   0.491248   -8.708960
 0.930000   0.448839   -8.233560
 0.935000   0.408913   -7.738143
 0.940000   0.371457   -7.277723
 0.945000   0.336136   -6.921625
 0.950000   0.302241   -6.727007
 0.955000   0.268866   -6.689444
 0.960000   0.235347   -6.716271
 0.965000   0.201703   -6.659695
 0.970000   0.168750   -6.379838
 0.975000   0.137905   -5.818650
 0.980000   0.110563   -5.043276
 0.985000   0.087472   -4.209225
 0.990000   0.068471   -3.521846
 0.995000   0.052253   -3.252803
 1.000000   0.035943   -3.271312
201 psinorm ptot(KPa) dptot/dpsiN
 0.000000   108.272000   -64.938633
 0.005000   107.923619   -74.413771
 0.010000   107.527862   -84.272399
 0.015000   107.080895   -94.169110
 0.020000   106.586171   -103.172014
 0.025000   106.049175   -111.121458
 0.030000   105.474956   -118.198553
 0.035000   104.867189   -124.580744
 0.040000   104.229149   -130.297273
 0.045000   103.564216   -135.594619
 0.050000   102.873203   -140.418133
 0.055000   102.160035   -144.683927
 0.060000   101.426364   -148.377373
 0.065000   100.676261   -151.628435
 0.070000   99.910079   -154.506598
 0.075000   99.131195   -156.828846
 0.080000   98.341791   -158.887036
 0.085000   97.542325   -160.701223
 0.090000   96.734779   -162.177759
 0.095000   95.920547   -163.379274
 0.100000   95.100986   -164.302964
 0.105000   94.277518   -164.903746
 0.110000   93.451948   -165.276904
 0.115000   92.624749   -165.534976
 0.120000   91.796599   -165.642838
 0.125000   90.968320   -165.589711
 0.130000   90.140701   -165.369184
 0.135000   89.314629   -164.998255
 0.140000   88.490719   -164.532333
 0.145000   87.669305   -163.958915
 0.150000   86.851130   -163.220006
 0.155000   86.037105   -162.340614
 0.160000   85.227724   -161.359559
 0.165000   84.423510   -160.289076
 0.170000   83.624833   -159.160190
 0.175000   82.831908   -157.984891
 0.180000   82.044984   -156.688599
 0.185000   81.265022   -155.329775
 0.190000   80.491686   -154.049057
 0.195000   79.724531   -152.841600
 0.200000   78.963270   -151.679357
 0.205000   78.207738   -150.551722
 0.210000   77.457753   -149.460576
 0.215000   76.713132   -148.405734
 0.220000   75.973696   -147.377989
 0.225000   75.239352   -146.359238
 0.230000   74.510103   -145.378945
 0.235000   73.785562   -144.433109
 0.240000   73.065772   -143.474945
 0.245000   72.350813   -142.495355
 0.250000   71.640819   -141.487396
 0.255000   70.935939   -140.365971
 0.260000   70.237159   -139.177223
 0.265000   69.544167   -137.985630
 0.270000   68.857303   -136.725062
 0.275000   68.176916   -135.393475
 0.280000   67.503368   -133.941418
 0.285000   66.837502   -132.363875
 0.290000   66.179729   -130.755089
 0.295000   65.529951   -129.146184
 0.300000   64.888267   -127.529757
 0.305000   64.254654   -125.891626
 0.310000   63.629351   -124.272919
 0.315000   63.011924   -122.725532
 0.320000   62.402096   -121.252421
 0.325000   61.799400   -119.851498
 0.330000   61.203581   -118.470227
 0.335000   60.614698   -117.150787
 0.340000   60.032073   -115.925144
 0.345000   59.455446   -114.766795
 0.350000   58.884405   -113.655289
 0.355000   58.318894   -112.565259
 0.360000   57.758752   -111.506258
 0.365000   57.203831   -110.454429
 0.370000   56.654208   -109.377085
 0.375000   56.110060   -108.253489
 0.380000   55.571673   -107.077081
 0.385000   55.039289   -105.858561
 0.390000   54.513087   -104.611909
 0.395000   53.993170   -103.352645
 0.400000   53.479561   -102.094997
 0.405000   52.972220   -100.832369
 0.410000   52.471237   -99.579546
 0.415000   51.976425   -98.369932
 0.420000   51.487538   -97.200987
 0.425000   51.004415   -96.063991
 0.430000   50.526898   -94.961460
 0.435000   50.054800   -93.892527
 0.440000   49.587973   -92.868005
 0.445000   49.126120   -91.897837
 0.450000   48.668994   -90.971141
 0.455000   48.216409   -90.080047
 0.460000   47.768194   -89.227339
 0.465000   47.324135   -88.407694
 0.470000   46.884117   -87.610752
 0.475000   46.448028   -86.822608
 0.480000   46.015891   -86.035944
 0.485000   45.587669   -85.245294
 0.490000   45.163438   -84.446084
 0.495000   44.743208   -83.647673
 0.500000   44.326961   -82.859418
 0.505000   43.914614   -82.078615
 0.510000   43.506175   -81.300879
 0.515000   43.101605   -80.533920
 0.520000   42.700836   -79.781883
 0.525000   42.303786   -79.046790
 0.530000   41.910368   -78.322105
 0.535000   41.520565   -77.608959
 0.540000   41.134278   -76.913367
 0.545000   40.751431   -76.231182
 0.550000   40.371967   -75.558671
 0.555000   39.995844   -74.893814
 0.560000   39.623029   -74.238080
 0.565000   39.253464   -73.601343
 0.570000   38.887015   -72.983907
 0.575000   38.523625   -72.382558
 0.580000   38.163190   -71.805177
 0.585000   37.805573   -71.257368
 0.590000   37.450616   -70.759041
 0.595000   37.097982   -70.298080
 0.600000   36.747635   -69.855990
 0.605000   36.399423   -69.441153
 0.610000   36.053224   -69.047579
 0.615000   35.708947   -68.680069
 0.620000   35.366423   -68.345057
 0.625000   35.025496   -68.016734
 0.630000   34.686255   -67.683263
 0.635000   34.348664   -67.359243
 0.640000   34.012663   -67.050659
 0.645000   33.678157   -66.744968
 0.650000   33.345213   -66.423703
 0.655000   33.013920   -66.045108
 0.660000   32.684762   -65.568182
 0.665000   32.358238   -64.998203
 0.670000   32.034780   -64.321609
 0.675000   31.715022   -63.531021
 0.680000   31.399470   -62.589374
 0.685000   31.089128   -61.549003
 0.690000   30.783980   -60.536472
 0.695000   30.483764   -59.565085
 0.700000   30.188329   -58.632372
 0.705000   29.897440   -57.764059
 0.710000   29.610689   -56.961993
 0.715000   29.327820   -56.284049
 0.720000   29.047848   -55.801430
 0.725000   28.769806   -55.487833
 0.730000   28.492970   -55.320580
 0.735000   28.216600   -55.305180
 0.740000   27.939918   -55.476486
 0.745000   27.661835   -55.848521
 0.750000   27.381433   -56.330917
 0.755000   27.098526   -56.843369
 0.760000   26.812999   -57.356364
 0.765000   26.524962   -57.833264
 0.770000   26.234666   -58.272468
 0.775000   25.942237   -58.644631
 0.780000   25.648220   -58.873089
 0.785000   25.353507   -58.959030
 0.790000   25.058630   -58.946555
 0.795000   24.764041   -58.856296
 0.800000   24.470067   -58.721008
 0.805000   24.176831   -58.573984
 0.810000   23.884327   -58.399507
 0.815000   23.592836   -58.169564
 0.820000   23.302631   -57.875335
 0.825000   23.014082   -57.500352
 0.830000   22.727628   -57.038736
 0.835000   22.443695   -56.515530
 0.840000   22.162473   -55.941579
 0.845000   21.884279   -55.311045
 0.850000   21.609362   -54.624115
 0.855000   21.338038   -53.872702
 0.860000   21.070635   -53.067501
 0.865000   20.807363   -52.285827
 0.870000   20.547777   -51.517358
 0.875000   20.292190   -50.803563
 0.880000   20.039741   -50.366252
 0.885000   19.788527   -50.470719
 0.890000   19.535034   -51.518457
 0.895000   19.273342   -54.213330
 0.900000   18.992901   -59.191626
 0.905000   18.681426   -67.280910
 0.910000   18.320092   -79.797768
 0.915000   17.883449   -98.097276
 0.920000   17.339119   -123.432447
 0.925000   16.649124   -156.567047
 0.930000   15.773448   -196.671373
 0.935000   14.682410   -240.856933
 0.940000   13.364879   -283.878955
 0.945000   11.843621   -318.116147
 0.950000   10.183718   -335.666903
 0.955000   8.486952   -331.199349
 0.960000   6.871724   -305.452132
 0.965000   5.432430   -264.857012
 0.970000   4.223154   -217.818798
 0.975000   3.254242   -171.887861
 0.980000   2.504275   -131.728546
 0.985000   1.936957   -99.048905
 0.990000   1.513786   -73.785274
 0.995000   1.199104   -55.121981
 1.000000   0.962566   -39.493150
201 psinorm omeg(kRad/s) domeg/dpsiN
 0.000000   84.090257   0.011323
 0.005000   84.089812   -0.189196
 0.010000   84.088365   -0.407476
 0.015000   84.085737   -0.662840
 0.020000   84.081736   -0.957921
 0.025000   84.076158   -1.294544
 0.030000   84.068791   -1.673827
 0.035000   84.059420   -2.096082
 0.040000   84.047830   -2.559423
 0.045000   84.033826   -3.061729
 0.050000   84.017213   -3.601217
 0.055000   83.997813   -4.174923
 0.060000   83.975464   -4.780194
 0.065000   83.950011   -5.414926
 0.070000   83.921314   -6.071941
 0.075000   83.889292   -6.747722
 0.080000   83.853837   -7.439456
 0.085000   83.814897   -8.136910
 0.090000   83.772468   -8.832280
 0.095000   83.726575   -9.520256
 0.100000   83.677265   -10.186908
 0.105000   83.624706   -10.848558
 0.110000   83.568780   -11.542803
 0.115000   83.509278   -12.281242
 0.120000   83.445967   -13.071011
 0.125000   83.378567   -13.919310
 0.130000   83.306774   -14.830932
 0.135000   83.230258   -15.806091
 0.140000   83.148713   -16.839680
 0.145000   83.061861   -17.932737
 0.150000   82.969386   -19.088741
 0.155000   82.870974   -20.305451
 0.160000   82.766331   -21.584185
 0.165000   82.655132   -22.911999
 0.170000   82.537212   -24.260499
 0.175000   82.412527   -25.620929
 0.180000   82.281002   -26.987511
 0.185000   82.142652   -28.339196
 0.190000   81.997610   -29.639190
 0.195000   81.846260   -30.831642
 0.200000   81.689294   -31.908479
 0.205000   81.527175   -32.879991
 0.210000   81.360494   -33.729092
 0.215000   81.189884   -34.448712
 0.220000   81.016007   -35.010357
 0.225000   80.839781   -35.369926
 0.230000   80.662308   -35.626803
 0.235000   80.483513   -35.843105
 0.240000   80.303876   -35.970249
 0.245000   80.123810   -36.024599
 0.250000   79.943630   -36.012825
 0.255000   79.763682   -35.927202
 0.260000   79.584358   -35.907830
 0.265000   79.404604   -36.035167
 0.270000   79.224007   -36.258884
 0.275000   79.042015   -36.602461
 0.280000   78.857982   -37.078837
 0.285000   78.671226   -37.679416
 0.290000   78.481188   -38.323632
 0.295000   78.287990   -38.955114
 0.300000   78.091637   -39.593225
 0.305000   77.892058   -40.250522
 0.310000   77.689132   -40.933882
 0.315000   77.482719   -41.676361
 0.320000   77.272368   -42.448159
 0.325000   77.058237   -43.208091
 0.330000   76.840287   -43.973515
 0.335000   76.618502   -44.738196
 0.340000   76.392905   -45.494420
 0.345000   76.163558   -46.259286
 0.350000   75.930312   -46.991731
 0.355000   75.693641   -47.646868
 0.360000   75.453844   -48.237188
 0.365000   75.211269   -48.748128
 0.370000   74.966362   -49.159963
 0.375000   74.719669   -49.430956
 0.380000   74.472053   -49.540551
 0.385000   74.224264   -49.524409
 0.390000   73.976809   -49.432207
 0.395000   73.729942   -49.325295
 0.400000   73.483556   -49.279602
 0.405000   73.237146   -49.396146
 0.410000   72.989594   -49.753715
 0.415000   72.739609   -50.312653
 0.420000   72.486468   -51.008512
 0.425000   72.229523   -51.825175
 0.430000   71.968216   -52.744990
 0.435000   71.702074   -53.823911
 0.440000   71.429977   -55.030764
 0.445000   71.151766   -56.198581
 0.450000   70.867991   -57.295442
 0.455000   70.578811   -58.346393
 0.460000   70.284527   -59.323042
 0.465000   69.985581   -60.239002
 0.470000   69.682137   -61.020247
 0.475000   69.375379   -61.494509
 0.480000   69.067192   -61.672721
 0.485000   68.758651   -61.675767
 0.490000   68.450434   -61.585698
 0.495000   68.142794   -61.498306
 0.500000   67.835451   -61.487621
 0.505000   67.527918   -61.515408
 0.510000   67.220297   -61.540793
 0.515000   66.912510   -61.576960
 0.520000   66.604528   -61.614035
 0.525000   66.296370   -61.662108
 0.530000   65.987907   -61.746925
 0.535000   65.678901   -61.772172
 0.540000   65.370185   -61.685060
 0.545000   65.062050   -61.537060
 0.550000   64.754814   -61.323792
 0.555000   64.448812   -61.049556
 0.560000   64.144319   -60.729631
 0.565000   63.841516   -60.308791
 0.570000   63.541231   -59.773751
 0.575000   63.243778   -59.185872
 0.580000   62.949372   -58.566500
 0.585000   62.658113   -57.938526
 0.590000   62.369987   -57.311862
 0.595000   62.084995   -56.705498
 0.600000   61.802932   -56.145360
 0.605000   61.523541   -55.642500
 0.610000   61.246507   -55.208363
 0.615000   60.971457   -54.853699
 0.620000   60.697970   -54.572726
 0.625000   60.425730   -54.397643
 0.630000   60.153993   -54.368436
 0.635000   59.882046   -54.495376
 0.640000   59.609040   -54.804312
 0.645000   59.334003   -55.318317
 0.650000   59.055856   -56.100375
 0.655000   58.772999   -57.139498
 0.660000   58.484461   -58.322260
 0.665000   58.189776   -59.544413
 0.670000   57.889017   -60.700924
 0.675000   57.582767   -61.698196
 0.680000   57.272035   -62.391492
 0.685000   56.958852   -62.815266
 0.690000   56.643883   -63.181094
 0.695000   56.327041   -63.555779
 0.700000   56.008325   -63.941034
 0.705000   55.687631   -64.354948
 0.710000   55.364775   -64.760637
 0.715000   55.040025   -65.242938
 0.720000   54.712346   -65.932760
 0.725000   54.380697   -66.825089
 0.730000   54.044095   -67.980386
 0.735000   53.700893   -69.556680
 0.740000   53.348528   -71.944524
 0.745000   52.981448   -75.541182
 0.750000   52.593117   -80.093516
 0.755000   52.180513   -85.221906
 0.760000   51.740898   -90.797051
 0.765000   51.272542   -96.616994
 0.770000   50.774728   -102.716906
 0.775000   50.245373   -108.918179
 0.780000   49.685546   -114.435008
 0.785000   49.101023   -119.039755
 0.790000   48.495148   -122.975292
 0.795000   47.871270   -126.274706
 0.800000   47.232401   -129.196535
 0.805000   46.579305   -132.027058
 0.810000   45.912131   -134.237070
 0.815000   45.236934   -135.417836
 0.820000   44.557952   -135.691357
 0.825000   43.880021   -134.995455
 0.830000   43.207998   -133.486052
 0.835000   42.545160   -131.781734
 0.840000   41.890180   -130.093887
 0.845000   41.244221   -128.557462
 0.850000   40.604606   -127.714034
 0.855000   39.967081   -127.980440
 0.860000   39.324801   -130.097577
 0.865000   38.666105   -135.543424
 0.870000   37.969367   -144.754253
 0.875000   37.218562   -158.463144
 0.880000   36.384736   -178.544458
 0.885000   35.433118   -205.880238
 0.890000   34.325933   -240.620564
 0.895000   33.026912   -282.598090
 0.900000   31.499952   -328.274257
 0.905000   29.744170   -372.688377
 0.910000   27.773069   -411.507256
 0.915000   25.629097   -438.915231
 0.920000   23.383916   -449.678398
 0.925000   21.132313   -439.834498
 0.930000   18.985571   -409.454240
 0.935000   17.037771   -362.988309
 0.940000   15.355688   -306.517483
 0.945000   13.972596   -246.956803
 0.950000   12.886120   -190.938537
 0.955000   12.063211   -143.142900
 0.960000   11.454691   -107.172367
 0.965000   10.991487   -84.287398
 0.970000   10.611817   -72.697939
 0.975000   10.264507   -70.038245
 0.980000   9.911435   -73.558087
 0.985000   9.528927   -79.997324
 0.990000   9.111462   -87.153990
 0.995000   8.657387   -94.027569
 1.000000   8.171186   -100.452800
201 psinorm omegp(kRad/s) domegp/dpsiN
 0.000000   -0.014459   115.227537
 0.005000   0.437937   65.730889
 0.010000   0.642850   38.176903
 0.015000   0.819706   34.310027
 0.020000   0.985950   32.715040
 0.025000   1.146856   31.603970
 0.030000   1.301990   30.496396
 0.035000   1.451820   29.645612
 0.040000   1.598446   28.909870
 0.045000   1.740919   28.181172
 0.050000   1.880257   27.573306
 0.055000   2.016652   27.064942
 0.060000   2.150907   26.541302
 0.065000   2.282065   25.870012
 0.070000   2.409607   25.013152
 0.075000   2.532197   23.874772
 0.080000   2.648355   22.524947
 0.085000   2.757446   20.964777
 0.090000   2.858003   19.496107
 0.095000   2.952407   18.384660
 0.100000   3.041849   17.617925
 0.105000   3.128586   17.179559
 0.110000   3.213645   17.025556
 0.115000   3.298842   17.170499
 0.120000   3.385350   17.523084
 0.125000   3.474073   17.871620
 0.130000   3.564066   17.987516
 0.135000   3.653948   17.777499
 0.140000   3.741841   17.302925
 0.145000   3.826977   16.455493
 0.150000   3.906396   15.261058
 0.155000   3.979588   13.802594
 0.160000   4.044422   12.209491
 0.165000   4.101683   10.507302
 0.170000   4.149495   8.682116
 0.175000   4.188504   6.823990
 0.180000   4.217735   4.988810
 0.185000   4.238392   3.427403
 0.190000   4.252009   1.950874
 0.195000   4.257901   0.613587
 0.200000   4.258145   -0.635358
 0.205000   4.251547   -1.992812
 0.210000   4.238216   -3.394788
 0.215000   4.217599   -5.040266
 0.220000   4.187814   -6.842318
 0.225000   4.149176   -8.730134
 0.230000   4.100512   -10.758074
 0.235000   4.041595   -12.665697
 0.240000   3.973855   -14.515230
 0.245000   3.896443   -16.303252
 0.250000   3.810823   -17.870776
 0.255000   3.717735   -19.371050
 0.260000   3.617112   -20.797375
 0.265000   3.509761   -22.218032
 0.270000   3.394932   -23.793443
 0.275000   3.271827   -25.425344
 0.280000   3.140679   -27.162629
 0.285000   3.000201   -29.131836
 0.290000   2.849360   -31.225148
 0.295000   2.687949   -33.536390
 0.300000   2.513996   -36.059142
 0.305000   2.327358   -38.506575
 0.310000   2.128931   -40.821757
 0.315000   1.919140   -42.895042
 0.320000   1.699980   -44.454010
 0.325000   1.474600   -45.455657
 0.330000   1.245424   -46.122069
 0.335000   1.013379   -46.571747
 0.340000   0.779706   -46.833427
 0.345000   0.545045   -47.020735
 0.350000   0.309499   -47.139155
 0.355000   0.073654   -47.414088
 0.360000   -0.164642   -48.057408
 0.365000   -0.406920   -49.004640
 0.370000   -0.654688   -50.167647
 0.375000   -0.908597   -51.422861
 0.380000   -1.168917   -52.596443
 0.385000   -1.434561   -53.393074
 0.390000   -1.702848   -54.028716
 0.395000   -1.974849   -55.156782
 0.400000   -2.254416   -57.289357
 0.405000   -2.547742   -60.828009
 0.410000   -2.862696   -66.875742
 0.415000   -3.216499   -74.706202
 0.420000   -3.609758   -82.873551
 0.425000   -4.045235   -91.384589
 0.430000   -4.523604   -99.836550
 0.435000   -5.043601   -107.698386
 0.440000   -5.600587   -114.336931
 0.445000   -6.186970   -117.921636
 0.450000   -6.779804   -117.472158
 0.455000   -7.361691   -113.570582
 0.460000   -7.915510   -106.495437
 0.465000   -8.426646   -96.571132
 0.470000   -8.881221   -83.964590
 0.475000   -9.266292   -70.510692
 0.480000   -9.586328   -57.991751
 0.485000   -9.846209   -46.527220
 0.490000   -10.051600   -36.364410
 0.495000   -10.209853   -27.681983
 0.500000   -10.328420   -20.925728
 0.505000   -10.419111   -16.459910
 0.510000   -10.493019   -13.675549
 0.515000   -10.555866   -11.980224
 0.520000   -10.612821   -10.805482
 0.525000   -10.663921   -9.688430
 0.530000   -10.709706   -8.590095
 0.535000   -10.749822   -7.265517
 0.540000   -10.782361   -5.584373
 0.545000   -10.805666   -3.605754
 0.550000   -10.818418   -1.509331
 0.555000   -10.820759   0.758677
 0.560000   -10.810831   3.228266
 0.565000   -10.788476   5.627645
 0.570000   -10.754555   7.819475
 0.575000   -10.710281   9.801705
 0.580000   -10.656538   11.559928
 0.585000   -10.594682   12.855812
 0.590000   -10.527980   13.754910
 0.595000   -10.457133   14.475259
 0.600000   -10.383227   14.940722
 0.605000   -10.307726   15.150838
 0.610000   -10.231719   15.260332
 0.615000   -10.155123   15.365004
 0.620000   -10.078069   15.461760
 0.625000   -10.000505   15.562519
 0.630000   -9.922444   15.693267
 0.635000   -9.843572   15.808572
 0.640000   -9.764358   15.794565
 0.645000   -9.685627   15.710391
 0.650000   -9.607254   15.628890
 0.655000   -9.529338   15.478198
 0.660000   -9.452472   15.233111
 0.665000   -9.377007   14.995360
 0.670000   -9.302518   14.794260
 0.675000   -9.229064   14.587905
 0.680000   -9.156639   14.365708
 0.685000   -9.085407   14.081233
 0.690000   -9.015827   13.723807
 0.695000   -8.948169   13.222854
 0.700000   -8.883599   12.553286
 0.705000   -8.822636   11.747775
 0.710000   -8.766121   10.729049
 0.715000   -8.715345   9.478189
 0.720000   -8.671339   8.084859
 0.725000   -8.634497   6.598108
 0.730000   -8.605358   5.028563
 0.735000   -8.584211   3.432915
 0.740000   -8.571029   1.908235
 0.745000   -8.565129   0.482494
 0.750000   -8.566204   -0.877305
 0.755000   -8.573902   -2.210471
 0.760000   -8.588308   -3.712216
 0.765000   -8.611024   -5.629520
 0.770000   -8.644604   -8.115783
 0.775000   -8.692182   -11.288663
 0.780000   -8.757490   -15.221304
 0.785000   -8.844395   -19.943761
 0.790000   -8.956928   -25.670846
 0.795000   -9.101103   -31.806449
 0.800000   -9.274992   -37.596930
 0.805000   -9.477073   -42.860945
 0.810000   -9.703602   -47.243692
 0.815000   -9.949510   -50.245364
 0.820000   -10.206055   -51.193839
 0.825000   -10.461448   -50.146229
 0.830000   -10.707518   -47.690222
 0.835000   -10.938350   -44.011410
 0.840000   -11.147632   -39.429631
 0.845000   -11.332647   -34.476440
 0.850000   -11.492396   -29.640504
 0.855000   -11.629052   -25.630057
 0.860000   -11.748697   -22.617886
 0.865000   -11.855230   -20.531127
 0.870000   -11.954008   -19.400311
 0.875000   -12.049234   -18.628868
 0.880000   -12.140297   -17.890266
 0.885000   -12.228136   -17.202575
 0.890000   -12.312322   -16.431216
 0.895000   -12.392448   -15.482772
 0.900000   -12.467150   -14.112505
 0.905000   -12.533573   -10.892169
 0.910000   -12.576072   -4.855857
 0.915000   -12.582132   2.573433
 0.920000   -12.550338   11.969366
 0.925000   -12.462438   28.227913
 0.930000   -12.268058   52.132595
 0.935000   -11.941112   79.298868
 0.940000   -11.475070   106.969756
 0.945000   -10.871415   127.924962
 0.950000   -10.195820   127.477198
 0.955000   -9.596643   91.118918
 0.960000   -9.284631   18.573192
 0.965000   -9.410911   -61.079447
 0.970000   -9.895425   -82.877335
 0.975000   -10.239684   29.748851
 0.980000   -9.597937   292.611331
 0.985000   -7.313571   618.852107
 0.990000   -3.409416   858.304971
 0.995000   1.269479   881.882952
 1.000000   5.409414   774.091032
201 psinorm omgvb(kRad/s) domgvb/dpsiN
 0.000000   84.075797   115.238860
 0.005000   84.527749   65.541693
 0.010000   84.731214   37.769427
 0.015000   84.905443   33.647187
 0.020000   85.067686   31.757119
 0.025000   85.223014   30.309426
 0.030000   85.370781   28.822569
 0.035000   85.511240   27.549529
 0.040000   85.646276   26.350447
 0.045000   85.774744   25.119443
 0.050000   85.897470   23.972089
 0.055000   86.014465   22.890018
 0.060000   86.126370   21.761108
 0.065000   86.232076   20.455086
 0.070000   86.330921   18.941211
 0.075000   86.421489   17.127050
 0.080000   86.502192   15.085491
 0.085000   86.572343   12.827867
 0.090000   86.630470   10.663827
 0.095000   86.678982   8.864403
 0.100000   86.719114   7.431018
 0.105000   86.753292   6.331001
 0.110000   86.782425   5.482753
 0.115000   86.808119   4.889257
 0.120000   86.831317   4.452073
 0.125000   86.852640   3.952310
 0.130000   86.870840   3.156583
 0.135000   86.884206   1.971408
 0.140000   86.890554   0.463244
 0.145000   86.888838   -1.477244
 0.150000   86.875782   -3.827683
 0.155000   86.850562   -6.502857
 0.160000   86.810753   -9.374694
 0.165000   86.756815   -12.404697
 0.170000   86.686706   -15.578383
 0.175000   86.601031   -18.796940
 0.180000   86.498737   -21.998702
 0.185000   86.381044   -24.911792
 0.190000   86.249619   -27.688316
 0.195000   86.104161   -30.218055
 0.200000   85.947438   -32.543837
 0.205000   85.778722   -34.872804
 0.210000   85.598710   -37.123880
 0.215000   85.407483   -39.488978
 0.220000   85.203821   -41.852675
 0.225000   84.988957   -44.100060
 0.230000   84.762820   -46.384877
 0.235000   84.525108   -48.508802
 0.240000   84.277732   -50.485478
 0.245000   84.020253   -52.327852
 0.250000   83.754453   -53.883601
 0.255000   83.481417   -55.298252
 0.260000   83.201471   -56.705205
 0.265000   82.914365   -58.253199
 0.270000   82.618939   -60.052327
 0.275000   82.313842   -62.027805
 0.280000   81.998661   -64.241466
 0.285000   81.671427   -66.811252
 0.290000   81.330548   -69.548780
 0.295000   80.975939   -72.491505
 0.300000   80.605633   -75.652367
 0.305000   80.219416   -78.757097
 0.310000   79.818062   -81.755639
 0.315000   79.401859   -84.571403
 0.320000   78.972348   -86.902168
 0.325000   78.532838   -88.663748
 0.330000   78.085711   -90.095584
 0.335000   77.631882   -91.309943
 0.340000   77.172611   -92.327848
 0.345000   76.708603   -93.280021
 0.350000   76.239811   -94.130887
 0.355000   75.767294   -95.060956
 0.360000   75.289202   -96.294597
 0.365000   74.804348   -97.752768
 0.370000   74.311674   -99.327610
 0.375000   73.811072   -100.853817
 0.380000   73.303136   -102.136994
 0.385000   72.789702   -102.917483
 0.390000   72.273961   -103.460923
 0.395000   71.755093   -104.482078
 0.400000   71.229140   -106.568960
 0.405000   70.689404   -110.224155
 0.410000   70.126899   -116.629457
 0.415000   69.523109   -125.018856
 0.420000   68.876710   -133.882062
 0.425000   68.184288   -143.209765
 0.430000   67.444612   -152.581540
 0.435000   66.658473   -161.522297
 0.440000   65.829389   -169.367695
 0.445000   64.964796   -174.120217
 0.450000   64.088187   -174.767600
 0.455000   63.217120   -171.916975
 0.460000   62.369018   -165.818479
 0.465000   61.558935   -156.810134
 0.470000   60.800916   -144.984837
 0.475000   60.109087   -132.005201
 0.480000   59.480864   -119.664472
 0.485000   58.912442   -108.202987
 0.490000   58.398834   -97.950108
 0.495000   57.932941   -89.180289
 0.500000   57.507031   -82.413349
 0.505000   57.108808   -77.975318
 0.510000   56.727278   -75.216342
 0.515000   56.356644   -73.557184
 0.520000   55.991706   -72.419517
 0.525000   55.632449   -71.350538
 0.530000   55.278201   -70.337019
 0.535000   54.929079   -69.037689
 0.540000   54.587824   -67.269433
 0.545000   54.256385   -65.142813
 0.550000   53.936396   -62.833123
 0.555000   53.628053   -60.290878
 0.560000   53.333487   -57.501366
 0.565000   53.053040   -54.681146
 0.570000   52.786676   -51.954276
 0.575000   52.533497   -49.384168
 0.580000   52.292834   -47.006572
 0.585000   52.063431   -45.082714
 0.590000   51.842007   -43.556952
 0.595000   51.627862   -42.230239
 0.600000   51.419705   -41.204638
 0.605000   51.215815   -40.491662
 0.610000   51.014788   -39.948031
 0.615000   50.816335   -39.488695
 0.620000   50.619901   -39.110966
 0.625000   50.425225   -38.835124
 0.630000   50.231550   -38.675170
 0.635000   50.038474   -38.686804
 0.640000   49.844682   -39.009747
 0.645000   49.648376   -39.607926
 0.650000   49.448602   -40.471485
 0.655000   49.243661   -41.661300
 0.660000   49.031989   -43.089148
 0.665000   48.812770   -44.549053
 0.670000   48.586499   -45.906664
 0.675000   48.353703   -47.110291
 0.680000   48.115396   -48.025784
 0.685000   47.873445   -48.734032
 0.690000   47.628056   -49.457287
 0.695000   47.378872   -50.332925
 0.700000   47.124726   -51.387748
 0.705000   46.864995   -52.607173
 0.710000   46.598655   -54.031588
 0.715000   46.324679   -55.764750
 0.720000   46.041007   -57.847901
 0.725000   45.746200   -60.226981
 0.730000   45.438737   -62.951823
 0.735000   45.116682   -66.123764
 0.740000   44.777500   -70.036290
 0.745000   44.416319   -75.058688
 0.750000   44.026913   -80.970821
 0.755000   43.606611   -87.432378
 0.760000   43.152589   -94.509267
 0.765000   42.661518   -102.246514
 0.770000   42.130124   -110.832689
 0.775000   41.553191   -120.206841
 0.780000   40.928056   -129.656312
 0.785000   40.256628   -138.983516
 0.790000   39.538220   -148.646138
 0.795000   38.770167   -158.081155
 0.800000   37.957409   -166.793465
 0.805000   37.102232   -174.888003
 0.810000   36.208529   -181.480763
 0.815000   35.287424   -185.663200
 0.820000   34.351897   -186.885195
 0.825000   33.418572   -185.141684
 0.830000   32.500480   -181.176274
 0.835000   31.606810   -175.793143
 0.840000   30.742549   -169.523518
 0.845000   29.911575   -163.033902
 0.850000   29.112209   -157.354538
 0.855000   28.338029   -153.610496
 0.860000   27.576105   -152.715463
 0.865000   26.810875   -156.074551
 0.870000   26.015359   -164.154564
 0.875000   25.169329   -177.092012
 0.880000   24.244439   -196.434724
 0.885000   23.204982   -223.082813
 0.890000   22.013611   -257.051779
 0.895000   20.634464   -298.080863
 0.900000   19.032802   -342.386762
 0.905000   17.210596   -383.580545
 0.910000   15.196997   -416.363113
 0.915000   13.046965   -436.341798
 0.920000   10.833579   -437.709032
 0.925000   8.669875   -411.606585
 0.930000   6.717513   -357.321645
 0.935000   5.096658   -283.689442
 0.940000   3.880618   -199.547726
 0.945000   3.101181   -119.031841
 0.950000   2.690300   -63.461339
 0.955000   2.466568   -52.023982
 0.960000   2.170060   -88.599176
 0.965000   1.580576   -145.366845
 0.970000   0.716392   -155.575274
 0.975000   0.024823   -40.289395
 0.980000   0.313498   219.053245
 0.985000   2.215356   538.854783
 0.990000   5.702046   771.150981
 0.995000   9.926865   787.855383
 1.000000   13.580599   673.638232
201 psinorm omgpp(kRad/s) domgpp/dpsiN
 0.000000   -0.037746   -18.656979
 0.005000   -0.152779   -27.356392
 0.010000   -0.311310   -32.299542
 0.015000   -0.475775   -33.442258
 0.020000   -0.645732   -34.473591
 0.025000   -0.820511   -35.348077
 0.030000   -0.999213   -36.058150
 0.035000   -1.181092   -36.589084
 0.040000   -1.365104   -36.909777
 0.045000   -1.550190   -37.013551
 0.050000   -1.735240   -36.846501
 0.055000   -1.918655   -36.392441
 0.060000   -2.099164   -35.887845
 0.065000   -2.277533   -35.298624
 0.070000   -2.452150   -34.448510
 0.075000   -2.622019   -33.389919
 0.080000   -2.786049   -32.025347
 0.085000   -2.942272   -30.256032
 0.090000   -3.088610   -28.690095
 0.095000   -3.229173   -27.310703
 0.100000   -3.361717   -25.717736
 0.105000   -3.486350   -24.167475
 0.110000   -3.603391   -22.663235
 0.115000   -3.712983   -21.138714
 0.120000   -3.814779   -19.918142
 0.125000   -3.912164   -18.661258
 0.130000   -4.001391   -16.986951
 0.135000   -4.082034   -15.250103
 0.140000   -4.153892   -13.494682
 0.145000   -4.216980   -11.536719
 0.150000   -4.269259   -9.897521
 0.155000   -4.315956   -8.527792
 0.160000   -4.354537   -6.931749
 0.165000   -4.385273   -5.399121
 0.170000   -4.408529   -3.950453
 0.175000   -4.424778   -2.492107
 0.180000   -4.433450   -1.475239
 0.185000   -4.439530   -0.893552
 0.190000   -4.442385   -0.336312
 0.195000   -4.442893   0.048068
 0.200000   -4.441904   0.281183
 0.205000   -4.440081   -0.100425
 0.210000   -4.442909   -0.389351
 0.215000   -4.443975   -0.029550
 0.220000   -4.443204   0.326157
 0.225000   -4.440713   0.752791
 0.230000   -4.435676   1.360301
 0.235000   -4.427110   1.607408
 0.240000   -4.419602   2.624750
 0.245000   -4.400863   4.777344
 0.250000   -4.371829   6.679230
 0.255000   -4.334070   8.483585
 0.260000   -4.286993   10.391984
 0.265000   -4.230151   12.339923
 0.270000   -4.163594   14.646740
 0.275000   -4.083683   17.074288
 0.280000   -3.992851   19.124897
 0.285000   -3.892434   20.923470
 0.290000   -3.783616   22.423431
 0.295000   -3.668200   23.709871
 0.300000   -3.546517   24.229732
 0.305000   -3.425903   23.665902
 0.310000   -3.309858   22.937862
 0.315000   -3.196524   22.345538
 0.320000   -3.086403   21.669907
 0.325000   -2.979825   20.931803
 0.330000   -2.877085   20.026338
 0.335000   -2.779562   19.116365
 0.340000   -2.685921   18.397935
 0.345000   -2.595582   17.745171
 0.350000   -2.508470   17.114556
 0.355000   -2.424437   16.412174
 0.360000   -2.344348   15.852311
 0.365000   -2.265913   16.133465
 0.370000   -2.183013   16.787089
 0.375000   -2.098043   17.153805
 0.380000   -2.011475   17.401655
 0.385000   -1.924026   17.553563
 0.390000   -1.835940   17.705948
 0.395000   -1.746967   17.247421
 0.400000   -1.663465   16.214525
 0.405000   -1.584821   15.210146
 0.410000   -1.511364   14.164618
 0.415000   -1.443175   13.159925
 0.420000   -1.379765   12.413482
 0.425000   -1.319040   11.347734
 0.430000   -1.266287   9.996449
 0.435000   -1.219076   8.869157
 0.440000   -1.177596   7.700671
 0.445000   -1.142069   6.487042
 0.450000   -1.112725   5.311574
 0.455000   -1.088953   3.795383
 0.460000   -1.074771   2.080805
 0.465000   -1.068145   0.615232
 0.470000   -1.068619   -0.726701
 0.475000   -1.075412   -1.882833
 0.480000   -1.087448   -2.822717
 0.485000   -1.103640   -3.632908
 0.490000   -1.123777   -4.451693
 0.495000   -1.148156   -5.266241
 0.500000   -1.176439   -6.007292
 0.505000   -1.208229   -6.667308
 0.510000   -1.243112   -7.181327
 0.515000   -1.280043   -7.648480
 0.520000   -1.319597   -8.144662
 0.525000   -1.361489   -8.586704
 0.530000   -1.405464   -8.997762
 0.535000   -1.451467   -9.406057
 0.540000   -1.499524   -9.783062
 0.545000   -1.549297   -10.266553
 0.550000   -1.602190   -10.854334
 0.555000   -1.657841   -11.356282
 0.560000   -1.715753   -11.781436
 0.565000   -1.775655   -12.153553
 0.570000   -1.837288   -12.525032
 0.575000   -1.900906   -12.996042
 0.580000   -1.967249   -13.506986
 0.585000   -2.035975   -13.975307
 0.590000   -2.107002   -14.419787
 0.595000   -2.180173   -14.831243
 0.600000   -2.255314   -15.382750
 0.605000   -2.334001   -15.934974
 0.610000   -2.414664   -16.038193
 0.615000   -2.494383   -15.945541
 0.620000   -2.574119   -15.888749
 0.625000   -2.653270   -15.712302
 0.630000   -2.731242   -15.571019
 0.635000   -2.808980   -15.363429
 0.640000   -2.884877   -14.689339
 0.645000   -2.955874   -14.149358
 0.650000   -3.026370   -14.357785
 0.655000   -3.099452   -15.201413
 0.660000   -3.178384   -17.016143
 0.665000   -3.269613   -19.869575
 0.670000   -3.377080   -21.252706
 0.675000   -3.482140   -21.281997
 0.680000   -3.589900   -21.630397
 0.685000   -3.698444   -21.532811
 0.690000   -3.805228   -21.130055
 0.695000   -3.909745   -20.538726
 0.700000   -4.010616   -17.516413
 0.705000   -4.084909   -13.130989
 0.710000   -4.141925   -9.403796
 0.715000   -4.178947   -5.159898
 0.720000   -4.193524   -0.445224
 0.725000   -4.183399   5.379199
 0.730000   -4.139732   10.682084
 0.735000   -4.076578   14.317368
 0.740000   -3.996559   17.314400
 0.745000   -3.903434   19.532215
 0.750000   -3.801237   20.929908
 0.755000   -3.694135   22.519039
 0.760000   -3.576046   21.994567
 0.765000   -3.474189   19.721602
 0.770000   -3.378830   18.267899
 0.775000   -3.291510   16.546450
 0.780000   -3.213366   14.653493
 0.785000   -3.144975   12.333009
 0.790000   -3.090036   10.197308
 0.795000   -3.043002   9.193120
 0.800000   -2.998104   8.916236
 0.805000   -2.953840   8.847662
 0.810000   -2.909628   8.817731
 0.815000   -2.865663   8.493282
 0.820000   -2.824695   8.376030
 0.825000   -2.781902   8.339401
 0.830000   -2.741301   7.458312
 0.835000   -2.707319   5.797069
 0.840000   -2.683330   3.481469
 0.845000   -2.672505   -0.092202
 0.850000   -2.684252   -4.093885
 0.855000   -2.713443   -7.353054
 0.860000   -2.757783   -10.643890
 0.865000   -2.819882   -14.179513
 0.870000   -2.899578   -17.718248
 0.875000   -2.997065   -22.754452
 0.880000   -3.127122   -28.804179
 0.885000   -3.285107   -34.304576
 0.890000   -3.470168   -41.091400
 0.895000   -3.696021   -49.982529
 0.900000   -3.969994   -60.659003
 0.905000   -4.302611   -77.459682
 0.910000   -4.744590   -100.186134
 0.915000   -5.304472   -121.147865
 0.920000   -5.956069   -146.957735
 0.925000   -6.774049   -186.420575
 0.930000   -7.820275   -240.131368
 0.935000   -9.175363   -317.758741
 0.940000   -10.997862   -421.851929
 0.945000   -13.393882   -521.113836
 0.950000   -16.209001   -605.980133
 0.955000   -19.453684   -671.349804
 0.960000   -22.922499   -676.188123
 0.965000   -26.215565   -593.816702
 0.970000   -28.860666   -406.638750
 0.975000   -30.281952   -114.581715
 0.980000   -30.006483   199.358282
 0.985000   -28.288370   454.892451
 0.990000   -25.457558   629.396676
 0.995000   -21.994403   704.766514
 1.000000   -18.409893   729.037372
201 psinorm omgeb(kRad/s) domgeb/dpsiN
 0.000000   84.038052   96.581881
 0.005000   84.374970   38.185300
 0.010000   84.419905   5.469886
 0.015000   84.429668   0.204928
 0.020000   84.421954   -2.716471
 0.025000   84.402504   -5.038651
 0.030000   84.371567   -7.235580
 0.035000   84.330148   -9.039554
 0.040000   84.281172   -10.559330
 0.045000   84.224555   -11.894108
 0.050000   84.162231   -12.874413
 0.055000   84.095810   -13.502423
 0.060000   84.027206   -14.126737
 0.065000   83.954543   -14.843538
 0.070000   83.878771   -15.507299
 0.075000   83.799470   -16.262868
 0.080000   83.716142   -16.939857
 0.085000   83.630071   -17.428165
 0.090000   83.541861   -18.026267
 0.095000   83.449809   -18.446300
 0.100000   83.357398   -18.286719
 0.105000   83.266942   -17.836475
 0.110000   83.179033   -17.180482
 0.115000   83.095137   -16.249457
 0.120000   83.016538   -15.466069
 0.125000   82.940476   -14.708948
 0.130000   82.869449   -13.830368
 0.135000   82.802172   -13.278696
 0.140000   82.736662   -13.031438
 0.145000   82.671858   -13.013964
 0.150000   82.606522   -13.725205
 0.155000   82.534606   -15.030649
 0.160000   82.456216   -16.306443
 0.165000   82.371542   -17.803819
 0.170000   82.278178   -19.528836
 0.175000   82.176253   -21.289047
 0.180000   82.065287   -23.473940
 0.185000   81.941514   -25.805344
 0.190000   81.807234   -28.024628
 0.195000   81.661268   -30.169987
 0.200000   81.505534   -32.262654
 0.205000   81.338641   -34.973229
 0.210000   81.155802   -37.513231
 0.215000   80.963509   -39.518528
 0.220000   80.760616   -41.526518
 0.225000   80.548244   -43.347269
 0.230000   80.327144   -45.024576
 0.235000   80.097998   -46.901394
 0.240000   79.858130   -47.860728
 0.245000   79.619390   -47.550508
 0.250000   79.382625   -47.204371
 0.255000   79.147347   -46.814668
 0.260000   78.914478   -46.313221
 0.265000   78.684215   -45.913277
 0.270000   78.455345   -45.405588
 0.275000   78.230159   -44.953517
 0.280000   78.005810   -45.116569
 0.285000   77.778993   -45.887782
 0.290000   77.546932   -47.125349
 0.295000   77.307739   -48.781633
 0.300000   77.059116   -51.422635
 0.305000   76.793513   -55.091195
 0.310000   76.508204   -58.817777
 0.315000   76.205335   -62.225864
 0.320000   75.885945   -65.232261
 0.325000   75.553013   -67.731946
 0.330000   75.208626   -70.069246
 0.335000   74.852320   -72.193578
 0.340000   74.486690   -73.929913
 0.345000   74.113021   -75.534850
 0.350000   73.731342   -77.016331
 0.355000   73.342858   -78.648782
 0.360000   72.944854   -80.442285
 0.365000   72.538435   -81.619303
 0.370000   72.128661   -82.540521
 0.375000   71.713030   -83.700012
 0.380000   71.291661   -84.735339
 0.385000   70.865676   -85.363920
 0.390000   70.438021   -85.754975
 0.395000   70.008127   -87.234657
 0.400000   69.565675   -90.354434
 0.405000   69.104582   -95.014009
 0.410000   68.615535   -102.464839
 0.415000   68.079934   -111.858930
 0.420000   67.496945   -121.468580
 0.425000   66.865248   -131.862031
 0.430000   66.178325   -142.585091
 0.435000   65.439397   -152.653139
 0.440000   64.651794   -161.667025
 0.445000   63.822727   -167.633175
 0.450000   62.975462   -169.456026
 0.455000   62.128167   -168.121592
 0.460000   61.294246   -163.737674
 0.465000   60.490790   -156.194902
 0.470000   59.732297   -145.711538
 0.475000   59.033675   -133.888035
 0.480000   58.393417   -122.487189
 0.485000   57.808803   -111.835894
 0.490000   57.275058   -102.401801
 0.495000   56.784785   -94.446530
 0.500000   56.330592   -88.420641
 0.505000   55.900578   -84.642626
 0.510000   55.484166   -82.397669
 0.515000   55.076602   -81.205664
 0.520000   54.672110   -80.564179
 0.525000   54.270960   -79.937242
 0.530000   53.872737   -79.334781
 0.535000   53.477612   -78.443746
 0.540000   53.088300   -77.052495
 0.545000   52.707087   -75.409366
 0.550000   52.334206   -73.687457
 0.555000   51.970212   -71.647160
 0.560000   51.617734   -69.282802
 0.565000   51.277384   -66.834700
 0.570000   50.949387   -64.479308
 0.575000   50.632591   -62.380209
 0.580000   50.325585   -60.513559
 0.585000   50.027456   -59.058021
 0.590000   49.735005   -57.976740
 0.595000   49.447688   -57.061481
 0.600000   49.164390   -56.587388
 0.605000   48.881815   -56.426636
 0.610000   48.600124   -55.986223
 0.615000   48.321952   -55.434236
 0.620000   48.045782   -54.999715
 0.625000   47.771955   -54.547426
 0.630000   47.500307   -54.246189
 0.635000   47.229493   -54.050233
 0.640000   46.959805   -53.699086
 0.645000   46.692502   -53.757284
 0.650000   46.422232   -54.829270
 0.655000   46.144210   -56.862713
 0.660000   45.853605   -60.105292
 0.665000   45.543157   -64.418628
 0.670000   45.209419   -67.159370
 0.675000   44.871563   -68.392288
 0.680000   44.525496   -69.656181
 0.685000   44.175001   -70.266843
 0.690000   43.822827   -70.587342
 0.695000   43.469128   -70.871651
 0.700000   43.114111   -68.904161
 0.705000   42.780086   -65.738163
 0.710000   42.456729   -63.435384
 0.715000   42.145732   -60.924647
 0.720000   41.847483   -58.293126
 0.725000   41.562801   -54.847782
 0.730000   41.299005   -52.269739
 0.735000   41.040104   -51.806397
 0.740000   40.780941   -52.721890
 0.745000   40.512885   -55.526473
 0.750000   40.225676   -60.040913
 0.755000   39.912476   -64.913338
 0.760000   39.576543   -72.514700
 0.765000   39.187329   -82.524912
 0.770000   38.751294   -92.564790
 0.775000   38.261681   -103.660392
 0.780000   37.714690   -115.002819
 0.785000   37.111653   -126.650507
 0.790000   36.448185   -138.448829
 0.795000   35.727164   -148.888035
 0.800000   34.959304   -157.877229
 0.805000   34.148392   -166.040341
 0.810000   33.298901   -172.663032
 0.815000   32.421762   -177.169918
 0.820000   31.527202   -178.509165
 0.825000   30.636670   -176.802283
 0.830000   29.759179   -173.717962
 0.835000   28.899490   -169.996074
 0.840000   28.059218   -166.042049
 0.845000   27.239070   -163.126104
 0.850000   26.427957   -161.448422
 0.855000   25.624586   -160.963550
 0.860000   24.818322   -163.359353
 0.865000   23.990992   -170.254064
 0.870000   23.115781   -181.872812
 0.875000   22.172264   -199.846464
 0.880000   21.117316   -225.238903
 0.885000   19.919875   -257.387389
 0.890000   18.543443   -298.143179
 0.895000   16.938443   -348.063391
 0.900000   15.062809   -403.045764
 0.905000   12.907986   -461.040227
 0.910000   10.452406   -516.549248
 0.915000   7.742493   -557.489663
 0.920000   4.877510   -584.666768
 0.925000   1.895825   -598.027160
 0.930000   -1.102762   -597.453013
 0.935000   -4.078705   -601.448183
 0.940000   -7.117244   -621.399656
 0.945000   -10.292701   -640.145677
 0.950000   -13.518700   -669.441472
 0.955000   -16.987116   -723.373786
 0.960000   -20.752438   -764.787298
 0.965000   -24.634989   -739.183547
 0.970000   -28.144274   -562.214024
 0.975000   -30.257129   -154.871110
 0.980000   -29.692985   418.411526
 0.985000   -26.073014   993.747234
 0.990000   -19.755513   1400.547657
 0.995000   -12.067537   1492.621897
 1.000000   -4.829294   1402.675604
201 psinorm er(kV/m) der/dpsiN
 0.000000   1.244179   1481.316730
 0.005000   7.197829   900.143024
 0.010000   10.245609   538.245464
 0.015000   12.580283   431.769759
 0.020000   14.563307   370.390176
 0.025000   16.284185   327.654051
 0.030000   17.839847   298.195752
 0.035000   19.266142   274.963213
 0.040000   20.589480   255.433079
 0.045000   21.820473   238.070341
 0.050000   22.970183   223.455611
 0.055000   24.055029   212.414390
 0.060000   25.094327   203.081842
 0.065000   26.085848   192.272896
 0.070000   27.017056   182.878192
 0.075000   27.914630   176.764986
 0.080000   28.784706   168.088479
 0.085000   29.595514   162.117806
 0.090000   30.405884   156.530909
 0.095000   31.160824   149.032781
 0.100000   31.896212   145.557720
 0.105000   32.616401   139.439841
 0.110000   33.290610   136.267366
 0.115000   33.979074   131.512642
 0.120000   34.605736   128.286341
 0.125000   35.261938   124.592783
 0.130000   35.851664   121.184979
 0.135000   36.473788   118.493584
 0.140000   37.036600   114.529369
 0.145000   37.619081   112.573083
 0.150000   38.162331   107.854585
 0.155000   38.697627   105.996543
 0.160000   39.222296   100.823474
 0.165000   39.705862   98.777557
 0.170000   40.210072   93.894456
 0.175000   40.644806   90.889417
 0.180000   41.118966   88.316097
 0.185000   41.527967   82.741037
 0.190000   41.946376   82.235928
 0.195000   42.350327   75.927672
 0.200000   42.705653   74.031026
 0.205000   43.090637   70.026236
 0.210000   43.405916   64.899312
 0.215000   43.739630   65.353221
 0.220000   44.059448   58.745509
 0.225000   44.327085   56.615987
 0.230000   44.625608   55.086660
 0.235000   44.877952   49.371158
 0.240000   45.119319   50.193966
 0.245000   45.379891   45.832819
 0.250000   45.577647   43.276533
 0.255000   45.812657   46.149448
 0.260000   46.039142   40.785096
 0.265000   46.220508   39.696210
 0.270000   46.436104   41.266982
 0.275000   46.633178   36.595111
 0.280000   46.802055   36.131863
 0.285000   46.994496   35.642467
 0.290000   47.158480   30.737410
 0.295000   47.301870   29.903358
 0.300000   47.457513   27.373548
 0.305000   47.575606   21.583333
 0.310000   47.673347   19.672668
 0.315000   47.772332   16.197656
 0.320000   47.835323   11.127816
 0.325000   47.883611   9.850097
 0.330000   47.933824   7.091357
 0.335000   47.954524   2.727621
 0.340000   47.961100   1.621132
 0.345000   47.970735   -0.273923
 0.350000   47.958361   -4.181947
 0.355000   47.928916   -5.653731
 0.360000   47.901824   -7.154925
 0.365000   47.857367   -10.806179
 0.370000   47.793762   -12.231586
 0.375000   47.735051   -12.880402
 0.380000   47.664958   -16.283960
 0.385000   47.572211   -17.856379
 0.390000   47.486394   -17.674233
 0.395000   47.395469   -21.174738
 0.400000   47.274647   -24.747181
 0.405000   47.147997   -27.498098
 0.410000   46.999666   -34.464467
 0.415000   46.803352   -42.676656
 0.420000   46.572899   -49.542357
 0.425000   46.307929   -57.730523
 0.430000   45.995594   -67.234795
 0.435000   45.635581   -75.280070
 0.440000   45.242793   -82.020580
 0.445000   44.815375   -88.254683
 0.450000   44.360247   -90.950148
 0.455000   43.905874   -90.291761
 0.460000   43.457329   -88.853465
 0.465000   43.017339   -85.066773
 0.470000   42.606661   -78.034300
 0.475000   42.236996   -70.367511
 0.480000   41.902986   -63.813285
 0.485000   41.598863   -56.966665
 0.490000   41.333319   -50.170097
 0.495000   41.097162   -45.891351
 0.500000   40.874406   -42.481090
 0.505000   40.672351   -39.552720
 0.510000   40.478879   -38.687509
 0.515000   40.285476   -39.055038
 0.520000   40.088328   -38.932604
 0.525000   39.896150   -38.395295
 0.530000   39.704375   -39.340202
 0.535000   39.502748   -39.412205
 0.540000   39.310253   -38.000667
 0.545000   39.122742   -37.533796
 0.550000   38.934915   -37.411838
 0.555000   38.748623   -36.046088
 0.560000   38.574455   -34.007698
 0.565000   38.408546   -33.617310
 0.570000   38.238281   -32.487564
 0.575000   38.083671   -30.244346
 0.580000   37.935838   -29.428886
 0.585000   37.789382   -29.527550
 0.590000   37.640563   -28.793544
 0.595000   37.501446   -27.571516
 0.600000   37.364847   -28.443652
 0.605000   37.217010   -29.061546
 0.610000   37.074232   -28.092958
 0.615000   36.936080   -27.760121
 0.620000   36.796631   -28.883317
 0.625000   36.647247   -28.749451
 0.630000   36.509136   -27.601529
 0.635000   36.371232   -28.302305
 0.640000   36.226113   -29.132925
 0.645000   36.079902   -28.812777
 0.650000   35.937985   -29.030708
 0.655000   35.789595   -32.095381
 0.660000   35.617032   -35.233785
 0.665000   35.437257   -37.564592
 0.670000   35.241386   -39.771782
 0.675000   35.039540   -42.459858
 0.680000   34.816787   -43.575922
 0.685000   34.603780   -42.789701
 0.690000   34.388890   -43.908263
 0.695000   34.164698   -45.522595
 0.700000   33.933664   -43.524769
 0.705000   33.729450   -40.062613
 0.710000   33.533038   -39.679680
 0.715000   33.332653   -38.620899
 0.720000   33.146829   -35.483743
 0.725000   32.977816   -32.215624
 0.730000   32.824673   -32.031945
 0.735000   32.657496   -32.086924
 0.740000   32.503803   -31.310826
 0.745000   32.344388   -33.660174
 0.750000   32.167202   -39.025925
 0.755000   31.954129   -42.975582
 0.760000   31.737446   -47.720301
 0.765000   31.476926   -56.413656
 0.770000   31.173309   -65.858143
 0.775000   30.818344   -74.644734
 0.780000   30.426862   -82.968795
 0.785000   29.988657   -93.307753
 0.790000   29.493784   -104.048551
 0.795000   28.948171   -112.309774
 0.800000   28.370687   -119.182631
 0.805000   27.756345   -126.984392
 0.810000   27.100843   -133.508314
 0.815000   26.421262   -136.991813
 0.820000   25.730925   -137.943130
 0.825000   25.041830   -137.847935
 0.830000   24.352445   -136.397639
 0.835000   23.677854   -133.157378
 0.840000   23.020872   -129.914838
 0.845000   22.378706   -128.823342
 0.850000   21.732638   -128.469139
 0.855000   21.094014   -127.889515
 0.860000   20.453743   -129.916535
 0.865000   19.794849   -136.887015
 0.870000   19.084873   -147.523417
 0.875000   18.319615   -162.262983
 0.880000   17.462243   -183.366855
 0.885000   16.485946   -210.726569
 0.890000   15.354977   -244.719930
 0.895000   14.038747   -285.849386
 0.900000   12.496483   -331.836209
 0.905000   10.720385   -380.541131
 0.910000   8.691072   -425.276416
 0.915000   6.467621   -458.510611
 0.920000   4.105966   -483.413395
 0.925000   1.633487   -505.642967
 0.930000   -0.950464   -506.654837
 0.935000   -3.433062   -503.329448
 0.940000   -5.983758   -523.304351
 0.945000   -8.666105   -591.830219
 0.950000   -11.902060   -626.039000
 0.955000   -14.926495   -633.095111
 0.960000   -18.233011   -673.310866
 0.965000   -21.659604   -705.355872
 0.970000   -25.286570   -564.213908
 0.975000   -27.301743   -152.577340
 0.980000   -26.812344   373.182229
 0.985000   -23.569921   892.881421
 0.990000   -17.883529   1261.630022
 0.995000   -10.953621   1346.059303
 1.000000   -4.422936   1266.214392
201 psinorm ommvb() dommvb/dpsiN
 0.000000   -25.466409   5421.683126
 0.005000   9.521346   8573.418907
 0.010000   60.267780   9863.770418
 0.015000   108.159051   9158.870054
 0.020000   151.856481   7992.846037
 0.025000   188.087511   6879.714896
 0.030000   220.653630   6153.470319
 0.035000   249.622214   5468.430198
 0.040000   275.337932   4953.148626
 0.045000   299.153700   4548.088171
 0.050000   320.818814   4083.109099
 0.055000   339.984791   3636.711966
 0.060000   357.185933   3142.566566
 0.065000   371.410457   2683.014054
 0.070000   384.016074   2420.196593
 0.075000   395.612423   2027.390974
 0.080000   404.289984   1709.276680
 0.085000   412.705190   1574.313390
 0.090000   420.033117   1334.454105
 0.095000   426.049731   1081.810736
 0.100000   430.851225   824.662682
 0.105000   434.296358   576.556189
 0.110000   436.616787   412.880465
 0.115000   438.425162   278.408978
 0.120000   439.400877   107.884078
 0.125000   439.504003   -61.855397
 0.130000   438.782323   -222.283556
 0.135000   437.281168   -326.663512
 0.140000   435.515687   -390.683333
 0.145000   433.374334   -561.543168
 0.150000   429.900256   -761.302049
 0.155000   425.761314   -878.653832
 0.160000   421.113717   -975.087308
 0.165000   416.010441   -1061.239705
 0.170000   410.501320   -1137.138075
 0.175000   404.639060   -1242.094602
 0.180000   398.080374   -1343.979110
 0.185000   391.199269   -1366.390187
 0.190000   384.416472   -1359.147955
 0.195000   377.607789   -1373.894041
 0.200000   370.677532   -1465.094790
 0.205000   362.956841   -1583.235194
 0.210000   354.845180   -1521.463521
 0.215000   347.742206   -1416.042951
 0.220000   340.684751   -1389.191201
 0.225000   333.850294   -1354.773184
 0.230000   327.137019   -1345.581376
 0.235000   320.394480   -1434.693657
 0.240000   312.790082   -1508.440484
 0.245000   305.310076   -1366.232293
 0.250000   299.127759   -1214.450504
 0.255000   293.165570   -1172.685676
 0.260000   287.400903   -1131.408016
 0.265000   281.851490   -1224.142502
 0.270000   275.159477   -1203.309937
 0.275000   269.818391   -996.540808
 0.280000   265.194069   -904.453645
 0.285000   260.773855   -863.481702
 0.290000   256.559252   -911.825591
 0.295000   251.655599   -908.478835
 0.300000   247.474464   -749.127904
 0.305000   244.164320   -642.243017
 0.310000   241.052034   -602.592537
 0.315000   238.138394   -646.833415
 0.320000   234.583700   -605.239444
 0.325000   232.086000   -455.087120
 0.330000   230.032828   -392.731063
 0.335000   228.158689   -373.010115
 0.340000   226.302727   -382.920639
 0.345000   224.329483   -311.802292
 0.350000   223.184704   -214.219778
 0.355000   222.187285   -185.304155
 0.360000   221.331663   -180.932985
 0.365000   220.377955   -142.745218
 0.370000   219.904211   -73.108316
 0.375000   219.646872   -39.761821
 0.380000   219.506592   -19.294163
 0.385000   219.453930   9.118506
 0.390000   219.597778   44.938241
 0.395000   219.903313   67.464571
 0.400000   220.272423   80.514274
 0.405000   220.708455   98.670323
 0.410000   221.259126   106.547045
 0.415000   221.773926   102.039187
 0.420000   222.279518   100.010301
 0.425000   222.774029   110.966256
 0.430000   223.389181   111.534887
 0.435000   223.889378   96.423149
 0.440000   224.353412   91.412059
 0.445000   224.803498   105.544944
 0.450000   225.408862   110.992093
 0.455000   225.913419   102.964835
 0.460000   226.438510   112.323124
 0.465000   227.036651   137.573243
 0.470000   227.814243   165.931760
 0.475000   228.695968   177.533335
 0.480000   229.589576   187.426977
 0.485000   230.570238   208.832551
 0.490000   231.677901   241.766622
 0.495000   232.987904   256.861061
 0.500000   234.246512   251.231856
 0.505000   235.500223   247.312937
 0.510000   236.719641   266.373569
 0.515000   238.163958   271.698942
 0.520000   239.436631   256.520507
 0.525000   240.729163   260.308799
 0.530000   242.039719   269.664527
 0.535000   243.425809   286.392671
 0.540000   244.903646   284.466853
 0.545000   246.270477   276.805394
 0.550000   247.671700   292.867798
 0.555000   249.199155   316.921616
 0.560000   250.840916   331.655032
 0.565000   252.515706   336.890701
 0.570000   254.209823   341.478471
 0.575000   255.930490   371.122197
 0.580000   257.921045   400.098299
 0.585000   259.931473   405.360719
 0.590000   261.974652   417.508250
 0.595000   264.106556   435.260665
 0.600000   266.327258   502.361811
 0.605000   269.130174   524.837000
 0.610000   271.575628   501.253252
 0.615000   274.142706   525.209855
 0.620000   276.827727   554.174781
 0.625000   279.684454   610.116474
 0.630000   282.928892   632.708904
 0.635000   286.011543   630.802797
 0.640000   289.236920   659.284005
 0.645000   292.604383   691.226582
 0.650000   296.149186   755.732190
 0.655000   300.161705   778.539739
 0.660000   303.934583   769.569079
 0.665000   307.857396   799.232132
 0.670000   311.926904   829.402299
 0.675000   316.151419   901.580404
 0.680000   320.942708   939.146266
 0.685000   325.542882   941.236387
 0.690000   330.355072   986.679072
 0.695000   335.409672   1032.019709
 0.700000   340.675269   1080.301999
 0.705000   346.212692   1159.967951
 0.710000   352.274949   1192.903664
 0.715000   358.141729   1195.166816
 0.720000   364.226617   1239.640077
 0.725000   370.538130   1284.141396
 0.730000   377.068031   1323.352475
 0.735000   383.771655   1383.896519
 0.740000   390.906996   1409.907392
 0.745000   397.870728   1406.455706
 0.750000   404.971553   1439.115099
 0.755000   412.261879   1480.461459
 0.760000   419.776168   1522.279720
 0.765000   427.484677   1561.801864
 0.770000   435.394186   1614.416797
 0.775000   443.628845   1678.163587
 0.780000   452.175822   1743.329634
 0.785000   461.062141   1817.146516
 0.790000   470.347287   1903.077841
 0.795000   480.092919   1998.535812
 0.800000   490.332646   2096.885252
 0.805000   501.061772   2196.668811
 0.810000   512.299334   2305.071501
 0.815000   524.112487   2440.079356
 0.820000   536.700127   2600.222745
 0.825000   550.114714   2781.587887
 0.830000   564.516006   2982.183877
 0.835000   579.936553   3192.010696
 0.840000   596.436113   3421.981506
 0.845000   614.156368   3679.717675
 0.850000   633.233290   3968.394913
 0.855000   653.840317   4310.719098
 0.860000   676.340481   4660.275134
 0.865000   700.443069   5005.727385
 0.870000   726.397755   5483.642182
 0.875000   755.279490   6061.845678
 0.880000   787.016211   6653.437269
 0.885000   821.813863   7275.724592
 0.890000   859.773457   7912.709612
 0.895000   900.940959   8523.679481
 0.900000   945.010252   9000.646880
 0.905000   990.947428   9288.935949
 0.910000   1037.899612   9349.964367
 0.915000   1084.447072   9032.769257
 0.920000   1128.227304   8239.782951
 0.925000   1166.844901   7104.645906
 0.930000   1199.273763   6100.619728
 0.935000   1227.851099   6105.876632
 0.940000   1260.332530   8519.315330
 0.945000   1313.044252   14969.033877
 0.950000   1410.022868   26224.453899
 0.955000   1575.288791   40555.581180
 0.960000   1815.578680   54410.154758
 0.965000   2119.390338   62433.116118
 0.970000   2439.909841   61046.702604
 0.975000   2729.857364   50175.435677
 0.980000   2941.664198   37427.683193
 0.985000   3104.134196   44078.100189
 0.990000   3382.445200   88906.479522
 0.995000   3993.198992   416726.133758
 1.000000   7549.706538   1005876.884612
201 psinorm ommpp() dommpp/dpsiN
 0.000000   109.504460   -5325.101245
 0.005000   74.853623   -8535.233606
 0.010000   24.152124   -9858.300532
 0.015000   -23.729382   -9158.665126
 0.020000   -67.434527   -7995.562508
 0.025000   -103.685007   -6884.753548
 0.030000   -136.282063   -6160.705899
 0.035000   -165.292066   -5477.469752
 0.040000   -191.056760   -4963.707956
 0.045000   -214.929146   -4559.982279
 0.050000   -236.656583   -4095.983511
 0.055000   -255.888981   -3650.214389
 0.060000   -273.158727   -3156.693304
 0.065000   -287.455914   -2697.857592
 0.070000   -300.137303   -2435.703892
 0.075000   -311.812953   -2043.653842
 0.080000   -320.573841   -1726.216537
 0.085000   -329.075118   -1591.741555
 0.090000   -336.491257   -1352.480372
 0.095000   -342.599922   -1100.257036
 0.100000   -347.493827   -842.949401
 0.105000   -351.029416   -594.392663
 0.110000   -353.437754   -430.060947
 0.115000   -355.330026   -294.658435
 0.120000   -356.384338   -123.350147
 0.125000   -356.563527   47.146449
 0.130000   -355.912874   208.453188
 0.135000   -354.478995   313.384817
 0.140000   -352.779025   377.651895
 0.145000   -350.702476   548.529205
 0.150000   -347.293733   747.576844
 0.155000   -343.226708   863.623183
 0.160000   -338.657502   958.780865
 0.165000   -333.638899   1043.435886
 0.170000   -328.223143   1117.609238
 0.175000   -322.462807   1220.805556
 0.180000   -316.015087   1320.505169
 0.185000   -309.257755   1340.584843
 0.190000   -302.609239   1331.123327
 0.195000   -295.946522   1343.724054
 0.200000   -289.171998   1432.832137
 0.205000   -281.618200   1548.261965
 0.210000   -273.689378   1483.950290
 0.215000   -266.778697   1376.524423
 0.220000   -259.924134   1347.664683
 0.225000   -253.302051   1311.425915
 0.230000   -246.809875   1300.556800
 0.235000   -240.296483   1387.792264
 0.240000   -232.931952   1460.579756
 0.245000   -225.690685   1318.681785
 0.250000   -219.745135   1167.246133
 0.255000   -214.018224   1125.871008
 0.260000   -208.486425   1085.094795
 0.265000   -203.167276   1178.229225
 0.270000   -196.704132   1157.904349
 0.275000   -191.588232   951.587291
 0.280000   -187.188259   859.337077
 0.285000   -182.994862   817.593920
 0.290000   -179.012320   864.700242
 0.295000   -174.347859   859.697202
 0.300000   -170.415348   697.705269
 0.305000   -167.370806   587.151821
 0.310000   -164.543830   543.774760
 0.315000   -161.933059   584.607551
 0.320000   -158.697754   540.007183
 0.325000   -156.532987   387.355174
 0.330000   -154.824203   322.661816
 0.335000   -153.306369   300.816537
 0.340000   -151.816037   308.990726
 0.345000   -150.216462   236.267442
 0.350000   -149.453363   137.203447
 0.355000   -148.844427   106.655373
 0.360000   -148.386809   100.490700
 0.365000   -147.839520   61.125915
 0.370000   -147.775550   -9.432204
 0.375000   -147.933842   -43.938191
 0.380000   -148.214932   -65.441176
 0.385000   -148.588254   -94.482426
 0.390000   -149.159756   -130.693216
 0.395000   -149.895186   -154.699227
 0.400000   -150.706748   -170.868708
 0.405000   -151.603873   -193.684332
 0.410000   -152.643592   -209.011884
 0.415000   -153.693992   -213.898117
 0.420000   -154.782573   -221.478882
 0.425000   -155.908781   -242.828286
 0.430000   -157.210856   -254.119978
 0.435000   -158.449981   -249.076288
 0.440000   -159.701619   -253.079084
 0.445000   -160.980771   -273.178119
 0.450000   -162.433400   -280.448119
 0.455000   -163.785253   -271.086426
 0.460000   -165.144264   -276.060799
 0.465000   -166.545861   -293.768146
 0.470000   -168.081946   -311.643298
 0.475000   -169.662294   -311.421370
 0.480000   -171.196159   -309.914166
 0.485000   -172.761435   -320.668446
 0.490000   -174.402844   -344.168423
 0.495000   -176.203119   -351.307591
 0.500000   -177.915920   -339.652497
 0.505000   -179.599644   -331.955564
 0.510000   -181.235475   -348.771238
 0.515000   -183.087357   -352.904606
 0.520000   -184.764521   -337.084687
 0.525000   -186.458204   -340.246041
 0.530000   -188.166982   -348.999308
 0.535000   -189.948197   -364.836417
 0.540000   -191.815346   -361.519349
 0.545000   -193.563390   -352.214760
 0.550000   -195.337494   -366.555255
 0.555000   -197.228943   -388.568776
 0.560000   -199.223181   -400.937833
 0.565000   -201.238321   -403.725400
 0.570000   -203.260435   -405.957778
 0.575000   -205.297899   -433.502406
 0.580000   -207.595459   -460.611858
 0.585000   -209.904017   -464.418740
 0.590000   -212.239647   -475.484990
 0.595000   -214.658867   -492.322146
 0.600000   -217.162868   -558.949199
 0.605000   -220.248359   -581.263636
 0.610000   -222.975505   -557.239475
 0.615000   -225.820754   -580.644091
 0.620000   -228.781945   -609.174497
 0.625000   -231.912499   -664.663900
 0.630000   -235.428584   -686.955093
 0.635000   -238.782050   -684.853029
 0.640000   -242.277115   -712.983091
 0.645000   -245.911881   -744.983866
 0.650000   -249.726953   -810.561461
 0.655000   -254.017496   -835.402452
 0.660000   -258.080978   -829.674371
 0.665000   -262.314239   -863.650760
 0.670000   -266.717486   -896.561668
 0.675000   -271.279856   -969.972692
 0.680000   -276.417212   -1008.802447
 0.685000   -281.367880   -1011.503230
 0.690000   -286.532245   -1057.266414
 0.695000   -291.940545   -1102.891361
 0.700000   -297.561158   -1149.206160
 0.705000   -303.432606   -1225.706114
 0.710000   -309.818220   -1256.339048
 0.715000   -315.995997   -1256.091463
 0.720000   -322.379134   -1297.933202
 0.725000   -328.975329   -1338.989178
 0.730000   -335.769026   -1375.622215
 0.735000   -342.731551   -1435.702916
 0.740000   -350.126055   -1462.629282
 0.745000   -357.357844   -1461.982180
 0.750000   -364.745877   -1499.156012
 0.755000   -372.349404   -1545.374797
 0.760000   -380.199625   -1594.794420
 0.765000   -388.297348   -1644.326776
 0.770000   -396.642893   -1706.981586
 0.775000   -405.367164   -1781.823978
 0.780000   -414.461132   -1858.332454
 0.785000   -423.950488   -1943.797023
 0.790000   -433.899103   -2041.526670
 0.795000   -444.365755   -2147.423847
 0.800000   -455.373341   -2254.762481
 0.805000   -466.913380   -2362.709152
 0.810000   -479.000433   -2477.734533
 0.815000   -491.690725   -2617.249275
 0.820000   -505.172925   -2778.731910
 0.825000   -519.478044   -2958.390170
 0.830000   -534.756827   -3155.901839
 0.835000   -551.037063   -3362.006771
 0.840000   -568.376895   -3588.023555
 0.845000   -586.917298   -3842.843779
 0.850000   -606.805333   -4129.843335
 0.855000   -628.215732   -4471.682647
 0.860000   -651.522159   -4823.634488
 0.865000   -676.452076   -5175.981449
 0.870000   -703.281974   -5665.514994
 0.875000   -733.107226   -6261.692141
 0.880000   -765.898895   -6878.676172
 0.885000   -801.893988   -7533.111981
 0.890000   -841.230015   -8210.852791
 0.895000   -884.002516   -8871.742872
 0.900000   -929.947443   -9403.692645
 0.905000   -978.039442   -9749.976176
 0.910000   -1027.447205   -9866.513615
 0.915000   -1076.704579   -9590.258920
 0.920000   -1123.349794   -8824.449719
 0.925000   -1164.949076   -7702.673066
 0.930000   -1200.376525   -6698.072741
 0.935000   -1231.929803   -6707.324815
 0.940000   -1267.449773   -9140.714986
 0.945000   -1323.336953   -15609.179554
 0.950000   -1423.541569   -26893.895371
 0.955000   -1592.275907   -41278.954967
 0.960000   -1836.331118   -55174.942056
 0.965000   -2144.025327   -63172.299665
 0.970000   -2468.054115   -61608.916628
 0.975000   -2760.114494   -50330.306787
 0.980000   -2971.357183   -37009.271667
 0.985000   -3130.207210   -43084.352955
 0.990000   -3402.200713   -87505.931866
 0.995000   -4005.266529   -415233.511861
 1.000000   -7554.535831   -1004474.209008
201 psinorm omevb() domevb/dpsiN
 0.000000   66.677681   92.436248
 0.005000   66.987985   31.685441
 0.010000   66.994535   -2.088348
 0.015000   66.967102   -7.115879
 0.020000   66.923377   -9.799969
 0.025000   66.869102   -11.884988
 0.030000   66.804527   -13.844934
 0.035000   66.730653   -15.412136
 0.040000   66.650405   -16.695379
 0.045000   66.563699   -17.793896
 0.050000   66.472466   -18.538240
 0.055000   66.378316   -18.930621
 0.060000   66.283160   -19.319667
 0.065000   66.185120   -19.801590
 0.070000   66.085144   -20.230894
 0.075000   65.982811   -20.752456
 0.080000   65.877620   -21.195916
 0.085000   65.770852   -21.451203
 0.090000   65.663108   -21.816821
 0.095000   65.552683   -22.004934
 0.100000   65.443058   -21.614027
 0.105000   65.336543   -20.933079
 0.110000   65.233727   -20.047032
 0.115000   65.136073   -18.886628
 0.120000   65.044861   -17.874567
 0.125000   64.957327   -16.889503
 0.130000   64.875966   -15.783739
 0.135000   64.799490   -15.005668
 0.140000   64.725910   -14.532823
 0.145000   64.654162   -14.290600
 0.150000   64.583004   -14.777955
 0.155000   64.506382   -15.860403
 0.160000   64.424399   -16.914115
 0.165000   64.337241   -18.190349
 0.170000   64.242496   -19.695189
 0.175000   64.140289   -21.236210
 0.180000   64.030134   -23.202929
 0.185000   63.908260   -25.317194
 0.190000   63.776962   -27.320401
 0.195000   63.635056   -29.250767
 0.200000   63.484454   -31.129549
 0.205000   63.323760   -33.627369
 0.210000   63.148181   -35.955769
 0.215000   62.964202   -37.750639
 0.220000   62.770674   -39.549397
 0.225000   62.568709   -41.162136
 0.230000   62.359053   -42.632670
 0.235000   62.142382   -44.303976
 0.240000   61.916013   -45.059079
 0.245000   61.691791   -44.545929
 0.250000   61.470554   -43.998183
 0.255000   61.251809   -43.408213
 0.260000   61.036472   -42.707858
 0.265000   60.824731   -42.110386
 0.270000   60.615368   -41.406567
 0.275000   60.410665   -40.759782
 0.280000   60.207770   -40.729554
 0.285000   60.003369   -41.308940
 0.290000   59.794681   -42.356148
 0.295000   59.579808   -43.823559
 0.300000   59.356445   -46.277191
 0.305000   59.117036   -49.759900
 0.310000   58.858846   -53.302165
 0.315000   58.584014   -56.527487
 0.320000   58.293571   -59.352683
 0.325000   57.990488   -61.672748
 0.330000   57.676844   -63.832024
 0.335000   57.352167   -65.779940
 0.340000   57.019044   -67.341483
 0.345000   56.678752   -68.773264
 0.350000   56.331312   -70.083239
 0.355000   55.977920   -71.545847
 0.360000   55.615853   -73.171181
 0.365000   55.246208   -74.181717
 0.370000   54.874036   -74.938151
 0.375000   54.496827   -75.934570
 0.380000   54.114690   -76.808544
 0.385000   53.728741   -77.277505
 0.390000   53.341915   -77.510681
 0.395000   52.953634   -78.834236
 0.400000   52.553573   -81.799649
 0.405000   52.135638   -86.306629
 0.410000   51.690507   -93.606644
 0.415000   51.199572   -102.851709
 0.420000   50.661989   -112.314128
 0.425000   50.076430   -122.562153
 0.430000   49.436368   -133.141598
 0.435000   48.745014   -143.067851
 0.440000   48.005689   -151.941766
 0.445000   47.225597   -157.769778
 0.450000   46.427992   -159.456329
 0.455000   45.631033   -157.987439
 0.460000   44.848117   -153.470914
 0.465000   44.096324   -145.797390
 0.470000   43.390143   -135.185132
 0.475000   42.744473   -123.234599
 0.480000   42.157797   -111.708591
 0.485000   41.627387   -100.934006
 0.490000   41.148457   -91.378496
 0.495000   40.713602   -83.303687
 0.500000   40.315420   -77.160140
 0.505000   39.942001   -73.266351
 0.510000   39.582757   -70.907505
 0.515000   39.232926   -69.603497
 0.520000   38.886722   -68.851899
 0.525000   38.544407   -68.116738
 0.530000   38.205555   -67.407943
 0.535000   37.870327   -66.412466
 0.540000   37.541430   -64.918664
 0.545000   37.221140   -63.174876
 0.550000   36.909681   -61.354198
 0.555000   36.607599   -59.217022
 0.560000   36.317511   -56.757675
 0.565000   36.040022   -54.216471
 0.570000   35.775346   -51.769862
 0.575000   35.522323   -49.581432
 0.580000   35.279532   -47.627329
 0.585000   35.046050   -46.086216
 0.590000   34.818670   -44.921233
 0.595000   34.596838   -43.924140
 0.600000   34.379428   -43.370074
 0.605000   34.163137   -43.131203
 0.610000   33.948116   -42.614517
 0.615000   33.736992   -41.988090
 0.620000   33.528235   -41.480950
 0.625000   33.322182   -40.957844
 0.630000   33.118657   -40.587571
 0.635000   32.916306   -40.324334
 0.640000   32.715414   -39.907626
 0.645000   32.517230   -39.901941
 0.650000   32.316394   -40.911667
 0.655000   32.108113   -42.884403
 0.660000   31.887550   -46.067744
 0.665000   31.647436   -50.323200
 0.670000   31.384318   -53.007278
 0.675000   31.117363   -54.184572
 0.680000   30.842472   -55.393657
 0.685000   30.563427   -55.950044
 0.690000   30.282972   -56.216440
 0.695000   30.001262   -56.446368
 0.700000   29.718508   -54.423648
 0.705000   29.457026   -51.200855
 0.710000   29.206500   -48.838819
 0.715000   28.968638   -46.265238
 0.720000   28.743847   -43.565879
 0.725000   28.532979   -40.045954
 0.730000   28.343388   -37.384409
 0.735000   28.159135   -36.825946
 0.740000   27.975128   -37.631368
 0.745000   27.782821   -40.306829
 0.750000   27.572060   -44.668061
 0.755000   27.336140   -49.357053
 0.760000   27.078490   -56.737290
 0.765000   26.768768   -66.479666
 0.770000   26.413693   -76.194166
 0.775000   26.006826   -86.893948
 0.780000   25.544753   -97.754879
 0.785000   25.029277   -108.817601
 0.790000   24.456577   -119.906997
 0.795000   23.830207   -129.490126
 0.800000   23.161676   -137.450461
 0.805000   22.455703   -144.384519
 0.810000   21.717831   -149.550061
 0.815000   20.960202   -152.345572
 0.820000   20.194375   -151.698527
 0.825000   19.443217   -147.720954
 0.830000   18.717166   -142.092069
 0.835000   18.022296   -135.595407
 0.840000   17.361212   -128.732492
 0.845000   16.734971   -122.950017
 0.850000   16.131712   -118.745007
 0.855000   15.547521   -116.545701
 0.860000   14.966255   -118.769260
 0.865000   14.359828   -128.126861
 0.870000   13.684986   -146.445528
 0.875000   12.895373   -177.657002
 0.880000   11.908416   -226.063596
 0.885000   10.634737   -295.458989
 0.890000   8.953826   -393.661014
 0.895000   6.698127   -528.931045
 0.900000   3.664516   -706.612751
 0.905000   -0.368001   -935.333608
 0.910000   -5.688821   -1220.011169
 0.915000   -12.568112   -1555.589645
 0.920000   -21.244717   -1941.095311
 0.925000   -31.979065   -2357.999085
 0.930000   -44.824708   -2761.939429
 0.935000   -59.598460   -3095.176802
 0.940000   -75.776476   -3264.652282
 0.945000   -92.244982   -3142.244406
 0.950000   -107.198920   -2663.483057
 0.955000   -118.879813   -1849.039544
 0.960000   -125.689315   -778.634661
 0.965000   -126.666160   394.702713
 0.970000   -121.742288   1525.499264
 0.975000   -111.411167   2525.206576
 0.980000   -96.490222   3278.539622
 0.985000   -78.625771   3685.487551
 0.990000   -59.635347   3705.868573
 0.995000   -41.567085   3329.925966
 1.000000   -26.336087   2762.473127
201 psinorm omepp() domepp/dpsiN
 0.000000   17.360371   4.145633
 0.005000   17.386984   6.499859
 0.010000   17.425369   7.558234
 0.015000   17.462567   7.320807
 0.020000   17.498577   7.083498
 0.025000   17.533402   6.846336
 0.030000   17.567041   6.609354
 0.035000   17.599495   6.372582
 0.040000   17.630766   6.136049
 0.045000   17.660856   5.899788
 0.050000   17.689764   5.663827
 0.055000   17.717494   5.428198
 0.060000   17.744046   5.192930
 0.065000   17.769423   4.958052
 0.070000   17.793627   4.723595
 0.075000   17.816659   4.489588
 0.080000   17.838523   4.256059
 0.085000   17.859220   4.023038
 0.090000   17.878753   3.790554
 0.095000   17.897125   3.558635
 0.100000   17.914339   3.327309
 0.105000   17.930398   3.096604
 0.110000   17.945306   2.866549
 0.115000   17.959064   2.637171
 0.120000   17.971677   2.408497
 0.125000   17.983149   2.180555
 0.130000   17.993483   1.953371
 0.135000   18.002683   1.726973
 0.140000   18.010753   1.501386
 0.145000   18.017697   1.276636
 0.150000   18.023519   1.052750
 0.155000   18.028224   0.829754
 0.160000   18.031816   0.607672
 0.165000   18.034301   0.386530
 0.170000   18.035682   0.166352
 0.175000   18.035964   -0.052836
 0.180000   18.035153   -0.271012
 0.185000   18.033254   -0.488150
 0.190000   18.030272   -0.704227
 0.195000   18.026212   -0.919219
 0.200000   18.021080   -1.133105
 0.205000   18.014881   -1.345860
 0.210000   18.007621   -1.557462
 0.215000   17.999306   -1.767890
 0.220000   17.989942   -1.977120
 0.225000   17.979535   -2.185133
 0.230000   17.968091   -2.391905
 0.235000   17.955616   -2.597418
 0.240000   17.942117   -2.801649
 0.245000   17.927599   -3.004579
 0.250000   17.912071   -3.206188
 0.255000   17.895538   -3.406455
 0.260000   17.878006   -3.605363
 0.265000   17.859484   -3.802891
 0.270000   17.839977   -3.999021
 0.275000   17.819494   -4.193735
 0.280000   17.798040   -4.387015
 0.285000   17.775624   -4.578843
 0.290000   17.752252   -4.769201
 0.295000   17.727932   -4.958074
 0.300000   17.702671   -5.145444
 0.305000   17.676477   -5.331296
 0.310000   17.649358   -5.515612
 0.315000   17.621321   -5.698378
 0.320000   17.592374   -5.879578
 0.325000   17.562525   -6.059198
 0.330000   17.531782   -6.237222
 0.335000   17.500153   -6.413638
 0.340000   17.467646   -6.588430
 0.345000   17.434269   -6.761586
 0.350000   17.400030   -6.933092
 0.355000   17.364938   -7.102936
 0.360000   17.329001   -7.271104
 0.365000   17.292227   -7.437586
 0.370000   17.254625   -7.602369
 0.375000   17.216203   -7.765443
 0.380000   17.176970   -7.926795
 0.385000   17.136935   -8.086415
 0.390000   17.096106   -8.244294
 0.395000   17.054492   -8.400420
 0.400000   17.012102   -8.554786
 0.405000   16.968944   -8.707380
 0.410000   16.925028   -8.858195
 0.415000   16.880362   -9.007222
 0.420000   16.834956   -9.154452
 0.425000   16.788818   -9.299878
 0.430000   16.741957   -9.443493
 0.435000   16.694383   -9.585288
 0.440000   16.646104   -9.725259
 0.445000   16.597130   -9.863397
 0.450000   16.547470   -9.999697
 0.455000   16.497133   -10.134153
 0.460000   16.446129   -10.266760
 0.465000   16.394466   -10.397512
 0.470000   16.342154   -10.526406
 0.475000   16.289202   -10.653436
 0.480000   16.235619   -10.778598
 0.485000   16.181416   -10.901889
 0.490000   16.126600   -11.023305
 0.495000   16.071183   -11.142843
 0.500000   16.015172   -11.260500
 0.505000   15.958578   -11.376275
 0.510000   15.901409   -11.490164
 0.515000   15.843676   -11.602167
 0.520000   15.785388   -11.712280
 0.525000   15.726553   -11.820504
 0.530000   15.667183   -11.926838
 0.535000   15.607285   -12.031280
 0.540000   15.546870   -12.133831
 0.545000   15.485947   -12.234491
 0.550000   15.424525   -12.333259
 0.555000   15.362614   -12.430138
 0.560000   15.300223   -12.525127
 0.565000   15.237363   -12.618229
 0.570000   15.174041   -12.709445
 0.575000   15.110268   -12.798778
 0.580000   15.046053   -12.886230
 0.585000   14.981406   -12.971805
 0.590000   14.916335   -13.055507
 0.595000   14.850851   -13.137341
 0.600000   14.784962   -13.217314
 0.605000   14.718678   -13.295433
 0.610000   14.652008   -13.371706
 0.615000   14.584961   -13.446146
 0.620000   14.517546   -13.518765
 0.625000   14.449773   -13.589582
 0.630000   14.381650   -13.658618
 0.635000   14.313187   -13.725899
 0.640000   14.244391   -13.791460
 0.645000   14.175272   -13.855343
 0.650000   14.105838   -13.917603
 0.655000   14.036096   -13.978309
 0.660000   13.966055   -14.037547
 0.665000   13.895721   -14.095428
 0.670000   13.825100   -14.152092
 0.675000   13.754200   -14.207716
 0.680000   13.683023   -14.262524
 0.685000   13.611575   -14.316799
 0.690000   13.539855   -14.370902
 0.695000   13.467866   -14.425283
 0.700000   13.395603   -14.480513
 0.705000   13.323060   -14.537307
 0.710000   13.250229   -14.596564
 0.715000   13.177095   -14.659409
 0.720000   13.103635   -14.727247
 0.725000   13.029822   -14.801828
 0.730000   12.955617   -14.885330
 0.735000   12.880969   -14.980451
 0.740000   12.805813   -15.090521
 0.745000   12.730064   -15.219644
 0.750000   12.653616   -15.372851
 0.755000   12.576335   -15.556285
 0.760000   12.498053   -15.777410
 0.765000   12.418561   -16.045247
 0.770000   12.337601   -16.370624
 0.775000   12.254855   -16.766443
 0.780000   12.169936   -17.247941
 0.785000   12.082376   -17.832906
 0.790000   11.991607   -18.541832
 0.795000   11.896957   -19.397909
 0.800000   11.797628   -20.426768
 0.805000   11.692690   -21.655822
 0.810000   11.581070   -23.112970
 0.815000   11.461560   -24.824346
 0.820000   11.332827   -26.810639
 0.825000   11.193453   -29.081329
 0.830000   11.042013   -31.625893
 0.835000   10.877195   -34.400667
 0.840000   10.698007   -37.309557
 0.845000   10.504099   -40.176087
 0.850000   10.296246   -42.703416
 0.855000   10.077065   -44.417849
 0.860000   9.852067   -44.590093
 0.865000   9.631164   -42.127203
 0.870000   9.430795   -35.427284
 0.875000   9.276891   -22.189461
 0.880000   9.208901   0.824694
 0.885000   9.285138   38.071600
 0.890000   9.589617   95.517835
 0.895000   10.240316   180.867654
 0.900000   11.398293   303.566986
 0.905000   13.275986   474.293381
 0.910000   16.141227   703.461922
 0.915000   20.310605   998.099982
 0.920000   26.122227   1356.428543
 0.925000   33.874891   1759.971925
 0.930000   43.721946   2164.486416
 0.935000   55.519755   2493.728619
 0.940000   68.659232   2643.252626
 0.945000   81.952281   2502.098729
 0.950000   93.680219   1994.041585
 0.955000   101.892697   1125.665758
 0.960000   104.936877   13.847363
 0.965000   102.031171   -1133.886259
 0.970000   93.598014   -2087.713288
 0.975000   81.154038   -2680.077686
 0.980000   66.797238   -2860.128096
 0.985000   52.552757   -2691.740317
 0.990000   39.879834   -2305.320916
 0.995000   29.499548   -1837.304069
 1.000000   21.506794   -1359.797523
201 psinorm kpol(km/s/T) dkpol/dpsiN
 0.000000   -0.014213   116.287603
 0.005000   0.446381   67.949982
 0.010000   0.665287   41.178511
 0.015000   0.858166   37.685363
 0.020000   1.042140   36.418464
 0.025000   1.222351   35.604366
 0.030000   1.398184   34.756463
 0.035000   1.569915   34.132762
 0.040000   1.739512   33.600385
 0.045000   1.905919   33.062191
 0.050000   2.070134   32.632250
 0.055000   2.232242   32.288589
 0.060000   2.393020   31.915275
 0.065000   2.551394   31.367218
 0.070000   2.706692   30.589319
 0.075000   2.857288   29.475167
 0.080000   3.001443   28.104919
 0.085000   3.138337   26.474601
 0.090000   3.266189   24.919724
 0.095000   3.387534   23.755118
 0.100000   3.503741   22.977859
 0.105000   3.617313   22.566980
 0.110000   3.729410   22.478630
 0.115000   3.842099   22.738927
 0.120000   3.956800   23.246494
 0.125000   4.074564   23.746958
 0.130000   4.194269   23.978047
 0.135000   4.314344   23.828658
 0.140000   4.432556   23.358869
 0.145000   4.547933   22.438711
 0.150000   4.656943   21.096492
 0.155000   4.758898   19.426188
 0.160000   4.851205   17.573859
 0.165000   4.934637   15.572351
 0.170000   5.006928   13.410100
 0.175000   5.068738   11.186659
 0.180000   5.118795   8.972214
 0.185000   5.158460   7.072238
 0.190000   5.189517   5.263805
 0.195000   5.211098   3.609961
 0.200000   5.225617   2.049867
 0.205000   5.231596   0.349352
 0.210000   5.229110   -1.420239
 0.215000   5.217394   -3.504599
 0.220000   5.194064   -5.797734
 0.225000   5.159417   -8.213173
 0.230000   5.111933   -10.818390
 0.235000   5.051233   -13.294096
 0.240000   4.978992   -15.712320
 0.245000   4.894110   -18.066004
 0.250000   4.798332   -20.160571
 0.255000   4.692504   -22.181308
 0.260000   4.576519   -24.119134
 0.265000   4.451313   -26.063170
 0.270000   4.315887   -28.213719
 0.275000   4.169175   -30.449914
 0.280000   4.011388   -32.833835
 0.285000   3.840837   -35.526976
 0.290000   3.656118   -38.397916
 0.295000   3.456858   -41.565884
 0.300000   3.240459   -45.022588
 0.305000   3.006632   -48.404296
 0.310000   2.756416   -51.633640
 0.315000   2.490296   -54.564637
 0.320000   2.210770   -56.843908
 0.325000   1.921857   -58.407804
 0.330000   1.626692   -59.538874
 0.335000   1.326468   -60.390604
 0.340000   1.022786   -60.997762
 0.345000   0.716490   -61.507093
 0.350000   0.407715   -61.925938
 0.355000   0.097231   -62.551481
 0.360000   -0.217800   -63.665457
 0.365000   -0.539424   -65.186557
 0.370000   -0.869666   -67.000912
 0.375000   -1.209433   -68.946443
 0.380000   -1.559130   -70.791244
 0.385000   -1.917345   -72.139869
 0.390000   -2.280529   -73.279224
 0.395000   -2.650138   -75.083359
 0.400000   -3.031362   -78.246998
 0.405000   -3.432608   -83.324821
 0.410000   -3.864610   -91.821718
 0.415000   -4.350825   -102.774728
 0.420000   -4.892358   -114.247383
 0.425000   -5.493299   -126.253449
 0.430000   -6.154892   -138.240367
 0.435000   -6.875702   -149.486161
 0.440000   -7.649754   -159.124593
 0.445000   -8.466948   -164.625343
 0.450000   -9.296007   -164.613252
 0.455000   -10.113081   -159.853180
 0.460000   -10.894539   -150.690829
 0.465000   -11.619989   -137.533060
 0.470000   -12.269870   -120.588764
 0.475000   -12.825877   -102.380732
 0.480000   -13.293677   -85.358109
 0.485000   -13.679458   -69.701211
 0.490000   -13.990689   -55.777461
 0.495000   -14.237232   -43.840192
 0.500000   -14.429091   -34.522092
 0.505000   -14.582453   -28.364644
 0.510000   -14.712737   -24.539489
 0.515000   -14.827848   -22.213335
 0.520000   -14.934871   -20.606315
 0.525000   -15.033911   -19.082433
 0.530000   -15.125695   -17.571159
 0.535000   -15.209623   -15.725909
 0.540000   -15.282954   -13.370548
 0.545000   -15.343328   -10.583719
 0.550000   -15.388791   -7.605664
 0.555000   -15.419385   -4.367303
 0.560000   -15.432464   -0.831986
 0.565000   -15.427705   2.624296
 0.570000   -15.406221   5.804971
 0.575000   -15.369655   8.698923
 0.580000   -15.319232   11.279619
 0.585000   -15.256859   13.212592
 0.590000   -15.187106   14.585754
 0.595000   -15.111001   15.698844
 0.600000   -15.030118   16.447920
 0.605000   -14.946522   16.836979
 0.610000   -14.861748   17.078494
 0.615000   -14.775737   17.307646
 0.620000   -14.688672   17.530863
 0.625000   -14.600429   17.763108
 0.630000   -14.511041   18.035817
 0.635000   -14.420070   18.282945
 0.640000   -14.328211   18.347712
 0.645000   -14.236593   18.310601
 0.650000   -14.145105   18.268339
 0.655000   -14.053910   18.125029
 0.660000   -13.963855   17.846958
 0.665000   -13.875440   17.574958
 0.670000   -13.788105   17.350504
 0.675000   -13.701935   17.120601
 0.680000   -13.616899   16.868510
 0.685000   -13.533250   16.518138
 0.690000   -13.451718   16.052635
 0.695000   -13.372724   15.376500
 0.700000   -13.297953   14.445150
 0.705000   -13.228272   13.297938
 0.710000   -13.164973   11.824675
 0.715000   -13.110026   10.000121
 0.720000   -13.064972   7.951056
 0.725000   -13.030515   5.744509
 0.730000   -13.007527   3.403877
 0.735000   -12.996476   1.017234
 0.740000   -12.997355   -1.276208
 0.745000   -13.009238   -3.434642
 0.750000   -13.031701   -5.499146
 0.755000   -13.064230   -7.530513
 0.760000   -13.107006   -9.832510
 0.765000   -13.162555   -12.784640
 0.770000   -13.234853   -16.617120
 0.775000   -13.328726   -21.519908
 0.780000   -13.450052   -27.618721
 0.785000   -13.604913   -34.962847
 0.790000   -13.799680   -43.885149
 0.795000   -14.043765   -53.477877
 0.800000   -14.334459   -62.587294
 0.805000   -14.669638   -70.922824
 0.810000   -15.043687   -77.922034
 0.815000   -15.448858   -82.807112
 0.820000   -15.871758   -84.524008
 0.825000   -16.294098   -83.136182
 0.830000   -16.703120   -79.535782
 0.835000   -17.089456   -74.007028
 0.840000   -17.443191   -67.044333
 0.845000   -17.759899   -59.464559
 0.850000   -18.037836   -52.028473
 0.855000   -18.280184   -45.858082
 0.860000   -18.496417   -41.238174
 0.865000   -18.692566   -38.054630
 0.870000   -18.876963   -36.361622
 0.875000   -19.056182   -35.231428
 0.880000   -19.229278   -34.154366
 0.885000   -19.397726   -33.150785
 0.890000   -19.560785   -32.003976
 0.895000   -19.717765   -30.573226
 0.900000   -19.866518   -28.467963
 0.905000   -20.002445   -23.392840
 0.910000   -20.100446   -13.783463
 0.915000   -20.140280   -1.901676
 0.920000   -20.119463   13.189428
 0.925000   -20.008385   39.387481
 0.930000   -19.725588   78.012777
 0.935000   -19.228258   122.067678
 0.940000   -18.504911   167.128939
 0.945000   -17.556968   201.536284
 0.950000   -16.489548   201.441373
 0.955000   -15.542555   143.117801
 0.960000   -15.058370   25.804971
 0.965000   -15.284505   -103.528247
 0.970000   -16.093653   -139.194748
 0.975000   -16.676452   44.094014
 0.980000   -15.652713   473.286973
 0.985000   -11.943583   1007.728918
 0.990000   -5.575424   1402.239163
 0.995000   2.078809   1444.556961
 1.000000   8.870146   1271.977844
201 psinorm omghb() domghb/dpsiN
 0.000000   -0.000050   0.012369
 0.005000   -0.000045   -0.010603
 0.010000   -0.000156   0.002837
 0.015000   -0.000017   0.033918
 0.020000   0.000183   0.043041
 0.025000   0.000413   0.048610
 0.030000   0.000669   0.057435
 0.035000   0.000988   0.065297
 0.040000   0.001322   0.069638
 0.045000   0.001684   0.071751
 0.050000   0.002040   0.069611
 0.055000   0.002380   0.067884
 0.060000   0.002719   0.066445
 0.065000   0.003045   0.063029
 0.070000   0.003349   0.080379
 0.075000   0.003848   0.101122
 0.080000   0.004360   0.094194
 0.085000   0.004790   0.085493
 0.090000   0.005215   0.078551
 0.095000   0.005576   0.041826
 0.100000   0.005633   0.032978
 0.105000   0.005906   0.036793
 0.110000   0.006001   0.014296
 0.115000   0.006049   -0.007112
 0.120000   0.005930   -0.017120
 0.125000   0.005877   -0.038537
 0.130000   0.005545   -0.037830
 0.135000   0.005499   0.013672
 0.140000   0.005682   0.055394
 0.145000   0.006053   0.087423
 0.150000   0.006556   0.119628
 0.155000   0.007249   0.143105
 0.160000   0.007987   0.180775
 0.165000   0.009057   0.241953
 0.170000   0.010406   0.259067
 0.175000   0.011648   0.276777
 0.180000   0.013174   0.298598
 0.185000   0.014634   0.314596
 0.190000   0.016320   0.366123
 0.195000   0.018295   0.368080
 0.200000   0.020001   0.360937
 0.205000   0.021904   0.365824
 0.210000   0.023659   0.374902
 0.215000   0.025653   0.430208
 0.220000   0.027961   0.476824
 0.225000   0.030422   0.350411
 0.230000   0.031465   0.245107
 0.235000   0.032873   0.247782
 0.240000   0.033943   0.202089
 0.245000   0.034894   0.160842
 0.250000   0.035552   0.137006
 0.255000   0.036264   0.006718
 0.260000   0.035619   -0.054280
 0.265000   0.035721   0.043249
 0.270000   0.036051   0.083914
 0.275000   0.036560   0.127575
 0.280000   0.037327   0.110552
 0.285000   0.037665   0.220821
 0.290000   0.039535   0.427437
 0.295000   0.041940   0.551653
 0.300000   0.045052   0.665997
 0.305000   0.048600   0.736507
 0.310000   0.052417   0.709479
 0.315000   0.055695   0.738883
 0.320000   0.059806   0.725615
 0.325000   0.062951   0.605978
 0.330000   0.065865   0.548218
 0.335000   0.068433   0.473659
 0.340000   0.070602   0.503547
 0.345000   0.073468   0.509071
 0.350000   0.075693   0.446958
 0.355000   0.077938   0.447968
 0.360000   0.080172   0.445554
 0.365000   0.082394   0.448883
 0.370000   0.084661   0.425872
 0.375000   0.086652   0.338548
 0.380000   0.088047   0.305772
 0.385000   0.089710   0.314844
 0.390000   0.091195   0.355336
 0.395000   0.093263   0.644010
 0.400000   0.097635   1.044795
 0.405000   0.103711   1.481280
 0.410000   0.112448   1.932962
 0.415000   0.123041   2.239357
 0.420000   0.134842   2.640343
 0.425000   0.149444   2.882089
 0.430000   0.163663   2.625771
 0.435000   0.175702   2.278403
 0.440000   0.186447   1.904739
 0.445000   0.194749   1.307982
 0.450000   0.199526   0.519777
 0.455000   0.199947   -0.463395
 0.460000   0.194892   -1.307136
 0.465000   0.186876   -1.857097
 0.470000   0.176321   -2.304904
 0.475000   0.163827   -2.546475
 0.480000   0.150857   -2.716170
 0.485000   0.136665   -2.499755
 0.490000   0.125859   -1.929318
 0.495000   0.117372   -1.460962
 0.500000   0.111250   -1.038178
 0.505000   0.106990   -0.677976
 0.510000   0.104470   -0.300671
 0.515000   0.103983   -0.048171
 0.520000   0.103988   -0.032542
 0.525000   0.103658   -0.095642
 0.530000   0.103032   -0.092734
 0.535000   0.102731   -0.144173
 0.540000   0.101590   -0.248550
 0.545000   0.100245   -0.329208
 0.550000   0.098298   -0.421115
 0.555000   0.096034   -0.502706
 0.560000   0.093271   -0.559805
 0.565000   0.090436   -0.542962
 0.570000   0.087841   -0.517829
 0.575000   0.085258   -0.479616
 0.580000   0.083045   -0.382841
 0.585000   0.081429   -0.212783
 0.590000   0.080917   -0.172516
 0.595000   0.079704   -0.164342
 0.600000   0.079274   -0.053851
 0.605000   0.079166   -0.029532
 0.610000   0.078978   -0.041790
 0.615000   0.078748   0.073021
 0.620000   0.079709   -0.034383
 0.625000   0.078404   -0.170658
 0.630000   0.078002   -0.070827
 0.635000   0.077696   -0.021804
 0.640000   0.077784   0.065077
 0.645000   0.078346   0.331756
 0.650000   0.081102   0.616042
 0.655000   0.084507   0.813737
 0.660000   0.089239   0.973529
 0.665000   0.094242   0.944047
 0.670000   0.098679   0.805575
 0.675000   0.102298   0.988948
 0.680000   0.108569   0.549877
 0.685000   0.107797   -0.195718
 0.690000   0.106612   -0.190303
 0.695000   0.105894   -0.244841
 0.700000   0.104163   -0.391970
 0.705000   0.101974   -0.429095
 0.710000   0.099872   -0.792518
 0.715000   0.094049   -1.049563
 0.720000   0.089377   -0.820410
 0.725000   0.085845   -0.624473
 0.730000   0.083132   -0.370125
 0.735000   0.082143   -0.175372
 0.740000   0.081378   0.338622
 0.745000   0.085530   1.330338
 0.750000   0.094682   1.916683
 0.755000   0.104696   2.384762
 0.760000   0.118529   2.811430
 0.765000   0.132811   2.952755
 0.770000   0.148057   3.420004
 0.775000   0.167011   3.979188
 0.780000   0.187849   4.019014
 0.785000   0.207201   3.935195
 0.790000   0.227201   3.793339
 0.795000   0.245134   3.475357
 0.800000   0.261954   3.172061
 0.805000   0.276855   2.525848
 0.810000   0.287213   1.814960
 0.815000   0.295004   1.254699
 0.820000   0.299760   0.410648
 0.825000   0.299111   -0.485668
 0.830000   0.294903   -1.049904
 0.835000   0.288612   -1.365788
 0.840000   0.281245   -1.278419
 0.845000   0.275828   -0.656775
 0.850000   0.274677   0.003516
 0.855000   0.275863   0.665884
 0.860000   0.281336   2.160111
 0.865000   0.297464   3.175507
 0.870000   0.313091   4.462717
 0.875000   0.342091   7.258780
 0.880000   0.385679   10.207246
 0.885000   0.444164   13.196427
 0.890000   0.517643   17.663804
 0.895000   0.620802   19.024245
 0.900000   0.707886   18.906214
 0.905000   0.809864   19.259130
 0.910000   0.900477   17.409992
 0.915000   0.983964   14.155311
 0.920000   1.042030   13.009819
 0.925000   1.114062   4.930628
 0.930000   1.091337   -0.899167
 0.935000   1.105070   3.721239
 0.940000   1.128549   7.637591
 0.945000   1.181446   15.073658
 0.950000   1.279286   32.743050
 0.955000   1.508877   27.106272
 0.960000   1.550348   -2.579387
 0.965000   1.483083   -39.956516
 0.970000   1.150783   -110.392186
 0.975000   0.379161   -196.380221
 0.980000   -0.813019   -249.335942
 0.985000   -2.114199   -223.324752
 0.990000   -3.046267   -110.285707
 0.995000   -3.217056   32.671286
 1.000000   -2.719554   166.329431
201 psinorm nz1(10^20/m^3) dnz1/dpsiN
 0.000000   0.051049   -0.000000
 0.005000   0.051047   -0.000728
 0.010000   0.051042   -0.001461
 0.015000   0.051033   -0.002201
 0.020000   0.051020   -0.002947
 0.025000   0.051003   -0.003696
 0.030000   0.050983   -0.004445
 0.035000   0.050959   -0.005191
 0.040000   0.050931   -0.005931
 0.045000   0.050899   -0.006660
 0.050000   0.050864   -0.007378
 0.055000   0.050826   -0.008079
 0.060000   0.050783   -0.008761
 0.065000   0.050738   -0.009418
 0.070000   0.050689   -0.010044
 0.075000   0.050638   -0.010637
 0.080000   0.050583   -0.011199
 0.085000   0.050526   -0.011729
 0.090000   0.050466   -0.012225
 0.095000   0.050403   -0.012689
 0.100000   0.050339   -0.013119
 0.105000   0.050272   -0.013518
 0.110000   0.050204   -0.013887
 0.115000   0.050133   -0.014220
 0.120000   0.050061   -0.014517
 0.125000   0.049988   -0.014779
 0.130000   0.049914   -0.015005
 0.135000   0.049838   -0.015198
 0.140000   0.049762   -0.015356
 0.145000   0.049684   -0.015478
 0.150000   0.049607   -0.015562
 0.155000   0.049529   -0.015609
 0.160000   0.049451   -0.015618
 0.165000   0.049373   -0.015589
 0.170000   0.049295   -0.015521
 0.175000   0.049217   -0.015412
 0.180000   0.049141   -0.015263
 0.185000   0.049065   -0.015075
 0.190000   0.048990   -0.014847
 0.195000   0.048916   -0.014581
 0.200000   0.048844   -0.014282
 0.205000   0.048774   -0.013956
 0.210000   0.048705   -0.013608
 0.215000   0.048637   -0.013238
 0.220000   0.048572   -0.012849
 0.225000   0.048509   -0.012441
 0.230000   0.048448   -0.012005
 0.235000   0.048389   -0.011530
 0.240000   0.048333   -0.011019
 0.245000   0.048279   -0.010469
 0.250000   0.048228   -0.009878
 0.255000   0.048180   -0.009248
 0.260000   0.048135   -0.008572
 0.265000   0.048094   -0.007850
 0.270000   0.048057   -0.007086
 0.275000   0.048023   -0.006285
 0.280000   0.047994   -0.005451
 0.285000   0.047969   -0.004588
 0.290000   0.047948   -0.003705
 0.295000   0.047932   -0.002811
 0.300000   0.047920   -0.001915
 0.305000   0.047913   -0.001023
 0.310000   0.047910   -0.000141
 0.315000   0.047911   0.000724
 0.320000   0.047917   0.001573
 0.325000   0.047927   0.002408
 0.330000   0.047941   0.003234
 0.335000   0.047959   0.004053
 0.340000   0.047982   0.004869
 0.345000   0.048008   0.005685
 0.350000   0.048038   0.006496
 0.355000   0.048073   0.007291
 0.360000   0.048111   0.008061
 0.365000   0.048154   0.008801
 0.370000   0.048199   0.009502
 0.375000   0.048249   0.010154
 0.380000   0.048301   0.010746
 0.385000   0.048356   0.011271
 0.390000   0.048414   0.011725
 0.395000   0.048473   0.012102
 0.400000   0.048535   0.012396
 0.405000   0.048597   0.012596
 0.410000   0.048661   0.012706
 0.415000   0.048724   0.012749
 0.420000   0.048788   0.012733
 0.425000   0.048852   0.012659
 0.430000   0.048915   0.012532
 0.435000   0.048977   0.012354
 0.440000   0.049038   0.012131
 0.445000   0.049098   0.011857
 0.450000   0.049157   0.011517
 0.455000   0.049213   0.011098
 0.460000   0.049268   0.010586
 0.465000   0.049319   0.009972
 0.470000   0.049368   0.009241
 0.475000   0.049412   0.008386
 0.480000   0.049451   0.007410
 0.485000   0.049486   0.006322
 0.490000   0.049515   0.005129
 0.495000   0.049537   0.003839
 0.500000   0.049553   0.002466
 0.505000   0.049562   0.001025
 0.510000   0.049563   -0.000470
 0.515000   0.049557   -0.002010
 0.520000   0.049543   -0.003584
 0.525000   0.049521   -0.005184
 0.530000   0.049491   -0.006801
 0.535000   0.049453   -0.008444
 0.540000   0.049407   -0.010120
 0.545000   0.049352   -0.011830
 0.550000   0.049289   -0.013580
 0.555000   0.049216   -0.015372
 0.560000   0.049135   -0.017204
 0.565000   0.049044   -0.019064
 0.570000   0.048944   -0.020940
 0.575000   0.048835   -0.022826
 0.580000   0.048716   -0.024715
 0.585000   0.048588   -0.026600
 0.590000   0.048450   -0.028478
 0.595000   0.048303   -0.030348
 0.600000   0.048146   -0.032212
 0.605000   0.047981   -0.034067
 0.610000   0.047806   -0.035911
 0.615000   0.047622   -0.037739
 0.620000   0.047428   -0.039556
 0.625000   0.047226   -0.041349
 0.630000   0.047015   -0.043098
 0.635000   0.046795   -0.044802
 0.640000   0.046567   -0.046455
 0.645000   0.046331   -0.048058
 0.650000   0.046086   -0.049711
 0.655000   0.045833   -0.051602
 0.660000   0.045570   -0.053865
 0.665000   0.045295   -0.056546
 0.670000   0.045005   -0.059646
 0.675000   0.044698   -0.063130
 0.680000   0.044374   -0.067191
 0.685000   0.044026   -0.071559
 0.690000   0.043658   -0.075697
 0.695000   0.043269   -0.079566
 0.700000   0.042862   -0.083104
 0.705000   0.042438   -0.086175
 0.710000   0.042001   -0.088731
 0.715000   0.041551   -0.090476
 0.720000   0.041096   -0.091136
 0.725000   0.040640   -0.090823
 0.730000   0.040188   -0.089615
 0.735000   0.039744   -0.087554
 0.740000   0.039312   -0.084563
 0.745000   0.038898   -0.080712
 0.750000   0.038505   -0.076475
 0.755000   0.038133   -0.072146
 0.760000   0.037783   -0.067800
 0.765000   0.037455   -0.063577
 0.770000   0.037148   -0.059512
 0.775000   0.036860   -0.055759
 0.780000   0.036590   -0.052593
 0.785000   0.036334   -0.049970
 0.790000   0.036090   -0.047708
 0.795000   0.035857   -0.045710
 0.800000   0.035633   -0.043849
 0.805000   0.035419   -0.041979
 0.810000   0.035213   -0.040026
 0.815000   0.035018   -0.038021
 0.820000   0.034833   -0.036008
 0.825000   0.034658   -0.034013
 0.830000   0.034493   -0.032054
 0.835000   0.034338   -0.030141
 0.840000   0.034192   -0.028309
 0.845000   0.034055   -0.026591
 0.850000   0.033926   -0.025012
 0.855000   0.033805   -0.023615
 0.860000   0.033690   -0.022445
 0.865000   0.033580   -0.021576
 0.870000   0.033474   -0.020969
 0.875000   0.033370   -0.020570
 0.880000   0.033268   -0.020443
 0.885000   0.033166   -0.020669
 0.890000   0.033062   -0.021347
 0.895000   0.032952   -0.022826
 0.900000   0.032833   -0.025243
 0.905000   0.032700   -0.028880
 0.910000   0.032544   -0.034557
 0.915000   0.032354   -0.043278
 0.920000   0.032112   -0.056610
 0.925000   0.031788   -0.078536
 0.930000   0.031326   -0.112535
 0.935000   0.030663   -0.161964
 0.940000   0.029707   -0.231886
 0.945000   0.028344   -0.324636
 0.950000   0.026460   -0.436595
 0.955000   0.023978   -0.558693
 0.960000   0.020873   -0.661327
 0.965000   0.017365   -0.708811
 0.970000   0.013785   -0.687821
 0.975000   0.010487   -0.605791
 0.980000   0.007727   -0.488216
 0.985000   0.005605   -0.365171
 0.990000   0.004076   -0.258074
 0.995000   0.003024   -0.176334
 1.000000   0.002312   -0.108257
201 psinorm vtor1(km/s) dvtor1/dpsiN
 0.000000   147.845159   696.873002
 0.005000   150.550294   385.181081
 0.010000   151.696970   202.013684
 0.015000   152.570431   159.815525
 0.020000   153.295125   135.400100
 0.025000   153.924432   119.636569
 0.030000   154.491491   108.543982
 0.035000   155.009872   99.128304
 0.040000   155.482774   91.239519
 0.045000   155.922267   85.006026
 0.050000   156.332834   79.419571
 0.055000   156.716463   74.176355
 0.060000   157.074597   69.512393
 0.065000   157.411587   65.386426
 0.070000   157.728462   61.349375
 0.075000   158.025080   57.529046
 0.080000   158.303752   54.051180
 0.085000   158.565592   50.760707
 0.090000   158.811359   47.519827
 0.095000   159.040790   44.460245
 0.100000   159.255962   41.672058
 0.105000   159.457511   38.944822
 0.110000   159.645410   36.193698
 0.115000   159.819448   33.502587
 0.120000   159.980436   30.841439
 0.125000   160.127862   28.019508
 0.130000   160.260631   25.163946
 0.135000   160.379502   22.314854
 0.140000   160.483779   19.337553
 0.145000   160.572877   16.270287
 0.150000   160.646482   13.163155
 0.155000   160.704509   9.989151
 0.160000   160.746374   6.653253
 0.165000   160.771041   3.251661
 0.170000   160.778890   -0.104394
 0.175000   160.769997   -3.474273
 0.180000   160.744148   -6.874457
 0.185000   160.701253   -10.216533
 0.190000   160.641982   -13.411159
 0.195000   160.567141   -16.412984
 0.200000   160.477852   -19.189715
 0.205000   160.375244   -21.715829
 0.210000   160.260694   -23.977623
 0.215000   160.135468   -26.000477
 0.220000   160.000689   -27.693107
 0.225000   159.858537   -28.944049
 0.230000   159.711249   -29.996388
 0.235000   159.558573   -30.967768
 0.240000   159.401571   -31.734851
 0.245000   159.241224   -32.333668
 0.250000   159.078235   -32.811770
 0.255000   158.913107   -33.127906
 0.260000   158.746956   -33.537628
 0.265000   158.577730   -34.239311
 0.270000   158.404562   -35.136507
 0.275000   158.226365   -36.254629
 0.280000   158.042016   -37.618889
 0.285000   157.850176   -39.243748
 0.290000   157.649579   -40.957624
 0.295000   157.440600   -42.631374
 0.300000   157.223265   -44.313966
 0.305000   156.997461   -46.036889
 0.310000   156.762896   -47.802807
 0.315000   156.519433   -49.672925
 0.320000   156.266167   -51.613206
 0.325000   156.003300   -53.541711
 0.330000   155.730750   -55.468554
 0.335000   155.448615   -57.380332
 0.340000   155.156946   -59.283617
 0.345000   154.855779   -61.202112
 0.350000   154.544925   -63.051213
 0.355000   154.225267   -64.751855
 0.360000   153.897407   -66.314519
 0.365000   153.562121   -67.702483
 0.370000   153.220382   -68.884373
 0.375000   152.873278   -69.797679
 0.380000   152.522405   -70.373356
 0.385000   152.169544   -70.665148
 0.390000   151.815754   -70.802232
 0.395000   151.461522   -70.922379
 0.400000   151.106530   -71.158192
 0.405000   150.749940   -71.705782
 0.410000   150.389472   -72.757164
 0.415000   150.022368   -74.234695
 0.420000   149.647125   -75.984651
 0.425000   149.262522   -77.975325
 0.430000   148.867372   -80.192460
 0.435000   148.460597   -82.746262
 0.440000   148.039909   -85.556682
 0.445000   147.605030   -88.289409
 0.450000   147.157015   -90.890121
 0.455000   146.696129   -93.394308
 0.460000   146.223072   -95.736784
 0.465000   145.738761   -97.965772
 0.470000   145.243414   -99.921161
 0.475000   144.739550   -101.225238
 0.480000   144.231162   -101.911636
 0.485000   143.720433   -102.242056
 0.490000   143.208741   -102.368383
 0.495000   142.696749   -102.486429
 0.500000   142.183877   -102.779317
 0.505000   141.668956   -103.149587
 0.510000   141.152381   -103.496814
 0.515000   140.633988   -103.876618
 0.520000   140.113615   -104.259623
 0.525000   139.591392   -104.653474
 0.530000   139.067080   -105.126980
 0.535000   138.540122   -105.477954
 0.540000   138.012301   -105.584486
 0.545000   137.484277   -105.560695
 0.550000   136.956694   -105.397408
 0.555000   136.430303   -105.100297
 0.560000   135.905691   -104.706322
 0.565000   135.383240   -104.091679
 0.570000   134.864774   -103.228238
 0.575000   134.350958   -102.255788
 0.580000   133.842216   -101.207381
 0.585000   133.338884   -100.130075
 0.590000   132.840915   -99.060190
 0.595000   132.348282   -98.025058
 0.600000   131.860665   -97.079852
 0.605000   131.377483   -96.258532
 0.610000   130.898079   -95.577279
 0.615000   130.421711   -95.062244
 0.620000   129.947457   -94.702330
 0.625000   129.474687   -94.565923
 0.630000   129.001798   -94.744137
 0.635000   128.527246   -95.252732
 0.640000   128.049270   -96.150494
 0.645000   127.565741   -97.495864
 0.650000   127.074312   -99.415418
 0.655000   126.571587   -101.891811
 0.660000   126.055394   -104.686725
 0.665000   125.524720   -107.568308
 0.670000   124.979711   -110.314573
 0.675000   124.421574   -112.721206
 0.680000   123.852499   -114.475441
 0.685000   123.276819   -115.650986
 0.690000   122.695989   -116.697015
 0.695000   122.109849   -117.768367
 0.700000   121.518305   -118.864560
 0.705000   120.921204   -120.019338
 0.710000   120.318112   -121.160663
 0.715000   119.709597   -122.469618
 0.720000   119.093415   -124.233080
 0.725000   118.467266   -126.439306
 0.730000   117.829022   -129.222672
 0.735000   117.175039   -132.933950
 0.740000   116.499683   -138.422522
 0.745000   115.790814   -146.566059
 0.750000   115.034022   -156.820903
 0.755000   114.222605   -168.358392
 0.760000   113.350438   -180.901534
 0.765000   112.413590   -194.007849
 0.770000   111.410360   -207.761806
 0.775000   110.335972   -221.767866
 0.780000   109.192681   -234.297304
 0.785000   107.992999   -244.851485
 0.790000   106.744166   -253.952874
 0.795000   105.453470   -261.671983
 0.800000   104.127447   -268.573419
 0.805000   102.767736   -275.289339
 0.810000   101.374553   -280.647530
 0.815000   99.961261   -283.737967
 0.820000   98.537173   -284.828795
 0.825000   97.112973   -283.772377
 0.830000   95.699450   -280.908474
 0.835000   94.303888   -277.602805
 0.840000   92.923422   -274.324887
 0.845000   91.560639   -271.373784
 0.850000   90.209684   -269.951394
 0.855000   88.861125   -270.993758
 0.860000   87.499746   -276.155408
 0.865000   86.099571   -288.742233
 0.870000   84.612324   -309.746993
 0.875000   83.002101   -340.833768
 0.880000   81.203986   -386.216039
 0.885000   79.139941   -447.905557
 0.890000   76.724931   -526.289417
 0.895000   73.877047   -621.042620
 0.900000   70.514504   -724.287609
 0.905000   66.634170   -824.932742
 0.910000   62.265177   -913.253385
 0.915000   57.501637   -976.158585
 0.920000   52.503591   -1001.815138
 0.925000   47.483485   -981.205696
 0.930000   42.691534   -914.352898
 0.935000   38.339956   -811.142245
 0.940000   34.580112   -685.160864
 0.945000   31.488348   -551.938381
 0.950000   29.060728   -426.411178
 0.955000   27.224236   -319.162734
 0.960000   25.869101   -238.390395
 0.965000   24.840332   -187.023138
 0.970000   23.998869   -161.093766
 0.975000   23.229394   -155.314209
 0.980000   22.445727   -163.516468
 0.985000   21.594230   -178.346729
 0.990000   20.662260   -194.830078
 0.995000   19.645929   -210.701612
 1.000000   18.555244   -225.572381
201 psinorm vpol1(km/s) dvpol1/dpsiN
 0.000000   -0.000088   4.012695
 0.005000   0.021141   4.478711
 0.010000   0.044699   4.942188
 0.015000   0.070563   5.394727
 0.020000   0.098646   5.829492
 0.025000   0.128857   6.228711
 0.030000   0.160934   6.574414
 0.035000   0.194602   6.877930
 0.040000   0.229713   7.147852
 0.045000   0.266080   7.396094
 0.050000   0.303674   7.627734
 0.055000   0.342357   7.843359
 0.060000   0.382107   8.035352
 0.065000   0.422711   8.180273
 0.070000   0.463910   8.261523
 0.075000   0.505326   8.259375
 0.080000   0.546504   8.183984
 0.085000   0.587166   8.041406
 0.090000   0.626918   7.868750
 0.095000   0.665854   7.750586
 0.100000   0.704424   7.700391
 0.105000   0.742857   7.705273
 0.110000   0.781477   7.770898
 0.115000   0.820566   7.907617
 0.120000   0.860553   8.102930
 0.125000   0.901596   8.292383
 0.130000   0.943477   8.423437
 0.135000   0.985830   8.473242
 0.140000   1.028209   8.435938
 0.145000   1.070189   8.289258
 0.150000   1.111102   8.024805
 0.155000   1.150438   7.673828
 0.160000   1.187840   7.250781
 0.165000   1.222945   6.769531
 0.170000   1.255535   6.246484
 0.175000   1.285410   5.673828
 0.180000   1.312273   5.100000
 0.185000   1.336410   4.573437
 0.190000   1.358008   4.070703
 0.195000   1.377117   3.589453
 0.200000   1.393902   3.112500
 0.205000   1.408242   2.613281
 0.210000   1.420035   2.061328
 0.215000   1.428855   1.425391
 0.220000   1.434289   0.716406
 0.225000   1.436020   -0.049609
 0.230000   1.433793   -0.854688
 0.235000   1.427473   -1.664844
 0.240000   1.417145   -2.465234
 0.245000   1.402820   -3.238281
 0.250000   1.384762   -3.971484
 0.255000   1.363105   -4.674609
 0.260000   1.338016   -5.363281
 0.265000   1.309473   -6.073437
 0.270000   1.277281   -6.827734
 0.275000   1.241195   -7.632422
 0.280000   1.200957   -8.492969
 0.285000   1.156266   -9.428125
 0.290000   1.106676   -10.451172
 0.295000   1.051754   -11.573828
 0.300000   0.990938   -12.770703
 0.305000   0.924047   -13.977344
 0.310000   0.851164   -15.144922
 0.315000   0.772598   -16.211719
 0.320000   0.689047   -17.098047
 0.325000   0.601617   -17.762500
 0.330000   0.511422   -18.280469
 0.335000   0.418813   -18.719141
 0.340000   0.324230   -19.077344
 0.345000   0.228039   -19.395312
 0.350000   0.130277   -19.685547
 0.355000   0.031184   -20.038672
 0.360000   -0.070109   -20.545703
 0.365000   -0.174273   -21.182422
 0.370000   -0.281934   -21.914062
 0.375000   -0.393414   -22.694141
 0.380000   -0.508875   -23.438281
 0.385000   -0.627797   -24.017969
 0.390000   -0.749055   -24.536719
 0.395000   -0.873164   -25.270312
 0.400000   -1.001758   -26.446875
 0.405000   -1.137633   -28.272656
 0.410000   -1.284484   -31.250781
 0.415000   -1.450141   -35.049219
 0.420000   -1.634977   -39.052344
 0.425000   -1.840664   -43.279687
 0.430000   -2.067773   -47.493750
 0.435000   -2.315602   -51.479687
 0.440000   -2.582570   -54.978906
 0.445000   -2.865391   -57.065625
 0.450000   -3.153227   -57.269531
 0.455000   -3.438086   -55.880469
 0.460000   -3.712031   -52.975000
 0.465000   -3.967836   -48.638281
 0.470000   -4.198414   -42.985937
 0.475000   -4.397695   -36.901563
 0.480000   -4.567430   -31.128125
 0.485000   -4.708977   -25.780469
 0.490000   -4.825234   -21.054688
 0.495000   -4.919523   -16.964063
 0.500000   -4.994875   -13.723437
 0.505000   -5.056758   -11.591406
 0.510000   -5.110789   -10.290625
 0.515000   -5.159664   -9.444531
 0.520000   -5.205234   -8.845313
 0.525000   -5.248117   -8.332031
 0.530000   -5.288555   -7.789844
 0.535000   -5.326016   -7.100000
 0.540000   -5.359555   -6.258594
 0.545000   -5.388602   -5.289062
 0.550000   -5.412445   -4.193750
 0.555000   -5.430539   -3.002344
 0.560000   -5.442469   -1.755469
 0.565000   -5.448094   -0.509375
 0.570000   -5.447563   0.671094
 0.575000   -5.441383   1.732031
 0.580000   -5.430242   2.657813
 0.585000   -5.414805   3.395313
 0.590000   -5.396289   3.942188
 0.595000   -5.375383   4.358594
 0.600000   -5.352703   4.650781
 0.605000   -5.328875   4.844531
 0.610000   -5.304258   4.975000
 0.615000   -5.279125   5.071875
 0.620000   -5.253539   5.188281
 0.625000   -5.227242   5.320312
 0.630000   -5.200336   5.445312
 0.635000   -5.172789   5.548437
 0.640000   -5.144852   5.614062
 0.645000   -5.116648   5.643750
 0.650000   -5.088414   5.642969
 0.655000   -5.060219   5.611719
 0.660000   -5.032297   5.548437
 0.665000   -5.004734   5.479687
 0.670000   -4.977500   5.410937
 0.675000   -4.950625   5.350781
 0.680000   -4.923992   5.289844
 0.685000   -4.897727   5.182031
 0.690000   -4.872172   5.024219
 0.695000   -4.847484   4.801563
 0.700000   -4.824156   4.487500
 0.705000   -4.802609   4.082031
 0.710000   -4.783336   3.556250
 0.715000   -4.767047   2.910156
 0.720000   -4.754234   2.179687
 0.725000   -4.745250   1.381250
 0.730000   -4.740422   0.534375
 0.735000   -4.739906   -0.326562
 0.740000   -4.743688   -1.157813
 0.745000   -4.751484   -1.946094
 0.750000   -4.763148   -2.699219
 0.755000   -4.778477   -3.439844
 0.760000   -4.797547   -4.283594
 0.765000   -4.821313   -5.369531
 0.770000   -4.851242   -6.777344
 0.775000   -4.889086   -8.579687
 0.780000   -4.937039   -10.828125
 0.785000   -4.997367   -13.539844
 0.790000   -5.072438   -16.827344
 0.795000   -5.165641   -20.366406
 0.800000   -5.276102   -23.744531
 0.805000   -5.403086   -26.844531
 0.810000   -5.544547   -29.425000
 0.815000   -5.697336   -31.229688
 0.820000   -5.856844   -31.899219
 0.825000   -6.016328   -31.412500
 0.830000   -6.170969   -30.041406
 0.835000   -6.316742   -27.962500
 0.840000   -6.450594   -25.412500
 0.845000   -6.570867   -22.596875
 0.850000   -6.676563   -19.723437
 0.855000   -6.768102   -17.345312
 0.860000   -6.850016   -15.642969
 0.865000   -6.924531   -14.401562
 0.870000   -6.994031   -13.562500
 0.875000   -7.060156   -12.997656
 0.880000   -7.124008   -12.597656
 0.885000   -7.186133   -12.239062
 0.890000   -7.246398   -11.850000
 0.895000   -7.304633   -11.342188
 0.900000   -7.359820   -10.562500
 0.905000   -7.410258   -9.339062
 0.910000   -7.453211   -7.246094
 0.915000   -7.482719   -3.647656
 0.920000   -7.489688   1.979687
 0.925000   -7.462922   10.184375
 0.930000   -7.387844   21.562500
 0.935000   -7.247297   36.949219
 0.940000   -7.018352   54.732812
 0.945000   -6.699969   68.505469
 0.950000   -6.333297   68.965625
 0.955000   -6.010313   47.114844
 0.960000   -5.862148   2.072656
 0.965000   -5.989586   -47.810937
 0.970000   -6.340258   -59.443750
 0.975000   -6.584023   14.717187
 0.980000   -6.193086   184.839062
 0.985000   -4.735633   397.772656
 0.990000   -2.215359   556.041406
 0.995000   0.824781   572.933594
 1.000000   3.513977   502.744531
3 N Z A of ION SPECIES
 6.000000   6.000000   12.010700
 1.000000   1.000000   2.000000
 1.000000   1.000000   2.000000
