201 psinorm ne(10^20/m^3) dne/dpsiN
 0.000000   0.389382   -0.402747
 0.005000   0.387375   -0.400154
 0.010000   0.385381   -0.397570
 0.015000   0.383399   -0.395006
 0.020000   0.381431   -0.392459
 0.025000   0.379475   -0.389931
 0.030000   0.377531   -0.387422
 0.035000   0.375600   -0.384930
 0.040000   0.373682   -0.382456
 0.045000   0.371776   -0.380000
 0.050000   0.369882   -0.377562
 0.055000   0.368000   -0.375142
 0.060000   0.366131   -0.372738
 0.065000   0.364273   -0.370352
 0.070000   0.362427   -0.367983
 0.075000   0.360593   -0.365631
 0.080000   0.358771   -0.363296
 0.085000   0.356960   -0.360978
 0.090000   0.355161   -0.358676
 0.095000   0.353373   -0.356391
 0.100000   0.351597   -0.354122
 0.105000   0.349832   -0.351869
 0.110000   0.348078   -0.349632
 0.115000   0.346336   -0.347411
 0.120000   0.344604   -0.345206
 0.125000   0.342884   -0.343017
 0.130000   0.341174   -0.340843
 0.135000   0.339475   -0.338685
 0.140000   0.337787   -0.336542
 0.145000   0.336110   -0.334415
 0.150000   0.334443   -0.332302
 0.155000   0.332787   -0.330204
 0.160000   0.331141   -0.328121
 0.165000   0.329506   -0.326053
 0.170000   0.327880   -0.324000
 0.175000   0.326266   -0.321961
 0.180000   0.324661   -0.319936
 0.185000   0.323066   -0.317926
 0.190000   0.321482   -0.315930
 0.195000   0.319907   -0.313948
 0.200000   0.318342   -0.311980
 0.205000   0.316787   -0.310026
 0.210000   0.315242   -0.308085
 0.215000   0.313706   -0.306158
 0.220000   0.312180   -0.304245
 0.225000   0.310664   -0.302345
 0.230000   0.309157   -0.300459
 0.235000   0.307659   -0.298585
 0.240000   0.306171   -0.296725
 0.245000   0.304692   -0.294878
 0.250000   0.303222   -0.293044
 0.255000   0.301762   -0.291222
 0.260000   0.300310   -0.289413
 0.265000   0.298867   -0.287617
 0.270000   0.297434   -0.285833
 0.275000   0.296009   -0.284062
 0.280000   0.294593   -0.282303
 0.285000   0.293186   -0.280557
 0.290000   0.291788   -0.278822
 0.295000   0.290398   -0.277100
 0.300000   0.289017   -0.275389
 0.305000   0.287644   -0.273690
 0.310000   0.286280   -0.272004
 0.315000   0.284924   -0.270328
 0.320000   0.283576   -0.268665
 0.325000   0.282237   -0.267013
 0.330000   0.280906   -0.265372
 0.335000   0.279583   -0.263743
 0.340000   0.278269   -0.262124
 0.345000   0.276962   -0.260517
 0.350000   0.275664   -0.258921
 0.355000   0.274373   -0.257337
 0.360000   0.273090   -0.255763
 0.365000   0.271815   -0.254199
 0.370000   0.270548   -0.252647
 0.375000   0.269289   -0.251105
 0.380000   0.268037   -0.249574
 0.385000   0.266793   -0.248053
 0.390000   0.265557   -0.246543
 0.395000   0.264328   -0.245043
 0.400000   0.263106   -0.243553
 0.405000   0.261892   -0.242073
 0.410000   0.260686   -0.240604
 0.415000   0.259486   -0.239145
 0.420000   0.258294   -0.237695
 0.425000   0.257109   -0.236255
 0.430000   0.255932   -0.234826
 0.435000   0.254761   -0.233406
 0.440000   0.253598   -0.231995
 0.445000   0.252441   -0.230594
 0.450000   0.251292   -0.229203
 0.455000   0.250149   -0.227821
 0.460000   0.249013   -0.226449
 0.465000   0.247885   -0.225085
 0.470000   0.246762   -0.223731
 0.475000   0.245647   -0.222386
 0.480000   0.244539   -0.221051
 0.485000   0.243437   -0.219724
 0.490000   0.242341   -0.218406
 0.495000   0.241253   -0.217097
 0.500000   0.240170   -0.215797
 0.505000   0.239095   -0.214506
 0.510000   0.238025   -0.213223
 0.515000   0.236962   -0.211949
 0.520000   0.235906   -0.210683
 0.525000   0.234856   -0.209426
 0.530000   0.233812   -0.208178
 0.535000   0.232774   -0.206938
 0.540000   0.231742   -0.205706
 0.545000   0.230717   -0.204482
 0.550000   0.229697   -0.203266
 0.555000   0.228684   -0.202059
 0.560000   0.227677   -0.200859
 0.565000   0.226676   -0.199668
 0.570000   0.225680   -0.198484
 0.575000   0.224691   -0.197309
 0.580000   0.223707   -0.196141
 0.585000   0.222729   -0.194980
 0.590000   0.221757   -0.193827
 0.595000   0.220791   -0.192682
 0.600000   0.219830   -0.191544
 0.605000   0.218876   -0.190414
 0.610000   0.217926   -0.189291
 0.615000   0.216983   -0.188175
 0.620000   0.216045   -0.187066
 0.625000   0.215112   -0.185964
 0.630000   0.214185   -0.184868
 0.635000   0.213263   -0.183779
 0.640000   0.212347   -0.182697
 0.645000   0.211436   -0.181620
 0.650000   0.210531   -0.180550
 0.655000   0.209631   -0.179485
 0.660000   0.208736   -0.178425
 0.665000   0.207847   -0.177371
 0.670000   0.206962   -0.176320
 0.675000   0.206083   -0.175273
 0.680000   0.205210   -0.174229
 0.685000   0.204341   -0.173188
 0.690000   0.203478   -0.172147
 0.695000   0.202620   -0.171107
 0.700000   0.201767   -0.170065
 0.705000   0.200919   -0.169019
 0.710000   0.200076   -0.167968
 0.715000   0.199239   -0.166910
 0.720000   0.198407   -0.165840
 0.725000   0.197581   -0.164756
 0.730000   0.196760   -0.163653
 0.735000   0.195944   -0.162526
 0.740000   0.195135   -0.161369
 0.745000   0.194331   -0.160174
 0.750000   0.193533   -0.158932
 0.755000   0.192741   -0.157633
 0.760000   0.191956   -0.156265
 0.765000   0.191179   -0.154813
 0.770000   0.190408   -0.153259
 0.775000   0.189646   -0.151583
 0.780000   0.188893   -0.149760
 0.785000   0.188148   -0.147763
 0.790000   0.187415   -0.145557
 0.795000   0.186693   -0.143106
 0.800000   0.185984   -0.140365
 0.805000   0.185289   -0.137283
 0.810000   0.184611   -0.133803
 0.815000   0.183951   -0.129861
 0.820000   0.183312   -0.125386
 0.825000   0.182697   -0.120300
 0.830000   0.182109   -0.114520
 0.835000   0.181552   -0.107961
 0.840000   0.181030   -0.100539
 0.845000   0.180547   -0.092180
 0.850000   0.180108   -0.082827
 0.855000   0.179719   -0.072457
 0.860000   0.179383   -0.061101
 0.865000   0.179108   -0.048874
 0.870000   0.178895   -0.036021
 0.875000   0.178747   -0.022967
 0.880000   0.178665   -0.010400
 0.885000   0.178643   0.000637
 0.890000   0.178671   0.008620
 0.895000   0.178730   0.011413
 0.900000   0.178786   0.006121
 0.905000   0.178791   -0.011018
 0.910000   0.178675   -0.044652
 0.915000   0.178344   -0.100149
 0.920000   0.177674   -0.183114
 0.925000   0.176513   -0.298469
 0.930000   0.174689   -0.449024
 0.935000   0.172023   -0.633679
 0.940000   0.168352   -0.845709
 0.945000   0.163566   -1.071883
 0.950000   0.157634   -1.293292
 0.955000   0.150633   -1.488304
 0.960000   0.142750   -1.637099
 0.965000   0.134262   -1.726266
 0.970000   0.125488   -1.751629
 0.975000   0.116745   -1.718262
 0.980000   0.108305   -1.637976
 0.985000   0.100366   -1.525643
 0.990000   0.093049   -1.395822
 0.995000   0.086408   -1.260562
 1.000000   0.080443   -1.125191
201 psinorm te(KeV) dte/dpsiN
 0.000000   4.240679   -5.133836
 0.005000   4.215010   -5.133770
 0.010000   4.189341   -5.133514
 0.015000   4.163675   -5.132881
 0.020000   4.138013   -5.131874
 0.025000   4.112356   -5.130493
 0.030000   4.086708   -5.128743
 0.035000   4.061069   -5.126626
 0.040000   4.035441   -5.124143
 0.045000   4.009827   -5.121298
 0.050000   3.984228   -5.118093
 0.055000   3.958646   -5.114532
 0.060000   3.933083   -5.110616
 0.065000   3.907540   -5.106348
 0.070000   3.882020   -5.101731
 0.075000   3.856523   -5.096768
 0.080000   3.831052   -5.091462
 0.085000   3.805608   -5.085816
 0.090000   3.780194   -5.079831
 0.095000   3.754810   -5.073513
 0.100000   3.729459   -5.066862
 0.105000   3.704141   -5.059883
 0.110000   3.678860   -5.052578
 0.115000   3.653616   -5.044950
 0.120000   3.628410   -5.037003
 0.125000   3.603246   -5.028739
 0.130000   3.578123   -5.020162
 0.135000   3.553044   -5.011274
 0.140000   3.528010   -5.002079
 0.145000   3.503023   -4.992581
 0.150000   3.478084   -4.982781
 0.155000   3.453195   -4.972684
 0.160000   3.428358   -4.962293
 0.165000   3.403573   -4.951611
 0.170000   3.378842   -4.940641
 0.175000   3.354166   -4.929386
 0.180000   3.329548   -4.917850
 0.185000   3.304988   -4.906037
 0.190000   3.280487   -4.893949
 0.195000   3.256048   -4.881590
 0.200000   3.231671   -4.868964
 0.205000   3.207358   -4.856073
 0.210000   3.183111   -4.842921
 0.215000   3.158929   -4.829512
 0.220000   3.134816   -4.815849
 0.225000   3.110771   -4.801936
 0.230000   3.086796   -4.787775
 0.235000   3.062893   -4.773371
 0.240000   3.039062   -4.758727
 0.245000   3.015306   -4.743846
 0.250000   2.991624   -4.728731
 0.255000   2.968018   -4.713388
 0.260000   2.944490   -4.697818
 0.265000   2.921040   -4.682025
 0.270000   2.897670   -4.666014
 0.275000   2.874380   -4.649786
 0.280000   2.851172   -4.633347
 0.285000   2.828047   -4.616699
 0.290000   2.805005   -4.599847
 0.295000   2.782048   -4.582793
 0.300000   2.759177   -4.565540
 0.305000   2.736393   -4.548094
 0.310000   2.713696   -4.530457
 0.315000   2.691088   -4.512632
 0.320000   2.668570   -4.494624
 0.325000   2.646142   -4.476435
 0.330000   2.623805   -4.458070
 0.335000   2.601561   -4.439531
 0.340000   2.579410   -4.420823
 0.345000   2.557353   -4.401948
 0.350000   2.535391   -4.382911
 0.355000   2.513524   -4.363715
 0.360000   2.491754   -4.344363
 0.365000   2.470080   -4.324859
 0.370000   2.448505   -4.305206
 0.375000   2.427028   -4.285408
 0.380000   2.405651   -4.265468
 0.385000   2.384374   -4.245390
 0.390000   2.363197   -4.225177
 0.395000   2.342122   -4.204832
 0.400000   2.321149   -4.184360
 0.405000   2.300278   -4.163762
 0.410000   2.279511   -4.143044
 0.415000   2.258848   -4.122208
 0.420000   2.238289   -4.101257
 0.425000   2.217835   -4.080195
 0.430000   2.197487   -4.059026
 0.435000   2.177245   -4.037752
 0.440000   2.157109   -4.016377
 0.445000   2.137081   -3.994904
 0.450000   2.117160   -3.973337
 0.455000   2.097348   -3.951678
 0.460000   2.077644   -3.929931
 0.465000   2.058048   -3.908100
 0.470000   2.038563   -3.886186
 0.475000   2.019187   -3.864195
 0.480000   1.999921   -3.842128
 0.485000   1.980765   -3.819989
 0.490000   1.961721   -3.797781
 0.495000   1.942788   -3.775508
 0.500000   1.923966   -3.753171
 0.505000   1.905256   -3.730775
 0.510000   1.886658   -3.708323
 0.515000   1.868173   -3.685817
 0.520000   1.849800   -3.663260
 0.525000   1.831540   -3.640656
 0.530000   1.813393   -3.618007
 0.535000   1.795360   -3.595316
 0.540000   1.777440   -3.572587
 0.545000   1.759634   -3.549821
 0.550000   1.741942   -3.527023
 0.555000   1.724364   -3.504195
 0.560000   1.706900   -3.481339
 0.565000   1.689550   -3.458458
 0.570000   1.672315   -3.435556
 0.575000   1.655195   -3.412634
 0.580000   1.638189   -3.389696
 0.585000   1.621298   -3.366744
 0.590000   1.604522   -3.343781
 0.595000   1.587860   -3.320809
 0.600000   1.571313   -3.297831
 0.605000   1.554882   -3.274850
 0.610000   1.538565   -3.251867
 0.615000   1.522363   -3.228885
 0.620000   1.506276   -3.205907
 0.625000   1.490304   -3.182934
 0.630000   1.474447   -3.159969
 0.635000   1.458704   -3.137014
 0.640000   1.443077   -3.114071
 0.645000   1.427564   -3.091142
 0.650000   1.412165   -3.068227
 0.655000   1.396881   -3.045330
 0.660000   1.381712   -3.022451
 0.665000   1.366657   -2.999591
 0.670000   1.351716   -2.976752
 0.675000   1.336889   -2.953932
 0.680000   1.322177   -2.931134
 0.685000   1.307578   -2.908356
 0.690000   1.293093   -2.885598
 0.695000   1.278722   -2.862857
 0.700000   1.264465   -2.840133
 0.705000   1.250321   -2.817421
 0.710000   1.236290   -2.794717
 0.715000   1.222374   -2.772017
 0.720000   1.208570   -2.749312
 0.725000   1.194880   -2.726594
 0.730000   1.181304   -2.703852
 0.735000   1.167842   -2.681073
 0.740000   1.154494   -2.658239
 0.745000   1.141259   -2.635332
 0.750000   1.128140   -2.612325
 0.755000   1.115136   -2.589191
 0.760000   1.102248   -2.565894
 0.765000   1.089477   -2.542393
 0.770000   1.076824   -2.518639
 0.775000   1.064291   -2.494573
 0.780000   1.051879   -2.470127
 0.785000   1.039590   -2.445221
 0.790000   1.027426   -2.419764
 0.795000   1.015392   -2.393649
 0.800000   1.003490   -2.366754
 0.805000   0.991724   -2.338943
 0.810000   0.980101   -2.310064
 0.815000   0.968624   -2.279948
 0.820000   0.957301   -2.248418
 0.825000   0.946140   -2.215287
 0.830000   0.935148   -2.180373
 0.835000   0.924336   -2.143509
 0.840000   0.913713   -2.104567
 0.845000   0.903290   -2.063487
 0.850000   0.893078   -2.020329
 0.855000   0.883087   -1.975337
 0.860000   0.873325   -1.929037
 0.865000   0.863797   -1.882374
 0.870000   0.854501   -1.836899
 0.875000   0.845428   -1.795036
 0.880000   0.836551   -1.760436
 0.885000   0.827823   -1.738458
 0.890000   0.819166   -1.736804
 0.895000   0.810455   -1.766320
 0.900000   0.801503   -1.841974
 0.905000   0.792035   -1.983943
 0.910000   0.781664   -2.218625
 0.915000   0.769849   -2.579186
 0.920000   0.755872   -3.104855
 0.925000   0.738801   -3.837708
 0.930000   0.717495   -4.815102
 0.935000   0.690650   -6.055843
 0.940000   0.656936   -7.539384
 0.945000   0.615256   -9.181219
 0.950000   0.565124   -10.814770
 0.955000   0.507108   -12.197488
 0.960000   0.443149   -13.058231
 0.965000   0.376526   -13.184206
 0.970000   0.311307   -12.512080
 0.975000   0.251405   -11.166920
 0.980000   0.199638   -9.416100
 0.985000   0.157244   -7.563819
 0.990000   0.124000   -5.851269
 0.995000   0.098731   -4.411108
 1.000000   0.079889   -3.125994
201 psinorm ni(10^20/m^3) dni/dpsiN
 0.000000   0.205491   -0.523875
 0.005000   0.203312   -0.347854
 0.010000   0.202012   -0.208095
 0.015000   0.201231   -0.116226
 0.020000   0.200850   -0.044302
 0.025000   0.200788   0.014087
 0.030000   0.200991   0.060745
 0.035000   0.201395   0.096447
 0.040000   0.201955   0.124240
 0.045000   0.202638   0.145408
 0.050000   0.203410   0.160980
 0.055000   0.204247   0.171498
 0.060000   0.205125   0.177607
 0.065000   0.206023   0.180241
 0.070000   0.206927   0.179926
 0.075000   0.207823   0.177147
 0.080000   0.208698   0.172048
 0.085000   0.209543   0.165570
 0.090000   0.210354   0.157679
 0.095000   0.211120   0.147994
 0.100000   0.211834   0.137793
 0.105000   0.212498   0.127438
 0.110000   0.213108   0.116516
 0.115000   0.213663   0.104294
 0.120000   0.214151   0.091778
 0.125000   0.214581   0.079973
 0.130000   0.214951   0.068164
 0.135000   0.215262   0.056357
 0.140000   0.215515   0.044662
 0.145000   0.215709   0.033179
 0.150000   0.215846   0.021934
 0.155000   0.215928   0.010998
 0.160000   0.215956   0.000423
 0.165000   0.215933   -0.009763
 0.170000   0.215859   -0.019537
 0.175000   0.215737   -0.028862
 0.180000   0.215570   -0.037732
 0.185000   0.215360   -0.046166
 0.190000   0.215109   -0.054131
 0.195000   0.214819   -0.061592
 0.200000   0.214493   -0.068546
 0.205000   0.214133   -0.074998
 0.210000   0.213743   -0.080962
 0.215000   0.213324   -0.086466
 0.220000   0.212878   -0.091822
 0.225000   0.212405   -0.096850
 0.230000   0.211909   -0.101099
 0.235000   0.211394   -0.104762
 0.240000   0.210862   -0.108033
 0.245000   0.210314   -0.110956
 0.250000   0.209752   -0.113549
 0.255000   0.209178   -0.116071
 0.260000   0.208592   -0.118576
 0.265000   0.207993   -0.120616
 0.270000   0.207385   -0.122216
 0.275000   0.206771   -0.123659
 0.280000   0.206149   -0.124955
 0.285000   0.205521   -0.126428
 0.290000   0.204885   -0.127723
 0.295000   0.204244   -0.128449
 0.300000   0.203600   -0.128951
 0.305000   0.202954   -0.129305
 0.310000   0.202307   -0.129810
 0.315000   0.201656   -0.130162
 0.320000   0.201005   -0.130102
 0.325000   0.200355   -0.129977
 0.330000   0.199706   -0.129902
 0.335000   0.199056   -0.129944
 0.340000   0.198406   -0.129866
 0.345000   0.197757   -0.129670
 0.350000   0.197110   -0.129584
 0.355000   0.196462   -0.129763
 0.360000   0.195812   -0.129965
 0.365000   0.195162   -0.130038
 0.370000   0.194512   -0.130202
 0.375000   0.193860   -0.130668
 0.380000   0.193205   -0.131145
 0.385000   0.192549   -0.131353
 0.390000   0.191891   -0.131549
 0.395000   0.191233   -0.131909
 0.400000   0.190572   -0.132194
 0.405000   0.189911   -0.132222
 0.410000   0.189250   -0.132261
 0.415000   0.188588   -0.132418
 0.420000   0.187926   -0.132479
 0.425000   0.187264   -0.132381
 0.430000   0.186602   -0.132490
 0.435000   0.185939   -0.132777
 0.440000   0.185274   -0.132995
 0.445000   0.184609   -0.133209
 0.450000   0.183942   -0.133779
 0.455000   0.183271   -0.134437
 0.460000   0.182598   -0.134883
 0.465000   0.181922   -0.135465
 0.470000   0.181243   -0.136283
 0.475000   0.180559   -0.137013
 0.480000   0.179873   -0.137542
 0.485000   0.179184   -0.138261
 0.490000   0.178490   -0.139019
 0.495000   0.177794   -0.139545
 0.500000   0.177095   -0.140014
 0.505000   0.176394   -0.140632
 0.510000   0.175689   -0.141130
 0.515000   0.174982   -0.141357
 0.520000   0.174275   -0.141692
 0.525000   0.173565   -0.142072
 0.530000   0.172854   -0.142251
 0.535000   0.172143   -0.142315
 0.540000   0.171431   -0.142562
 0.545000   0.170717   -0.142749
 0.550000   0.170004   -0.142673
 0.555000   0.169291   -0.142662
 0.560000   0.168577   -0.142698
 0.565000   0.167864   -0.142563
 0.570000   0.167151   -0.142269
 0.575000   0.166441   -0.142075
 0.580000   0.165731   -0.141816
 0.585000   0.165023   -0.141315
 0.590000   0.164318   -0.140774
 0.595000   0.163615   -0.140254
 0.600000   0.162915   -0.139591
 0.605000   0.162219   -0.138741
 0.610000   0.161528   -0.137874
 0.615000   0.160840   -0.136950
 0.620000   0.160158   -0.135875
 0.625000   0.159482   -0.134676
 0.630000   0.158811   -0.133440
 0.635000   0.158147   -0.132109
 0.640000   0.157490   -0.130620
 0.645000   0.156841   -0.129034
 0.650000   0.156200   -0.127373
 0.655000   0.155567   -0.125589
 0.660000   0.154944   -0.123681
 0.665000   0.154330   -0.121709
 0.670000   0.153727   -0.119674
 0.675000   0.153134   -0.117569
 0.680000   0.152551   -0.115414
 0.685000   0.151980   -0.113223
 0.690000   0.151419   -0.110934
 0.695000   0.150870   -0.108499
 0.700000   0.150334   -0.105887
 0.705000   0.149811   -0.103042
 0.710000   0.149304   -0.099818
 0.715000   0.148813   -0.096219
 0.720000   0.148341   -0.092385
 0.725000   0.147889   -0.088316
 0.730000   0.147458   -0.083974
 0.735000   0.147050   -0.079398
 0.740000   0.146664   -0.074591
 0.745000   0.146304   -0.069562
 0.750000   0.145969   -0.064462
 0.755000   0.145659   -0.059294
 0.760000   0.145376   -0.054125
 0.765000   0.145118   -0.049101
 0.770000   0.144885   -0.044222
 0.775000   0.144676   -0.039603
 0.780000   0.144489   -0.035371
 0.785000   0.144322   -0.031583
 0.790000   0.144173   -0.028232
 0.795000   0.144040   -0.025268
 0.800000   0.143920   -0.022692
 0.805000   0.143813   -0.020487
 0.810000   0.143715   -0.018446
 0.815000   0.143628   -0.016351
 0.820000   0.143552   -0.014053
 0.825000   0.143488   -0.011335
 0.830000   0.143438   -0.008015
 0.835000   0.143408   -0.003992
 0.840000   0.143399   0.000826
 0.845000   0.143416   0.006478
 0.850000   0.143463   0.012987
 0.855000   0.143546   0.020431
 0.860000   0.143668   0.028819
 0.865000   0.143834   0.038063
 0.870000   0.144048   0.048053
 0.875000   0.144314   0.058436
 0.880000   0.144633   0.068441
 0.885000   0.144999   0.077009
 0.890000   0.145403   0.082598
 0.895000   0.145825   0.083004
 0.900000   0.146233   0.075337
 0.905000   0.146578   0.055902
 0.910000   0.146792   0.020128
 0.915000   0.146779   -0.037297
 0.920000   0.146419   -0.121968
 0.925000   0.145560   -0.238723
 0.930000   0.144032   -0.390340
 0.935000   0.141656   -0.575702
 0.940000   0.138275   -0.787933
 0.945000   0.133777   -1.013594
 0.950000   0.128139   -1.233414
 0.955000   0.121443   -1.424741
 0.960000   0.113891   -1.566871
 0.965000   0.105774   -1.645521
 0.970000   0.097436   -1.654859
 0.975000   0.089226   -1.598366
 0.980000   0.081452   -1.486696
 0.985000   0.074359   -1.333132
 0.990000   0.068121   -1.154223
 0.995000   0.062816   -0.968178
 1.000000   0.058439   -0.782688
201 psinorm ti(KeV) dti/dpsiN
 0.000000   5.451197   0.000371
 0.005000   5.450350   -0.338890
 0.010000   5.447808   -0.678420
 0.015000   5.443566   -1.018376
 0.020000   5.437624   -1.358578
 0.025000   5.429980   -1.698966
 0.030000   5.420634   -2.039598
 0.035000   5.409584   -2.380600
 0.040000   5.396828   -2.722755
 0.045000   5.382357   -3.065879
 0.050000   5.366170   -3.409229
 0.055000   5.348265   -3.752910
 0.060000   5.328641   -4.096667
 0.065000   5.307298   -4.439958
 0.070000   5.284241   -4.782928
 0.075000   5.259469   -5.123143
 0.080000   5.233010   -5.457290
 0.085000   5.204896   -5.784244
 0.090000   5.175167   -6.102156
 0.095000   5.143874   -6.408734
 0.100000   5.111080   -6.700759
 0.105000   5.076867   -6.974918
 0.110000   5.041331   -7.230160
 0.115000   5.004565   -7.466297
 0.120000   4.966668   -7.682804
 0.125000   4.927737   -7.879607
 0.130000   4.887872   -8.054845
 0.135000   4.847189   -8.208983
 0.140000   4.805782   -8.345549
 0.145000   4.763733   -8.464763
 0.150000   4.721134   -8.566168
 0.155000   4.678071   -8.650844
 0.160000   4.634626   -8.719010
 0.165000   4.590881   -8.773312
 0.170000   4.546892   -8.819012
 0.175000   4.502691   -8.858214
 0.180000   4.458310   -8.891116
 0.185000   4.413780   -8.917741
 0.190000   4.369133   -8.937377
 0.195000   4.324406   -8.948419
 0.200000   4.279649   -8.947745
 0.205000   4.234929   -8.935100
 0.210000   4.190298   -8.912400
 0.215000   4.145805   -8.880074
 0.220000   4.101497   -8.839169
 0.225000   4.057413   -8.790677
 0.230000   4.013590   -8.730225
 0.235000   3.970111   -8.654802
 0.240000   3.927042   -8.565450
 0.245000   3.884456   -8.461556
 0.250000   3.842427   -8.342821
 0.255000   3.801028   -8.207889
 0.260000   3.760348   -8.059322
 0.265000   3.720435   -7.903286
 0.270000   3.681315   -7.743834
 0.275000   3.642997   -7.583891
 0.280000   3.605476   -7.425447
 0.285000   3.568742   -7.270896
 0.290000   3.532767   -7.119583
 0.295000   3.497546   -6.968282
 0.300000   3.463084   -6.815635
 0.305000   3.429390   -6.661085
 0.310000   3.396473   -6.504627
 0.315000   3.364344   -6.346614
 0.320000   3.333007   -6.186981
 0.325000   3.302474   -6.026562
 0.330000   3.272742   -5.866910
 0.335000   3.243805   -5.708876
 0.340000   3.215653   -5.553301
 0.345000   3.188272   -5.399571
 0.350000   3.161657   -5.249079
 0.355000   3.135781   -5.103906
 0.360000   3.110618   -4.963868
 0.365000   3.086142   -4.829469
 0.370000   3.062323   -4.701410
 0.375000   3.039128   -4.578558
 0.380000   3.016538   -4.462692
 0.385000   2.994501   -4.356277
 0.390000   2.972975   -4.257998
 0.395000   2.951921   -4.167437
 0.400000   2.931301   -4.084841
 0.405000   2.911073   -4.009078
 0.410000   2.891210   -3.942709
 0.415000   2.871646   -3.890979
 0.420000   2.852300   -3.855386
 0.425000   2.833092   -3.836471
 0.430000   2.813935   -3.834858
 0.435000   2.794743   -3.853504
 0.440000   2.775400   -3.892334
 0.445000   2.755820   -3.943310
 0.450000   2.735967   -4.001687
 0.455000   2.715803   -4.067034
 0.460000   2.695297   -4.137783
 0.465000   2.674425   -4.213989
 0.470000   2.653157   -4.292941
 0.475000   2.631496   -4.369212
 0.480000   2.609465   -4.442278
 0.485000   2.587073   -4.513345
 0.490000   2.564331   -4.582653
 0.495000   2.541247   -4.652746
 0.500000   2.517804   -4.731600
 0.505000   2.493931   -4.824928
 0.510000   2.469555   -4.931827
 0.515000   2.444612   -5.051191
 0.520000   2.419043   -5.182096
 0.525000   2.392791   -5.325553
 0.530000   2.365787   -5.484324
 0.535000   2.337948   -5.644713
 0.540000   2.309340   -5.795355
 0.545000   2.279994   -5.937827
 0.550000   2.249962   -6.068316
 0.555000   2.219311   -6.183907
 0.560000   2.188123   -6.281772
 0.565000   2.156494   -6.352755
 0.570000   2.124595   -6.393627
 0.575000   2.092557   -6.408529
 0.580000   2.060510   -6.398381
 0.585000   2.028574   -6.365960
 0.590000   1.996850   -6.313086
 0.595000   1.965443   -6.244683
 0.600000   1.934404   -6.161731
 0.605000   1.903825   -6.060699
 0.610000   1.873797   -5.942800
 0.615000   1.844397   -5.809948
 0.620000   1.815697   -5.658485
 0.625000   1.787812   -5.496971
 0.630000   1.760727   -5.334987
 0.635000   1.734463   -5.169574
 0.640000   1.709032   -5.002537
 0.645000   1.684437   -4.835797
 0.650000   1.660674   -4.668719
 0.655000   1.637750   -4.506722
 0.660000   1.615606   -4.354011
 0.665000   1.594210   -4.206814
 0.670000   1.573538   -4.062905
 0.675000   1.553581   -3.919433
 0.680000   1.534344   -3.770199
 0.685000   1.515879   -3.612454
 0.690000   1.498219   -3.450664
 0.695000   1.481372   -3.288096
 0.700000   1.465338   -3.126410
 0.705000   1.450108   -2.967588
 0.710000   1.435663   -2.809614
 0.715000   1.422012   -2.656341
 0.720000   1.409099   -2.516916
 0.725000   1.396843   -2.393124
 0.730000   1.385168   -2.285295
 0.735000   1.373990   -2.194761
 0.740000   1.363220   -2.123013
 0.745000   1.352760   -2.072004
 0.750000   1.342500   -2.039351
 0.755000   1.332366   -2.021555
 0.760000   1.322285   -2.017511
 0.765000   1.312191   -2.025269
 0.770000   1.302032   -2.045625
 0.775000   1.291735   -2.076840
 0.780000   1.281264   -2.109811
 0.785000   1.270637   -2.143236
 0.790000   1.259831   -2.181356
 0.795000   1.248823   -2.224213
 0.800000   1.237589   -2.272851
 0.805000   1.226095   -2.327013
 0.810000   1.214319   -2.382610
 0.815000   1.202269   -2.439236
 0.820000   1.189927   -2.498486
 0.825000   1.177284   -2.558608
 0.830000   1.164341   -2.617008
 0.835000   1.151114   -2.668667
 0.840000   1.137654   -2.712915
 0.845000   1.123985   -2.750982
 0.850000   1.110144   -2.781064
 0.855000   1.096174   -2.802865
 0.860000   1.082115   -2.816011
 0.865000   1.068014   -2.817270
 0.870000   1.053943   -2.814654
 0.875000   1.039867   -2.814226
 0.880000   1.025800   -2.811792
 0.885000   1.011749   -2.808937
 0.890000   0.997711   -2.808112
 0.895000   0.983668   -2.818104
 0.900000   0.969530   -2.850389
 0.905000   0.955164   -2.904499
 0.910000   0.940485   -2.974949
 0.915000   0.925415   -3.060295
 0.920000   0.909882   -3.159704
 0.925000   0.893818   -3.289530
 0.930000   0.876987   -3.435356
 0.935000   0.859464   -3.575009
 0.940000   0.841237   -3.717306
 0.945000   0.822291   -3.860815
 0.950000   0.802629   -4.003008
 0.955000   0.782261   -4.162761
 0.960000   0.761001   -4.326376
 0.965000   0.738997   -4.472884
 0.970000   0.716272   -4.621598
 0.975000   0.692781   -4.781423
 0.980000   0.668458   -4.956867
 0.985000   0.643213   -5.165186
 0.990000   0.616806   -5.392385
 0.995000   0.589289   -5.613800
 1.000000   0.560668   -5.834539
201 psinorm nb(10^20/m^3) dnb/dpsiN
 0.000000   0.128753   0.121123
 0.005000   0.128928   -0.051160
 0.010000   0.128242   -0.187181
 0.015000   0.127057   -0.275313
 0.020000   0.125489   -0.343505
 0.025000   0.123621   -0.398167
 0.030000   0.121507   -0.441104
 0.035000   0.119210   -0.473092
 0.040000   0.116776   -0.497181
 0.045000   0.114239   -0.514655
 0.050000   0.111630   -0.526551
 0.055000   0.108973   -0.533418
 0.060000   0.106295   -0.535906
 0.065000   0.103614   -0.534960
 0.070000   0.100946   -0.531116
 0.075000   0.098303   -0.524862
 0.080000   0.095697   -0.516338
 0.085000   0.093140   -0.506485
 0.090000   0.090632   -0.495269
 0.095000   0.088187   -0.482307
 0.100000   0.085809   -0.468875
 0.105000   0.083498   -0.455323
 0.110000   0.081256   -0.441229
 0.115000   0.079086   -0.425867
 0.120000   0.076997   -0.410252
 0.125000   0.074983   -0.395398
 0.130000   0.073043   -0.380600
 0.135000   0.071177   -0.365871
 0.140000   0.069385   -0.351323
 0.145000   0.067664   -0.337053
 0.150000   0.066014   -0.323090
 0.155000   0.064433   -0.309503
 0.160000   0.062919   -0.296350
 0.165000   0.061470   -0.283659
 0.170000   0.060083   -0.271448
 0.175000   0.058755   -0.259748
 0.180000   0.057485   -0.248569
 0.185000   0.056269   -0.237886
 0.190000   0.055106   -0.227725
 0.195000   0.053992   -0.218102
 0.200000   0.052925   -0.208983
 0.205000   0.051902   -0.200354
 0.210000   0.050922   -0.192207
 0.215000   0.049980   -0.184513
 0.220000   0.049076   -0.176957
 0.225000   0.048211   -0.169696
 0.230000   0.047380   -0.163203
 0.235000   0.046579   -0.157306
 0.240000   0.045806   -0.151801
 0.245000   0.045061   -0.146657
 0.250000   0.044340   -0.141857
 0.255000   0.043642   -0.137142
 0.260000   0.042968   -0.132517
 0.265000   0.042317   -0.128464
 0.270000   0.041684   -0.124937
 0.275000   0.041068   -0.121656
 0.280000   0.040467   -0.118610
 0.285000   0.039882   -0.115447
 0.290000   0.039313   -0.112482
 0.295000   0.038757   -0.110088
 0.300000   0.038212   -0.107917
 0.305000   0.037678   -0.105897
 0.310000   0.037153   -0.103733
 0.315000   0.036640   -0.101710
 0.320000   0.036136   -0.100118
 0.325000   0.035639   -0.098650
 0.330000   0.035149   -0.097178
 0.335000   0.034667   -0.095655
 0.340000   0.034193   -0.094331
 0.345000   0.033724   -0.093236
 0.350000   0.033260   -0.092165
 0.355000   0.032802   -0.090946
 0.360000   0.032351   -0.089809
 0.365000   0.031904   -0.088901
 0.370000   0.031462   -0.087995
 0.375000   0.031024   -0.086896
 0.380000   0.030593   -0.085822
 0.385000   0.030166   -0.084962
 0.390000   0.029743   -0.084070
 0.395000   0.029325   -0.082975
 0.400000   0.028914   -0.081905
 0.405000   0.028506   -0.081032
 0.410000   0.028103   -0.080072
 0.415000   0.027706   -0.078930
 0.420000   0.027314   -0.077859
 0.425000   0.026927   -0.076951
 0.430000   0.026544   -0.075875
 0.435000   0.026168   -0.074681
 0.440000   0.025798   -0.073642
 0.445000   0.025432   -0.072711
 0.450000   0.025071   -0.071508
 0.455000   0.024717   -0.070289
 0.460000   0.024368   -0.069345
 0.465000   0.024023   -0.068329
 0.470000   0.023684   -0.067135
 0.475000   0.023352   -0.066052
 0.480000   0.023024   -0.065170
 0.485000   0.022700   -0.064098
 0.490000   0.022383   -0.062972
 0.495000   0.022070   -0.062064
 0.500000   0.021762   -0.061187
 0.505000   0.021459   -0.060106
 0.510000   0.021161   -0.059087
 0.515000   0.020868   -0.058293
 0.520000   0.020578   -0.057349
 0.525000   0.020294   -0.056326
 0.530000   0.020015   -0.055470
 0.535000   0.019740   -0.054701
 0.540000   0.019468   -0.053723
 0.545000   0.019202   -0.052777
 0.550000   0.018940   -0.052064
 0.555000   0.018682   -0.051253
 0.560000   0.018428   -0.050357
 0.565000   0.018178   -0.049594
 0.570000   0.017932   -0.048956
 0.575000   0.017689   -0.048175
 0.580000   0.017450   -0.047413
 0.585000   0.017214   -0.046847
 0.590000   0.016982   -0.046277
 0.595000   0.016752   -0.045639
 0.600000   0.016525   -0.045088
 0.605000   0.016301   -0.044668
 0.610000   0.016078   -0.044206
 0.615000   0.015859   -0.043743
 0.620000   0.015641   -0.043383
 0.625000   0.015425   -0.043086
 0.630000   0.015210   -0.042754
 0.635000   0.014997   -0.042452
 0.640000   0.014786   -0.042239
 0.645000   0.014575   -0.042048
 0.650000   0.014365   -0.041851
 0.655000   0.014156   -0.041693
 0.660000   0.013948   -0.041596
 0.665000   0.013740   -0.041511
 0.670000   0.013533   -0.041448
 0.675000   0.013326   -0.041420
 0.680000   0.013119   -0.041422
 0.685000   0.012912   -0.041441
 0.690000   0.012705   -0.041503
 0.695000   0.012497   -0.041598
 0.700000   0.012289   -0.041701
 0.705000   0.012080   -0.041821
 0.710000   0.011870   -0.041998
 0.715000   0.011660   -0.042203
 0.720000   0.011448   -0.042391
 0.725000   0.011236   -0.042593
 0.730000   0.011022   -0.042843
 0.735000   0.010807   -0.043134
 0.740000   0.010591   -0.043411
 0.745000   0.010373   -0.043682
 0.750000   0.010154   -0.043960
 0.755000   0.009934   -0.044296
 0.760000   0.009711   -0.044636
 0.765000   0.009487   -0.044922
 0.770000   0.009262   -0.045207
 0.775000   0.009035   -0.045492
 0.780000   0.008807   -0.045808
 0.785000   0.008577   -0.046108
 0.790000   0.008346   -0.046355
 0.795000   0.008114   -0.046590
 0.800000   0.007880   -0.046813
 0.805000   0.007646   -0.047041
 0.810000   0.007410   -0.047272
 0.815000   0.007173   -0.047477
 0.820000   0.006935   -0.047657
 0.825000   0.006696   -0.047819
 0.830000   0.006457   -0.047960
 0.835000   0.006217   -0.048074
 0.840000   0.005976   -0.048152
 0.845000   0.005735   -0.048179
 0.850000   0.005494   -0.048153
 0.855000   0.005254   -0.048075
 0.860000   0.005013   -0.047942
 0.865000   0.004774   -0.047756
 0.870000   0.004536   -0.047536
 0.875000   0.004299   -0.047289
 0.880000   0.004063   -0.046991
 0.885000   0.003829   -0.046648
 0.890000   0.003597   -0.046272
 0.895000   0.003366   -0.045838
 0.900000   0.003138   -0.045340
 0.905000   0.002913   -0.044776
 0.910000   0.002690   -0.044144
 0.915000   0.002471   -0.043426
 0.920000   0.002256   -0.042576
 0.925000   0.002046   -0.041549
 0.930000   0.001841   -0.040321
 0.935000   0.001642   -0.038868
 0.940000   0.001452   -0.037154
 0.945000   0.001271   -0.035140
 0.950000   0.001101   -0.032799
 0.955000   0.000943   -0.030106
 0.960000   0.000799   -0.027067
 0.965000   0.000672   -0.023789
 0.970000   0.000562   -0.020467
 0.975000   0.000467   -0.017282
 0.980000   0.000389   -0.014453
 0.985000   0.000323   -0.012241
 0.990000   0.000266   -0.010964
 0.995000   0.000213   -0.011022
 1.000000   0.000156   -0.011851
201 psinorm pb(KPa) dpb/dpsiN
 0.000000   53.003862   30.949118
 0.005000   53.000029   -32.482493
 0.010000   52.679037   -85.497675
 0.015000   52.145052   -123.039634
 0.020000   51.448641   -151.801463
 0.025000   50.627038   -174.600054
 0.030000   49.702641   -192.235648
 0.035000   48.704681   -205.256434
 0.040000   47.650076   -214.958504
 0.045000   46.555096   -221.702577
 0.050000   45.433050   -226.036743
 0.055000   44.294729   -228.174787
 0.060000   43.151303   -228.510029
 0.065000   42.009628   -227.469302
 0.070000   40.876610   -225.239780
 0.075000   39.757230   -222.043381
 0.080000   38.656176   -217.925204
 0.085000   37.577978   -213.276404
 0.090000   36.523412   -208.098419
 0.095000   35.496994   -202.227766
 0.100000   34.501134   -196.199721
 0.105000   33.534997   -190.161362
 0.110000   32.599520   -183.933331
 0.115000   31.695664   -177.213826
 0.120000   30.827382   -170.424708
 0.125000   29.991417   -163.987872
 0.130000   29.187503   -157.604977
 0.135000   28.415367   -151.282343
 0.140000   27.674680   -145.060394
 0.145000   26.964763   -138.980457
 0.150000   26.284875   -133.058033
 0.155000   25.634183   -127.315212
 0.160000   25.011723   -121.772575
 0.165000   24.416457   -116.442613
 0.170000   23.847297   -111.330329
 0.175000   23.303154   -106.446516
 0.180000   22.782832   -101.791204
 0.185000   22.285242   -97.354837
 0.190000   21.809284   -93.146371
 0.195000   21.353778   -89.166868
 0.200000   20.917615   -85.402227
 0.205000   20.499756   -81.845275
 0.210000   20.099162   -78.490492
 0.215000   19.714851   -75.327914
 0.220000   19.345883   -72.229841
 0.225000   18.992552   -69.256678
 0.230000   18.653316   -66.601334
 0.235000   18.326539   -64.195242
 0.240000   18.011364   -61.952285
 0.245000   17.707016   -59.860240
 0.250000   17.412761   -57.912180
 0.255000   17.127894   -56.002612
 0.260000   16.852735   -54.136408
 0.265000   16.586530   -52.500301
 0.270000   16.327732   -51.072945
 0.275000   16.075801   -49.751731
 0.280000   15.830215   -48.531717
 0.285000   15.590484   -47.278551
 0.290000   15.357430   -46.109418
 0.295000   15.129389   -45.162561
 0.300000   14.905804   -44.303661
 0.305000   14.686353   -43.506851
 0.310000   14.470735   -42.670671
 0.315000   14.259646   -41.892317
 0.320000   14.051812   -41.274730
 0.325000   13.846899   -40.711192
 0.330000   13.644700   -40.155581
 0.335000   13.445343   -39.592603
 0.340000   13.248774   -39.101939
 0.345000   13.054324   -38.688379
 0.350000   12.861890   -38.285908
 0.355000   12.671464   -37.843233
 0.360000   12.483458   -37.428237
 0.365000   12.297182   -37.082518
 0.370000   12.112633   -36.732957
 0.375000   11.929853   -36.321447
 0.380000   11.749419   -35.914586
 0.385000   11.570707   -35.567969
 0.390000   11.393739   -35.206423
 0.395000   11.218642   -34.774949
 0.400000   11.045989   -34.346606
 0.405000   10.875176   -33.976525
 0.410000   10.706224   -33.573628
 0.415000   10.539440   -33.104379
 0.420000   10.375180   -32.653584
 0.425000   10.212904   -32.255811
 0.430000   10.052622   -31.797623
 0.435000   9.894928   -31.294124
 0.440000   9.739681   -30.840941
 0.445000   9.586519   -30.423513
 0.450000   9.435446   -29.908388
 0.455000   9.287435   -29.386578
 0.460000   9.141580   -28.962729
 0.465000   8.997807   -28.514498
 0.470000   8.856435   -28.005624
 0.475000   8.717751   -27.539750
 0.480000   8.581038   -27.148059
 0.485000   8.446271   -26.691425
 0.490000   8.314123   -26.217812
 0.495000   8.184092   -25.821163
 0.500000   8.055912   -25.437069
 0.505000   7.929722   -24.982564
 0.510000   7.806086   -24.549428
 0.515000   7.684228   -24.194684
 0.520000   7.564139   -23.785452
 0.525000   7.446373   -23.346268
 0.530000   7.330677   -22.966558
 0.535000   7.216707   -22.616510
 0.540000   7.104511   -22.187143
 0.545000   6.994836   -21.767329
 0.550000   6.886838   -21.432978
 0.555000   6.780506   -21.060738
 0.560000   6.676231   -20.657950
 0.565000   6.573927   -20.306620
 0.570000   6.473165   -20.000333
 0.575000   6.373923   -19.641250
 0.580000   6.276752   -19.293189
 0.585000   6.180991   -19.020776
 0.590000   6.086544   -18.745788
 0.595000   5.993534   -18.447332
 0.600000   5.902071   -18.185124
 0.605000   5.811682   -17.974189
 0.610000   5.722329   -17.749702
 0.615000   5.634185   -17.526633
 0.620000   5.547063   -17.342812
 0.625000   5.460757   -17.183227
 0.630000   5.375230   -17.012785
 0.635000   5.290629   -16.853465
 0.640000   5.206696   -16.725731
 0.645000   5.123372   -16.605526
 0.650000   5.040641   -16.482564
 0.655000   4.958546   -16.373604
 0.660000   4.876905   -16.285412
 0.665000   4.795692   -16.200974
 0.670000   4.714895   -16.123306
 0.675000   4.634459   -16.058494
 0.680000   4.554310   -16.003774
 0.685000   4.474422   -15.954717
 0.690000   4.394763   -15.921610
 0.695000   4.315205   -15.902159
 0.700000   4.235741   -15.886429
 0.705000   4.156341   -15.876496
 0.710000   4.076976   -15.888541
 0.715000   3.997456   -15.911306
 0.720000   3.917863   -15.928069
 0.725000   3.838175   -15.949685
 0.730000   3.758366   -15.987766
 0.735000   3.678297   -16.038113
 0.740000   3.597985   -16.081573
 0.745000   3.517482   -16.120147
 0.750000   3.436784   -16.158918
 0.755000   3.355892   -16.214331
 0.760000   3.274640   -16.267074
 0.765000   3.193222   -16.299042
 0.770000   3.111650   -16.328052
 0.775000   3.029941   -16.354016
 0.780000   2.948110   -16.385022
 0.785000   2.866091   -16.407532
 0.790000   2.784034   -16.412609
 0.795000   2.701965   -16.412198
 0.800000   2.619912   -16.405618
 0.805000   2.537909   -16.396366
 0.810000   2.455949   -16.381241
 0.815000   2.374096   -16.355845
 0.820000   2.292390   -16.322767
 0.825000   2.210869   -16.281323
 0.830000   2.129577   -16.230206
 0.835000   2.048567   -16.167416
 0.840000   1.967903   -16.085132
 0.845000   1.887715   -15.985799
 0.850000   1.808045   -15.875348
 0.855000   1.728962   -15.750128
 0.860000   1.650544   -15.609083
 0.865000   1.572871   -15.453267
 0.870000   1.496011   -15.286610
 0.875000   1.420005   -15.112075
 0.880000   1.344890   -14.912719
 0.885000   1.270878   -14.703524
 0.890000   1.197855   -14.500886
 0.895000   1.125869   -14.290949
 0.900000   1.054946   -14.076886
 0.905000   0.985100   -13.861492
 0.910000   0.916331   -13.649898
 0.915000   0.848601   -13.444409
 0.920000   0.781887   -13.240295
 0.925000   0.716198   -13.033853
 0.930000   0.651548   -12.823957
 0.935000   0.587958   -12.603601
 0.940000   0.525512   -12.353910
 0.945000   0.464419   -12.044920
 0.950000   0.405063   -11.637204
 0.955000   0.348047   -11.081642
 0.960000   0.294246   -10.333873
 0.965000   0.244709   -9.384465
 0.970000   0.200402   -8.271769
 0.975000   0.161991   -7.073018
 0.980000   0.129672   -5.880031
 0.985000   0.103191   -4.759024
 0.990000   0.082081   -3.848211
 0.995000   0.064708   -3.360604
 1.000000   0.048475   -3.132666
201 psinorm ptot(KPa) dptot/dpsiN
 0.000000   98.209447   -74.201431
 0.005000   97.716662   -122.912709
 0.010000   96.980320   -164.372405
 0.015000   96.072938   -194.542651
 0.020000   95.034894   -217.684976
 0.025000   93.896088   -236.063134
 0.030000   92.674262   -250.323836
 0.035000   91.392850   -260.949389
 0.040000   90.064768   -268.973477
 0.045000   88.703115   -274.643722
 0.050000   87.318331   -278.414718
 0.055000   85.918968   -280.450701
 0.060000   84.513824   -281.085340
 0.065000   83.108114   -280.659439
 0.070000   81.707230   -279.311789
 0.075000   80.314996   -277.210683
 0.080000   78.935123   -274.372997
 0.085000   77.571267   -271.102826
 0.090000   76.224095   -267.393729
 0.095000   74.897329   -263.101265
 0.100000   73.593082   -258.639656
 0.105000   72.310933   -254.111587
 0.110000   71.051966   -249.364893
 0.115000   69.817284   -244.152025
 0.120000   68.610446   -238.808841
 0.125000   67.429195   -233.674420
 0.130000   66.273702   -228.499750
 0.135000   65.144198   -223.290832
 0.140000   64.040793   -218.091036
 0.145000   62.963287   -212.934288
 0.150000   61.911451   -207.832129
 0.155000   60.884966   -202.805260
 0.160000   59.883398   -197.871562
 0.165000   58.906251   -193.051661
 0.170000   57.952881   -188.368731
 0.175000   57.022563   -183.839583
 0.180000   56.114486   -179.465662
 0.185000   55.227907   -175.240220
 0.190000   54.362083   -171.168660
 0.195000   53.516220   -167.245456
 0.200000   52.689629   -163.447305
 0.205000   51.881747   -159.768202
 0.210000   51.091947   -156.212097
 0.215000   50.319626   -152.774088
 0.220000   49.564206   -149.352154
 0.225000   48.826104   -145.999970
 0.230000   48.104206   -142.866996
 0.235000   47.397435   -139.888652
 0.240000   46.705320   -136.997179
 0.245000   46.027463   -134.182426
 0.250000   45.363495   -131.439252
 0.255000   44.713070   -128.674556
 0.260000   44.076750   -125.905918
 0.265000   43.454011   -123.315257
 0.270000   42.843597   -120.898398
 0.275000   42.245027   -118.580695
 0.280000   41.657790   -116.365182
 0.285000   41.081375   -114.144620
 0.290000   40.516344   -112.014304
 0.295000   39.961232   -110.079864
 0.300000   39.415545   -108.222961
 0.305000   38.879003   -106.420480
 0.310000   38.351341   -104.587447
 0.315000   37.833128   -102.806240
 0.320000   37.323278   -101.165588
 0.325000   36.821472   -99.580456
 0.330000   36.327474   -98.016220
 0.335000   35.841310   -96.463478
 0.340000   35.362839   -94.992269
 0.345000   34.891387   -93.605187
 0.350000   34.426787   -92.252242
 0.355000   33.968865   -90.896529
 0.360000   33.517822   -89.592890
 0.365000   33.072936   -88.376674
 0.370000   32.634055   -87.187942
 0.375000   32.201057   -85.974617
 0.380000   31.774309   -84.794941
 0.385000   31.353107   -83.699422
 0.390000   30.937315   -82.620765
 0.395000   30.526900   -81.510480
 0.400000   30.122210   -80.430873
 0.405000   29.722591   -79.424765
 0.410000   29.327962   -78.421574
 0.415000   28.938375   -77.408600
 0.420000   28.553876   -76.464555
 0.425000   28.173730   -75.621922
 0.430000   27.797657   -74.784776
 0.435000   27.425882   -73.975006
 0.440000   27.057907   -73.275765
 0.445000   26.693124   -72.649728
 0.450000   26.331410   -71.964253
 0.455000   25.973482   -71.296842
 0.460000   25.618441   -70.734064
 0.465000   25.266141   -70.168535
 0.470000   24.916756   -69.559765
 0.475000   24.570543   -68.981366
 0.480000   24.226942   -68.458458
 0.485000   23.885959   -67.872057
 0.490000   23.548222   -67.264704
 0.495000   23.213312   -66.726707
 0.500000   22.880955   -66.224486
 0.505000   22.551067   -65.699933
 0.510000   22.223955   -65.230734
 0.515000   21.898759   -64.864154
 0.520000   21.575314   -64.479053
 0.525000   21.253969   -64.099781
 0.530000   20.934316   -63.813639
 0.535000   20.615833   -63.554508
 0.540000   20.298771   -63.191938
 0.545000   19.983913   -62.810697
 0.550000   19.670664   -62.469003
 0.555000   19.359223   -62.047942
 0.560000   19.050184   -61.546933
 0.565000   18.743754   -61.015679
 0.570000   18.440028   -60.440564
 0.575000   18.139348   -59.745644
 0.580000   17.842571   -58.992935
 0.585000   17.549419   -58.250080
 0.590000   17.260070   -57.451809
 0.595000   16.974901   -56.593450
 0.600000   16.694136   -55.733126
 0.605000   16.417569   -54.875728
 0.610000   16.145379   -53.965950
 0.615000   15.877910   -53.023432
 0.620000   15.615144   -52.074137
 0.625000   15.357169   -51.127568
 0.630000   15.103869   -50.177057
 0.635000   14.855398   -49.235137
 0.640000   14.611517   -48.325422
 0.645000   14.372144   -47.430769
 0.650000   14.137210   -46.539797
 0.655000   13.906746   -45.682050
 0.660000   13.680389   -44.874855
 0.665000   13.457997   -44.092604
 0.670000   13.239463   -43.332279
 0.675000   13.024674   -42.592258
 0.680000   12.813540   -41.854374
 0.685000   12.606131   -41.107599
 0.690000   12.402464   -40.372337
 0.695000   12.202407   -39.653654
 0.700000   12.005928   -38.945231
 0.705000   11.812955   -38.252841
 0.710000   11.623399   -37.584580
 0.715000   11.437109   -36.938822
 0.720000   11.254011   -36.324131
 0.725000   11.073868   -35.755026
 0.730000   10.896461   -35.242449
 0.735000   10.721443   -34.785577
 0.740000   10.548605   -34.368433
 0.745000   10.377759   -33.997227
 0.750000   10.208633   -33.673142
 0.755000   10.041028   -33.403216
 0.760000   9.874601   -33.166190
 0.765000   9.709366   -32.941295
 0.770000   9.545188   -32.747373
 0.775000   9.381892   -32.581306
 0.780000   9.219375   -32.430509
 0.785000   9.057587   -32.278538
 0.790000   8.896589   -32.125687
 0.795000   8.736330   -31.981918
 0.800000   8.576770   -31.847823
 0.805000   8.417852   -31.724604
 0.810000   8.259524   -31.594522
 0.815000   8.101907   -31.447415
 0.820000   7.945050   -31.285948
 0.825000   7.789047   -31.100525
 0.830000   7.634045   -30.879721
 0.835000   7.480250   -30.607116
 0.840000   7.327974   -30.271340
 0.845000   7.177537   -29.877088
 0.850000   7.029203   -29.426233
 0.855000   6.883274   -28.914983
 0.860000   6.740053   -28.344669
 0.865000   6.599828   -27.715731
 0.870000   6.462896   -27.062112
 0.875000   6.329206   -26.420649
 0.880000   6.198689   -25.796492
 0.885000   6.071242   -25.253602
 0.890000   5.946153   -24.878224
 0.895000   5.822459   -24.766402
 0.900000   5.698489   -25.066205
 0.905000   5.571797   -25.928778
 0.910000   5.439201   -27.527807
 0.915000   5.296519   -30.067546
 0.920000   5.138526   -33.746583
 0.925000   4.959053   -38.757992
 0.930000   4.750946   -45.103984
 0.935000   4.508013   -52.549738
 0.940000   4.225449   -60.617657
 0.945000   3.901837   -68.446900
 0.950000   3.540980   -74.886061
 0.955000   3.152976   -78.755281
 0.960000   2.753427   -79.105904
 0.965000   2.361917   -75.638158
 0.970000   1.997045   -68.926958
 0.975000   1.672648   -60.137186
 0.980000   1.395673   -50.619331
 0.985000   1.166454   -41.492037
 0.990000   0.980753   -33.519786
 0.995000   0.831257   -27.165147
 1.000000   0.709101   -21.696886
201 psinorm omeg(kRad/s) domeg/dpsiN
 0.000000   20.055803   0.015895
 0.005000   20.055194   -0.259360
 0.010000   20.053209   -0.559558
 0.015000   20.049599   -0.913919
 0.020000   20.044070   -1.331255
 0.025000   20.036286   -1.821622
 0.030000   20.025854   -2.396964
 0.035000   20.012316   -3.071055
 0.040000   19.995143   -3.865818
 0.045000   19.973658   -4.797190
 0.050000   19.947171   -5.878303
 0.055000   19.914875   -7.131744
 0.060000   19.875854   -8.577503
 0.065000   19.829100   -10.231176
 0.070000   19.773542   -12.108569
 0.075000   19.708015   -14.187060
 0.080000   19.631672   -16.432907
 0.085000   19.543685   -18.833474
 0.090000   19.443337   -21.359277
 0.095000   19.330093   -23.968932
 0.100000   19.203648   -26.573826
 0.105000   19.064354   -29.109553
 0.110000   18.912552   -31.582399
 0.115000   18.748530   -33.979486
 0.120000   18.572757   -36.283912
 0.125000   18.385691   -38.503592
 0.130000   18.187721   -40.596532
 0.135000   17.979726   -42.570324
 0.140000   17.762018   -44.486512
 0.145000   17.534861   -46.312534
 0.150000   17.298893   -48.019322
 0.155000   17.054668   -49.630572
 0.160000   16.802587   -51.146144
 0.165000   16.543206   -52.657824
 0.170000   16.276009   -54.346391
 0.175000   15.999742   -56.272729
 0.180000   15.713281   -58.429768
 0.185000   15.415445   -60.804221
 0.190000   15.105239   -63.347559
 0.195000   14.781969   -65.970601
 0.200000   14.445533   -68.556071
 0.205000   14.096408   -71.099069
 0.210000   13.734543   -73.659266
 0.215000   13.359816   -76.244979
 0.220000   12.972093   -78.886296
 0.225000   12.570953   -81.623037
 0.230000   12.155862   -84.258845
 0.235000   11.728364   -86.617357
 0.240000   11.289689   -88.682124
 0.245000   10.841543   -90.362041
 0.250000   10.386068   -91.584042
 0.255000   9.925703   -92.266404
 0.260000   9.463404   -92.323260
 0.265000   9.002470   -91.805095
 0.270000   8.545353   -90.814988
 0.275000   8.094320   -89.384184
 0.280000   7.651512   -87.528972
 0.285000   7.219030   -85.252091
 0.290000   6.798991   -82.515076
 0.295000   6.393880   -79.239067
 0.300000   6.006600   -75.374224
 0.305000   5.640137   -70.925217
 0.310000   5.297348   -65.937191
 0.315000   4.980765   -60.392595
 0.320000   4.693422   -54.476851
 0.325000   4.435997   -48.409651
 0.330000   4.209325   -42.220407
 0.335000   4.013793   -35.996383
 0.340000   3.849362   -29.816022
 0.345000   3.715633   -23.711260
 0.350000   3.612249   -17.779919
 0.355000   3.537833   -12.086599
 0.360000   3.491383   -6.608788
 0.365000   3.471746   -1.383968
 0.370000   3.477543   3.546615
 0.375000   3.507212   8.128687
 0.380000   3.558830   12.345042
 0.385000   3.630662   16.209574
 0.390000   3.720926   19.700811
 0.395000   3.827670   22.795325
 0.400000   3.948879   25.488235
 0.405000   4.082553   27.729705
 0.410000   4.226176   29.609379
 0.415000   4.378646   31.346648
 0.420000   4.539643   33.053131
 0.425000   4.709178   34.818577
 0.430000   4.887828   36.746233
 0.435000   5.076640   38.997913
 0.440000   5.277808   41.676910
 0.445000   5.493409   44.612463
 0.450000   5.723932   47.637037
 0.455000   5.969780   50.698141
 0.460000   6.230914   53.705253
 0.465000   6.506832   56.654892
 0.470000   6.797463   59.426975
 0.475000   7.101102   61.676144
 0.480000   7.414224   63.281202
 0.485000   7.733914   64.259372
 0.490000   8.056818   64.534801
 0.495000   8.379262   64.070386
 0.500000   8.697522   62.815161
 0.505000   9.007413   60.734156
 0.510000   9.304863   57.901805
 0.515000   9.586431   54.415958
 0.520000   9.849023   50.355701
 0.525000   10.089988   45.796604
 0.530000   10.306989   40.802866
 0.535000   10.498017   35.590914
 0.540000   10.662898   30.344548
 0.545000   10.801463   25.116496
 0.550000   10.914063   20.002767
 0.555000   11.001490   15.076739
 0.560000   11.064830   10.391373
 0.565000   11.105404   6.026741
 0.570000   11.125098   1.992626
 0.575000   11.125330   -1.770830
 0.580000   11.107389   -5.302473
 0.585000   11.072306   -8.670634
 0.590000   11.020683   -12.009390
 0.595000   10.952212   -15.450928
 0.600000   10.866174   -19.041946
 0.605000   10.761792   -22.798358
 0.610000   10.638190   -26.732542
 0.615000   10.494467   -30.842154
 0.620000   10.329769   -35.243559
 0.625000   10.142031   -39.788446
 0.630000   9.931884   -44.245779
 0.635000   9.699573   -48.604385
 0.640000   9.445840   -52.750246
 0.645000   9.172071   -56.548181
 0.650000   8.880358   -59.950340
 0.655000   8.572568   -62.669053
 0.660000   8.253668   -64.433651
 0.665000   7.928231   -65.264913
 0.670000   7.601019   -65.123362
 0.675000   7.276997   -63.990102
 0.680000   6.961118   -61.842578
 0.685000   6.658572   -58.741327
 0.690000   6.373704   -54.867190
 0.695000   6.109900   -50.377925
 0.700000   5.869925   -45.411421
 0.705000   5.655786   -40.121194
 0.710000   5.468713   -34.603354
 0.715000   5.309752   -29.048537
 0.720000   5.178228   -23.685420
 0.725000   5.072898   -18.571117
 0.730000   4.992517   -13.715591
 0.735000   4.935742   -9.119472
 0.740000   4.901322   -4.750723
 0.745000   4.888235   -0.549670
 0.750000   4.895825   3.566513
 0.755000   4.923900   7.667655
 0.760000   4.972502   11.780420
 0.765000   5.041704   15.883769
 0.770000   5.131340   19.916705
 0.775000   5.240871   23.744868
 0.780000   5.368788   27.167644
 0.785000   5.512547   30.045722
 0.790000   5.669245   32.290913
 0.795000   5.835457   33.812006
 0.800000   6.007366   34.534948
 0.805000   6.180806   34.397805
 0.810000   6.351344   33.448026
 0.815000   6.515286   31.785082
 0.820000   6.669194   29.482825
 0.825000   6.810115   26.646494
 0.830000   6.935659   23.378635
 0.835000   7.043901   19.778593
 0.840000   7.133445   16.039853
 0.845000   7.204299   12.292126
 0.850000   7.256367   8.557108
 0.855000   7.289871   4.884716
 0.860000   7.305214   1.295268
 0.865000   7.302823   -2.222901
 0.870000   7.282985   -5.731692
 0.875000   7.245506   -9.315022
 0.880000   7.189834   -13.043747
 0.885000   7.115069   -16.991231
 0.890000   7.019922   -21.245750
 0.895000   6.902611   -26.144914
 0.900000   6.758473   -31.894307
 0.905000   6.583668   -38.516776
 0.910000   6.373305   -46.126585
 0.915000   6.122402   -54.695954
 0.920000   5.826346   -64.093076
 0.925000   5.481472   -74.677237
 0.930000   5.079573   -85.456503
 0.935000   4.626907   -94.973859
 0.940000   4.129835   -102.787306
 0.945000   3.599034   -107.954165
 0.950000   3.050293   -109.487049
 0.955000   2.504163   -106.855992
 0.960000   1.981733   -99.090701
 0.965000   1.513256   -85.878653
 0.970000   1.122947   -68.461912
 0.975000   0.828637   -48.296190
 0.980000   0.639985   -27.184119
 0.985000   0.556796   -7.132102
 0.990000   0.568664   9.915653
 0.995000   0.655952   22.514611
 1.000000   0.793810   32.628431
201 psinorm omegp(kRad/s) domegp/dpsiN
 0.000000   -0.008124   91.786954
 0.005000   0.366727   58.153493
 0.010000   0.573411   40.539540
 0.015000   0.772123   39.817820
 0.020000   0.971589   39.770827
 0.025000   1.169831   38.971961
 0.030000   1.361309   36.945762
 0.035000   1.539288   34.287312
 0.040000   1.704182   31.456052
 0.045000   1.853849   28.347624
 0.050000   1.987658   25.355318
 0.055000   2.107402   22.785018
 0.060000   2.215508   20.753199
 0.065000   2.314934   19.381197
 0.070000   2.409320   18.637907
 0.075000   2.501313   18.279973
 0.080000   2.592120   18.142170
 0.085000   2.682735   18.280502
 0.090000   2.774925   18.633854
 0.095000   2.869073   18.916636
 0.100000   2.964091   19.142901
 0.105000   3.060503   19.338008
 0.110000   3.157472   19.448506
 0.115000   3.254988   19.474372
 0.120000   3.352215   19.275737
 0.125000   3.447745   18.887827
 0.130000   3.541094   18.248975
 0.135000   3.630235   17.380296
 0.140000   3.714896   16.327628
 0.145000   3.793511   15.005065
 0.150000   3.864947   13.530358
 0.155000   3.928815   12.113744
 0.160000   3.986085   10.881004
 0.165000   4.037625   9.821258
 0.170000   4.084297   8.928143
 0.175000   4.126906   8.178397
 0.180000   4.166081   7.475454
 0.185000   4.201661   6.599411
 0.190000   4.232075   5.592630
 0.195000   4.257587   4.413172
 0.200000   4.276207   3.001553
 0.205000   4.287602   1.409058
 0.210000   4.290298   -0.436349
 0.215000   4.283239   -2.415870
 0.220000   4.266139   -4.565979
 0.225000   4.237579   -6.750268
 0.230000   4.198636   -8.833159
 0.235000   4.149248   -10.784505
 0.240000   4.090791   -12.403849
 0.245000   4.025209   -13.776687
 0.250000   3.953024   -14.856547
 0.255000   3.876644   -15.651892
 0.260000   3.796505   -16.333904
 0.265000   3.713305   -16.879563
 0.270000   3.627710   -17.523665
 0.275000   3.538068   -18.335895
 0.280000   3.444351   -19.164371
 0.285000   3.346424   -20.093975
 0.290000   3.243411   -21.057513
 0.295000   3.135849   -22.019100
 0.300000   3.023220   -23.030919
 0.305000   2.905540   -23.986925
 0.310000   2.783351   -24.922934
 0.315000   2.656310   -25.878401
 0.320000   2.524567   -26.738551
 0.325000   2.388925   -27.528476
 0.330000   2.249282   -28.293010
 0.335000   2.105995   -28.941956
 0.340000   1.959862   -29.538591
 0.345000   1.810609   -30.122861
 0.350000   1.658634   -30.601843
 0.355000   1.504591   -31.054603
 0.360000   1.348088   -31.538503
 0.365000   1.189206   -32.007571
 0.370000   1.028012   -32.499298
 0.375000   0.864213   -33.034399
 0.380000   0.697668   -33.605431
 0.385000   0.528158   -34.192245
 0.390000   0.355746   -34.744722
 0.395000   0.180711   -35.226888
 0.400000   0.003477   -35.646127
 0.405000   -0.175750   -36.039832
 0.410000   -0.356922   -36.490893
 0.415000   -0.540659   -37.038314
 0.420000   -0.727305   -37.666645
 0.425000   -0.917326   -38.387054
 0.430000   -1.111175   -39.174722
 0.435000   -1.309073   -40.010762
 0.440000   -1.511283   -40.937435
 0.445000   -1.718447   -41.832991
 0.450000   -1.929613   -42.576232
 0.455000   -2.144210   -43.201584
 0.460000   -2.361629   -43.687429
 0.465000   -2.581084   -43.960184
 0.470000   -2.801231   -44.274185
 0.475000   -3.023826   -45.506399
 0.480000   -3.256294   -48.320161
 0.485000   -3.507027   -52.890473
 0.490000   -3.785199   -59.320755
 0.495000   -4.100235   -68.017156
 0.500000   -4.465371   -78.615053
 0.505000   -4.886385   -89.131101
 0.510000   -5.356682   -98.493755
 0.515000   -5.871323   -106.388264
 0.520000   -6.420564   -111.999005
 0.525000   -6.991313   -114.838136
 0.530000   -7.568946   -113.419043
 0.535000   -8.125503   -107.057842
 0.540000   -8.639524   -97.135526
 0.545000   -9.096859   -84.690211
 0.550000   -9.486426   -70.669314
 0.555000   -9.803552   -55.802983
 0.560000   -10.044456   -41.774699
 0.565000   -10.221299   -30.105857
 0.570000   -10.345515   -20.682213
 0.575000   -10.428121   -13.539402
 0.580000   -10.480909   -8.317096
 0.585000   -10.511292   -4.581531
 0.590000   -10.526724   -2.236337
 0.595000   -10.533655   -0.503438
 0.600000   -10.531758   1.621659
 0.605000   -10.517439   4.568043
 0.610000   -10.486078   8.506721
 0.615000   -10.432371   13.993704
 0.620000   -10.346141   21.147477
 0.625000   -10.220897   29.388633
 0.630000   -10.052255   38.391133
 0.635000   -9.836985   47.687818
 0.640000   -9.575376   56.481203
 0.645000   -9.272173   63.612949
 0.650000   -8.939247   68.353559
 0.655000   -8.588638   70.614175
 0.660000   -8.233105   70.322094
 0.665000   -7.885417   67.751258
 0.670000   -7.555593   63.135234
 0.675000   -7.254064   56.863465
 0.680000   -6.986958   50.484247
 0.685000   -6.749222   44.956100
 0.690000   -6.537397   40.234219
 0.695000   -6.346880   36.488285
 0.700000   -6.172514   33.875097
 0.705000   -6.008129   32.405012
 0.710000   -5.848464   31.531255
 0.715000   -5.692816   30.681435
 0.720000   -5.541650   29.799813
 0.725000   -5.394818   28.907969
 0.730000   -5.252570   27.965701
 0.735000   -5.115161   27.088506
 0.740000   -4.981685   26.391139
 0.745000   -4.851250   25.822906
 0.750000   -4.723456   25.279846
 0.755000   -4.598451   24.738647
 0.760000   -4.476069   24.246843
 0.765000   -4.355983   23.570316
 0.770000   -4.240366   22.517054
 0.775000   -4.130812   21.172398
 0.780000   -4.028642   19.545891
 0.785000   -3.935353   17.625802
 0.790000   -3.852384   15.481775
 0.795000   -3.780536   13.194012
 0.800000   -3.720444   10.840991
 0.805000   -3.672126   8.535552
 0.810000   -3.635089   6.378125
 0.815000   -3.608344   4.428285
 0.820000   -3.590806   2.700452
 0.825000   -3.581340   1.230826
 0.830000   -3.578497   -0.011133
 0.835000   -3.581451   -1.117918
 0.840000   -3.589677   -2.157126
 0.845000   -3.603023   -3.183699
 0.850000   -3.621514   -4.255235
 0.855000   -3.645575   -5.365004
 0.860000   -3.675164   -6.433675
 0.865000   -3.709912   -7.400085
 0.870000   -3.749165   -8.202759
 0.875000   -3.791939   -8.775293
 0.880000   -3.836917   -9.074160
 0.885000   -3.882681   -9.109903
 0.890000   -3.928016   -8.908697
 0.895000   -3.971768   -8.483425
 0.900000   -4.012851   -7.801416
 0.905000   -4.049782   -6.795416
 0.910000   -4.080805   -5.327293
 0.915000   -4.103055   -3.331324
 0.920000   -4.114118   -0.798796
 0.925000   -4.111043   2.407904
 0.930000   -4.090039   6.245246
 0.935000   -4.048590   10.561639
 0.940000   -3.984423   15.379874
 0.945000   -3.894792   20.731013
 0.950000   -3.777113   26.446481
 0.955000   -3.630327   32.397466
 0.960000   -3.453138   38.539773
 0.965000   -3.244929   45.354863
 0.970000   -2.999589   53.611874
 0.975000   -2.708810   63.440812
 0.980000   -2.365181   74.668287
 0.985000   -1.962127   87.582974
 0.990000   -1.489351   102.228059
 0.995000   -0.939847   119.331807
 1.000000   -0.296033   138.193608
201 psinorm omgvb(kRad/s) domgvb/dpsiN
 0.000000   20.047679   91.802849
 0.005000   20.421921   57.894134
 0.010000   20.626620   39.979982
 0.015000   20.821721   38.903900
 0.020000   21.015659   38.439572
 0.025000   21.206117   37.150338
 0.030000   21.387163   34.548798
 0.035000   21.551605   31.216257
 0.040000   21.699325   27.590233
 0.045000   21.827507   23.550434
 0.050000   21.934830   19.477014
 0.055000   22.022277   15.653274
 0.060000   22.091362   12.175696
 0.065000   22.144034   9.150022
 0.070000   22.182863   6.529338
 0.075000   22.209328   4.092913
 0.080000   22.223792   1.709263
 0.085000   22.226420   -0.552972
 0.090000   22.218262   -2.725423
 0.095000   22.199166   -5.052295
 0.100000   22.167739   -7.430925
 0.105000   22.124857   -9.771544
 0.110000   22.070024   -12.133893
 0.115000   22.003518   -14.505114
 0.120000   21.924972   -17.008175
 0.125000   21.833436   -19.615765
 0.130000   21.728815   -22.347557
 0.135000   21.609961   -25.190027
 0.140000   21.476915   -28.158884
 0.145000   21.328372   -31.307469
 0.150000   21.163840   -34.488964
 0.155000   20.983482   -37.516829
 0.160000   20.788672   -40.265141
 0.165000   20.580831   -42.836566
 0.170000   20.360306   -45.418247
 0.175000   20.126648   -48.094333
 0.180000   19.879363   -50.954314
 0.185000   19.617105   -54.204811
 0.190000   19.337314   -57.754929
 0.195000   19.039556   -61.557428
 0.200000   18.721740   -65.554518
 0.205000   18.384011   -69.690011
 0.210000   18.024840   -74.095615
 0.215000   17.643055   -78.660850
 0.220000   17.238232   -83.452275
 0.225000   16.808532   -88.373305
 0.230000   16.354499   -93.092004
 0.235000   15.877612   -97.401861
 0.240000   15.380480   -101.085974
 0.245000   14.866752   -104.138727
 0.250000   14.339093   -106.440590
 0.255000   13.802346   -107.918297
 0.260000   13.259910   -108.657164
 0.265000   12.715775   -108.684658
 0.270000   12.173063   -108.338653
 0.275000   11.632388   -107.720079
 0.280000   11.095862   -106.693343
 0.285000   10.565455   -105.346067
 0.290000   10.042402   -103.572589
 0.295000   9.529729   -101.258167
 0.300000   9.029820   -98.405144
 0.305000   8.545677   -94.912142
 0.310000   8.080699   -90.860126
 0.315000   7.637076   -86.270996
 0.320000   7.217989   -81.215402
 0.325000   6.824922   -75.938128
 0.330000   6.458607   -70.513417
 0.335000   6.119788   -64.938339
 0.340000   5.809224   -59.354613
 0.345000   5.526242   -53.834122
 0.350000   5.270883   -48.381762
 0.355000   5.042424   -43.141202
 0.360000   4.839471   -38.147291
 0.365000   4.660951   -33.391539
 0.370000   4.505555   -28.952683
 0.375000   4.371424   -24.905712
 0.380000   4.256498   -21.260390
 0.385000   4.158820   -17.982671
 0.390000   4.076671   -15.043911
 0.395000   4.008381   -12.431563
 0.400000   3.952356   -10.157892
 0.405000   3.906802   -8.310127
 0.410000   3.869255   -6.881514
 0.415000   3.837987   -5.691666
 0.420000   3.812338   -4.613514
 0.425000   3.791852   -3.568477
 0.430000   3.776653   -2.428489
 0.435000   3.767567   -1.012849
 0.440000   3.766525   0.739474
 0.445000   3.774962   2.779471
 0.450000   3.794319   5.060805
 0.455000   3.825570   7.496557
 0.460000   3.869285   10.017824
 0.465000   3.925748   12.694708
 0.470000   3.996232   15.152790
 0.475000   4.077276   16.169745
 0.480000   4.157929   14.961041
 0.485000   4.226887   11.368899
 0.490000   4.271618   5.214046
 0.495000   4.279027   -3.946770
 0.500000   4.232151   -15.799892
 0.505000   4.121028   -28.396945
 0.510000   3.948181   -40.591950
 0.515000   3.715109   -51.972305
 0.520000   3.428458   -61.643305
 0.525000   3.098676   -69.041532
 0.530000   2.738043   -72.616177
 0.535000   2.372514   -71.466928
 0.540000   2.023374   -66.790978
 0.545000   1.704604   -59.573716
 0.550000   1.427636   -50.666546
 0.555000   1.197939   -40.726244
 0.560000   1.020374   -31.383326
 0.565000   0.884105   -24.079116
 0.570000   0.779583   -18.689587
 0.575000   0.697209   -15.310232
 0.580000   0.626481   -13.619569
 0.585000   0.561014   -13.252166
 0.590000   0.493959   -14.245727
 0.595000   0.418556   -15.954366
 0.600000   0.334415   -17.420287
 0.605000   0.244354   -18.230315
 0.610000   0.152112   -18.225820
 0.615000   0.062095   -16.848450
 0.620000   -0.016372   -14.096083
 0.625000   -0.078865   -10.399813
 0.630000   -0.120371   -5.854646
 0.635000   -0.137412   -0.916568
 0.640000   -0.129536   3.730957
 0.645000   -0.100102   7.064768
 0.650000   -0.058889   8.403219
 0.655000   -0.016070   7.945123
 0.660000   0.020563   5.888443
 0.665000   0.042814   2.486344
 0.670000   0.045426   -1.988128
 0.675000   0.022933   -7.126637
 0.680000   -0.025840   -11.358332
 0.685000   -0.090650   -13.785227
 0.690000   -0.163692   -14.632971
 0.695000   -0.236980   -13.889640
 0.700000   -0.302589   -11.536324
 0.705000   -0.352343   -7.716182
 0.710000   -0.379751   -3.072099
 0.715000   -0.383064   1.632898
 0.720000   -0.363422   6.114393
 0.725000   -0.321920   10.336852
 0.730000   -0.260053   14.250110
 0.735000   -0.179419   17.969035
 0.740000   -0.080363   21.640416
 0.745000   0.036985   25.273235
 0.750000   0.172369   28.846359
 0.755000   0.325448   32.406303
 0.760000   0.496433   36.027263
 0.765000   0.685721   39.454086
 0.770000   0.890973   42.433759
 0.775000   1.110059   44.917266
 0.780000   1.340146   46.713534
 0.785000   1.577194   47.671524
 0.790000   1.816861   47.772689
 0.795000   2.054921   47.006018
 0.800000   2.286921   45.375939
 0.805000   2.508680   42.933357
 0.810000   2.716255   39.826151
 0.815000   2.906942   36.213367
 0.820000   3.078389   32.183277
 0.825000   3.228775   27.877321
 0.830000   3.357162   23.367502
 0.835000   3.462450   18.660675
 0.840000   3.543769   13.882727
 0.845000   3.601277   9.108428
 0.850000   3.634853   4.301874
 0.855000   3.644296   -0.480288
 0.860000   3.630050   -5.138407
 0.865000   3.592912   -9.622987
 0.870000   3.533820   -13.934451
 0.875000   3.453567   -18.090315
 0.880000   3.352917   -22.117907
 0.885000   3.232388   -26.101134
 0.890000   3.091906   -30.154448
 0.895000   2.930844   -34.628339
 0.900000   2.745622   -39.695723
 0.905000   2.533886   -45.312193
 0.910000   2.292500   -51.453878
 0.915000   2.019348   -58.027278
 0.920000   1.712228   -64.891872
 0.925000   1.370429   -72.269333
 0.930000   0.989534   -79.211257
 0.935000   0.578316   -84.412220
 0.940000   0.145412   -87.407433
 0.945000   -0.295758   -87.223152
 0.950000   -0.726819   -83.040568
 0.955000   -1.126164   -74.458526
 0.960000   -1.471405   -60.550928
 0.965000   -1.731673   -40.523790
 0.970000   -1.876643   -14.850037
 0.975000   -1.880173   15.144622
 0.980000   -1.725196   47.484168
 0.985000   -1.405332   80.450872
 0.990000   -0.920688   112.143712
 0.995000   -0.283895   141.846419
 1.000000   0.497777   170.822039
201 psinorm omgpp(kRad/s) domgpp/dpsiN
 0.000000   -0.051875   -25.910635
 0.005000   -0.207926   -36.509873
 0.010000   -0.416974   -41.893425
 0.015000   -0.626860   -42.042757
 0.020000   -0.837401   -42.167630
 0.025000   -1.048537   -42.290649
 0.030000   -1.260308   -42.397041
 0.035000   -1.472507   -42.483409
 0.040000   -1.685142   -42.556232
 0.045000   -1.898070   -42.589186
 0.050000   -2.111034   -42.583944
 0.055000   -2.323909   -42.510214
 0.060000   -2.536136   -42.220613
 0.065000   -2.746115   -41.746325
 0.070000   -2.953599   -41.162973
 0.075000   -3.157745   -40.406126
 0.080000   -3.357660   -39.469924
 0.085000   -3.552444   -38.298844
 0.090000   -3.740649   -36.885770
 0.095000   -3.921302   -35.313010
 0.100000   -4.093779   -33.596097
 0.105000   -4.257263   -31.725951
 0.110000   -4.411038   -29.696303
 0.115000   -4.554226   -27.358994
 0.120000   -4.684628   -25.125464
 0.125000   -4.805480   -23.037107
 0.130000   -4.914999   -20.753685
 0.135000   -5.013017   -18.448714
 0.140000   -5.099487   -16.132534
 0.145000   -5.174343   -13.519628
 0.150000   -5.234683   -11.422368
 0.155000   -5.288566   -9.842072
 0.160000   -5.333104   -8.041327
 0.165000   -5.368980   -6.397976
 0.170000   -5.397083   -4.953692
 0.175000   -5.418516   -3.814146
 0.180000   -5.435225   -3.054930
 0.185000   -5.449066   -2.187940
 0.190000   -5.457104   -1.033952
 0.195000   -5.459405   0.071848
 0.200000   -5.456386   1.066497
 0.205000   -5.448740   1.602491
 0.210000   -5.440361   2.157843
 0.215000   -5.427162   3.096314
 0.220000   -5.409398   3.961917
 0.225000   -5.387543   4.798349
 0.230000   -5.361414   5.687883
 0.235000   -5.330664   6.409633
 0.240000   -5.297318   7.666448
 0.245000   -5.253999   9.541695
 0.250000   -5.201901   11.173291
 0.255000   -5.142266   12.634280
 0.260000   -5.075558   13.964845
 0.265000   -5.002618   15.057799
 0.270000   -4.924980   15.798753
 0.275000   -4.844631   16.194576
 0.280000   -4.763034   16.321703
 0.285000   -4.681413   16.253420
 0.290000   -4.600500   16.078467
 0.295000   -4.520629   15.797178
 0.300000   -4.442528   15.664639
 0.305000   -4.363982   15.885494
 0.310000   -4.283673   16.123338
 0.315000   -4.202749   16.235751
 0.320000   -4.121316   16.328456
 0.325000   -4.039464   16.382475
 0.330000   -3.957491   16.540146
 0.335000   -3.874063   16.867619
 0.340000   -3.788815   17.168257
 0.345000   -3.702380   17.389975
 0.350000   -3.614915   17.572430
 0.355000   -3.526656   17.837830
 0.360000   -3.436537   18.306111
 0.365000   -3.343595   18.271234
 0.370000   -3.253825   17.728986
 0.375000   -3.166305   17.163953
 0.380000   -3.082185   16.393737
 0.385000   -3.002368   15.566865
 0.390000   -2.926516   14.792570
 0.395000   -2.854442   13.460321
 0.400000   -2.791913   11.889517
 0.405000   -2.735547   10.614382
 0.410000   -2.685769   9.239249
 0.415000   -2.643154   7.698167
 0.420000   -2.608788   5.679749
 0.425000   -2.586357   3.873912
 0.430000   -2.570049   2.683207
 0.435000   -2.559525   1.595126
 0.440000   -2.554097   0.665054
 0.445000   -2.552874   -0.066211
 0.450000   -2.554759   -0.899960
 0.455000   -2.561874   -0.969127
 0.460000   -2.564451   -0.561591
 0.465000   -2.567490   -0.634256
 0.470000   -2.570793   -0.662917
 0.475000   -2.574119   -0.636975
 0.480000   -2.577163   -0.371463
 0.485000   -2.577834   -0.090201
 0.490000   -2.578065   -0.344966
 0.495000   -2.581283   -1.171207
 0.500000   -2.589777   -2.387317
 0.505000   -2.605156   -3.853988
 0.510000   -2.628317   -5.874144
 0.515000   -2.663898   -7.769598
 0.520000   -2.706013   -8.908423
 0.525000   -2.752982   -9.820507
 0.530000   -2.804218   -10.497632
 0.535000   -2.857958   -10.789169
 0.540000   -2.912110   -11.133230
 0.545000   -2.969291   -10.526870
 0.550000   -3.017378   -8.731141
 0.555000   -3.056602   -7.060440
 0.560000   -3.087983   -5.373289
 0.565000   -3.110335   -3.468981
 0.570000   -3.122673   -1.265342
 0.575000   -3.122988   1.251924
 0.580000   -3.110153   3.321684
 0.585000   -3.089772   4.661351
 0.590000   -3.063540   5.808045
 0.595000   -3.031691   6.976977
 0.600000   -2.993770   8.555187
 0.605000   -2.946139   10.308907
 0.610000   -2.890681   11.390207
 0.615000   -2.832237   12.105275
 0.620000   -2.769628   12.829212
 0.625000   -2.703945   13.334551
 0.630000   -2.636283   13.829034
 0.635000   -2.565655   14.101021
 0.640000   -2.495273   13.543760
 0.645000   -2.430217   12.757925
 0.650000   -2.367693   12.202700
 0.655000   -2.308190   11.569420
 0.660000   -2.251999   10.912485
 0.665000   -2.199065   10.275305
 0.670000   -2.149246   9.943538
 0.675000   -2.099630   10.158931
 0.680000   -2.047657   10.627299
 0.685000   -1.993357   11.008072
 0.690000   -1.937576   11.212748
 0.695000   -1.881230   11.217411
 0.700000   -1.825402   10.282431
 0.705000   -1.778405   8.736500
 0.710000   -1.738037   7.311519
 0.715000   -1.705290   5.692885
 0.720000   -1.681108   3.879332
 0.725000   -1.666497   1.536228
 0.730000   -1.665746   -1.019756
 0.735000   -1.676694   -3.229639
 0.740000   -1.698042   -5.251053
 0.745000   -1.729205   -7.144015
 0.750000   -1.769482   -8.880209
 0.755000   -1.818007   -11.503637
 0.760000   -1.884519   -12.578072
 0.765000   -1.943788   -11.710363
 0.770000   -2.001622   -11.243308
 0.775000   -2.056221   -10.439104
 0.780000   -2.106013   -9.359535
 0.785000   -2.149816   -8.396641
 0.790000   -2.189980   -6.483395
 0.795000   -2.214650   -3.999467
 0.800000   -2.229974   -2.249418
 0.805000   -2.237144   -0.687314
 0.810000   -2.236848   0.711609
 0.815000   -2.230028   2.251229
 0.820000   -2.214335   3.297011
 0.825000   -2.197058   3.510258
 0.830000   -2.179233   3.822386
 0.835000   -2.158834   4.482070
 0.840000   -2.134412   5.422587
 0.845000   -2.104608   7.073545
 0.850000   -2.063677   8.461497
 0.855000   -2.019993   8.755411
 0.860000   -1.976122   8.900602
 0.865000   -1.930987   9.040345
 0.870000   -1.885719   8.965984
 0.875000   -1.841327   8.924264
 0.880000   -1.796476   8.490043
 0.885000   -1.756427   7.461041
 0.890000   -1.721866   6.279438
 0.895000   -1.693633   4.750323
 0.900000   -1.674363   2.760766
 0.905000   -1.666025   0.105654
 0.910000   -1.673306   -3.144894
 0.915000   -1.697474   -5.750402
 0.920000   -1.730810   -7.806502
 0.925000   -1.775539   -10.018135
 0.930000   -1.830992   -12.158076
 0.935000   -1.897120   -15.404364
 0.940000   -1.985035   -19.986516
 0.945000   -2.096985   -22.441254
 0.950000   -2.209448   -24.745472
 0.955000   -2.344440   -30.327274
 0.960000   -2.512720   -38.432337
 0.965000   -2.728763   -50.889984
 0.970000   -3.021620   -69.429681
 0.975000   -3.423060   -86.895240
 0.980000   -3.890573   -103.564631
 0.985000   -4.458706   -122.628159
 0.990000   -5.116854   -137.187256
 0.995000   -5.830579   -142.911283
 1.000000   -6.545967   -143.244138
201 psinorm omgeb(kRad/s) domgeb/dpsiN
 0.000000   19.995804   65.892213
 0.005000   20.213995   21.384261
 0.010000   20.209647   -1.913443
 0.015000   20.194861   -3.138857
 0.020000   20.178258   -3.728058
 0.025000   20.157580   -5.140310
 0.030000   20.126855   -7.848243
 0.035000   20.079098   -11.267152
 0.040000   20.014183   -14.965999
 0.045000   19.929438   -19.038752
 0.050000   19.823796   -23.106929
 0.055000   19.698368   -26.856940
 0.060000   19.555227   -30.044917
 0.065000   19.397919   -32.596304
 0.070000   19.229263   -34.633635
 0.075000   19.051583   -36.313213
 0.080000   18.866131   -37.760661
 0.085000   18.673976   -38.851816
 0.090000   18.477613   -39.611193
 0.095000   18.277864   -40.365306
 0.100000   18.073960   -41.027022
 0.105000   17.867594   -41.497496
 0.110000   17.658985   -41.830196
 0.115000   17.449292   -41.864108
 0.120000   17.240344   -42.133639
 0.125000   17.027956   -42.652872
 0.130000   16.813815   -43.101242
 0.135000   16.596943   -43.638741
 0.140000   16.377428   -44.291418
 0.145000   16.154029   -44.827098
 0.150000   15.929157   -45.911332
 0.155000   15.694916   -47.358901
 0.160000   15.455568   -48.306467
 0.165000   15.211851   -49.234542
 0.170000   14.963223   -50.371939
 0.175000   14.708132   -51.908479
 0.180000   14.444138   -54.009244
 0.185000   14.168039   -56.392750
 0.190000   13.880210   -58.788881
 0.195000   13.580151   -61.485581
 0.200000   13.265354   -64.488021
 0.205000   12.935270   -68.087520
 0.210000   12.584479   -71.937772
 0.215000   12.215893   -75.564536
 0.220000   11.828834   -79.490358
 0.225000   11.420989   -83.574955
 0.230000   10.993084   -87.404120
 0.235000   10.546948   -90.992229
 0.240000   10.083162   -93.419526
 0.245000   9.612753   -94.597032
 0.250000   9.137192   -95.267299
 0.255000   8.660080   -95.284017
 0.260000   8.184352   -94.692319
 0.265000   7.713156   -93.626859
 0.270000   7.248083   -92.539900
 0.275000   6.787757   -91.525503
 0.280000   6.332828   -90.371640
 0.285000   5.884041   -89.092647
 0.290000   5.441901   -87.494122
 0.295000   5.009100   -85.460988
 0.300000   4.587292   -82.740505
 0.305000   4.181695   -79.026649
 0.310000   3.797025   -74.736788
 0.315000   3.434327   -70.035245
 0.320000   3.096673   -64.886946
 0.325000   2.785457   -59.555652
 0.330000   2.501116   -53.973271
 0.335000   2.245725   -48.070720
 0.340000   2.020409   -42.186356
 0.345000   1.823861   -36.444146
 0.350000   1.655967   -30.809332
 0.355000   1.515768   -25.303372
 0.360000   1.402934   -19.841180
 0.365000   1.317356   -15.120306
 0.370000   1.251731   -11.223697
 0.375000   1.205119   -7.741759
 0.380000   1.174313   -4.866652
 0.385000   1.156453   -2.415806
 0.390000   1.150155   -0.251341
 0.395000   1.153939   1.028758
 0.400000   1.160443   1.731625
 0.405000   1.171255   2.304255
 0.410000   1.183485   2.357734
 0.415000   1.194833   2.006500
 0.420000   1.203550   1.066235
 0.425000   1.205495   0.305435
 0.430000   1.206605   0.254718
 0.435000   1.208042   0.582277
 0.440000   1.212427   1.404528
 0.445000   1.222088   2.713261
 0.450000   1.239560   4.160845
 0.455000   1.263696   6.527430
 0.460000   1.304834   9.456233
 0.465000   1.358258   12.060452
 0.470000   1.425439   14.489873
 0.475000   1.503157   15.532770
 0.480000   1.580766   14.589579
 0.485000   1.649053   11.278698
 0.490000   1.693553   4.869079
 0.495000   1.697744   -5.117977
 0.500000   1.642374   -18.187209
 0.505000   1.515872   -32.250932
 0.510000   1.319864   -46.466094
 0.515000   1.051211   -59.741904
 0.520000   0.722445   -70.551727
 0.525000   0.345693   -78.862039
 0.530000   -0.066175   -83.113808
 0.535000   -0.485445   -82.256097
 0.540000   -0.888736   -77.924208
 0.545000   -1.264687   -70.100585
 0.550000   -1.589742   -59.397687
 0.555000   -1.858664   -47.786685
 0.560000   -2.067609   -36.756615
 0.565000   -2.226230   -27.548097
 0.570000   -2.343090   -19.954929
 0.575000   -2.425779   -14.058307
 0.580000   -2.483673   -10.297885
 0.585000   -2.528758   -8.590815
 0.590000   -2.569581   -8.437683
 0.595000   -2.613135   -8.977390
 0.600000   -2.659355   -8.865100
 0.605000   -2.701786   -7.921408
 0.610000   -2.738569   -6.835613
 0.615000   -2.770142   -4.743175
 0.620000   -2.786001   -1.266871
 0.625000   -2.782811   2.934738
 0.630000   -2.756653   7.974388
 0.635000   -2.703067   13.184453
 0.640000   -2.624809   17.274716
 0.645000   -2.530320   19.822693
 0.650000   -2.426582   20.605919
 0.655000   -2.324260   19.514542
 0.660000   -2.231436   16.800929
 0.665000   -2.156251   12.761649
 0.670000   -2.103820   7.955411
 0.675000   -2.076697   3.032294
 0.680000   -2.073497   -0.731033
 0.685000   -2.084007   -2.777155
 0.690000   -2.101269   -3.420223
 0.695000   -2.118210   -2.672229
 0.700000   -2.127991   -1.253893
 0.705000   -2.130748   1.020317
 0.710000   -2.117788   4.239420
 0.715000   -2.088354   7.325783
 0.720000   -2.044530   9.993725
 0.725000   -1.988417   11.873080
 0.730000   -1.925799   13.230354
 0.735000   -1.856114   14.739396
 0.740000   -1.778405   16.389363
 0.745000   -1.692220   18.129220
 0.750000   -1.597113   19.966151
 0.755000   -1.492558   20.902665
 0.760000   -1.388086   23.449191
 0.765000   -1.258066   27.743723
 0.770000   -1.110649   31.190451
 0.775000   -0.946162   34.478163
 0.780000   -0.765867   37.354000
 0.785000   -0.572622   39.274883
 0.790000   -0.373118   41.289293
 0.795000   -0.159729   43.006551
 0.800000   0.056947   43.126521
 0.805000   0.271536   42.246042
 0.810000   0.479407   40.537760
 0.815000   0.676914   38.464596
 0.820000   0.864053   35.480288
 0.825000   1.031717   31.387579
 0.830000   1.177929   27.189888
 0.835000   1.303616   23.142745
 0.840000   1.409357   19.305315
 0.845000   1.496669   16.181973
 0.850000   1.571176   12.763371
 0.855000   1.624302   8.275123
 0.860000   1.653928   3.762195
 0.865000   1.661924   -0.582642
 0.870000   1.648101   -4.968466
 0.875000   1.612240   -9.166051
 0.880000   1.556441   -13.627863
 0.885000   1.475961   -18.640093
 0.890000   1.370040   -23.875010
 0.895000   1.237211   -29.878016
 0.900000   1.071260   -36.934956
 0.905000   0.867861   -45.206538
 0.910000   0.619194   -54.598772
 0.915000   0.321874   -63.777680
 0.920000   -0.018583   -72.698374
 0.925000   -0.405110   -82.287468
 0.930000   -0.841457   -91.369334
 0.935000   -1.318803   -99.816584
 0.940000   -1.839623   -107.393949
 0.945000   -2.392743   -109.664406
 0.950000   -2.936267   -107.786040
 0.955000   -3.470603   -104.785800
 0.960000   -3.984125   -98.983265
 0.965000   -4.460436   -91.413774
 0.970000   -4.898263   -84.279718
 0.975000   -5.303233   -71.750617
 0.980000   -5.615769   -56.080463
 0.985000   -5.864038   -42.177287
 0.990000   -6.037542   -25.043544
 0.995000   -6.114473   -1.064864
 1.000000   -6.048191   27.577901
201 psinorm er(kV/m) der/dpsiN
 0.000000   0.261660   449.975234
 0.005000   2.051903   266.121869
 0.010000   2.922879   153.303436
 0.015000   3.584937   122.797630
 0.020000   4.150855   105.603675
 0.025000   4.640974   93.125845
 0.030000   5.082113   84.047652
 0.035000   5.481450   76.299716
 0.040000   5.845111   69.604749
 0.045000   6.177498   63.693015
 0.050000   6.482041   58.341280
 0.055000   6.760911   53.120330
 0.060000   7.013244   47.491405
 0.065000   7.235825   42.848453
 0.070000   7.441729   40.467972
 0.075000   7.640504   37.001011
 0.080000   7.811739   31.744234
 0.085000   7.957947   30.472676
 0.090000   8.116465   27.524065
 0.095000   8.233187   23.746762
 0.100000   8.353933   23.603697
 0.105000   8.469224   18.692781
 0.110000   8.540861   18.531591
 0.115000   8.654540   15.276372
 0.120000   8.693625   13.651698
 0.125000   8.791057   12.418807
 0.130000   8.817813   9.950274
 0.135000   8.890560   8.366265
 0.140000   8.901475   6.439980
 0.145000   8.954960   4.384049
 0.150000   8.945316   2.886800
 0.155000   8.983828   -0.185160
 0.160000   8.943464   -0.963706
 0.165000   8.974191   -4.277433
 0.170000   8.900690   -6.328710
 0.175000   8.910904   -6.835709
 0.180000   8.832333   -11.521918
 0.185000   8.795684   -11.639261
 0.190000   8.715940   -17.240856
 0.195000   8.623276   -17.272115
 0.200000   8.543219   -23.577800
 0.205000   8.387498   -25.657757
 0.210000   8.286641   -29.260275
 0.215000   8.094895   -35.112308
 0.220000   7.935518   -34.912611
 0.225000   7.745769   -43.232368
 0.230000   7.503195   -44.551505
 0.235000   7.300254   -49.482419
 0.240000   7.008370   -54.394787
 0.245000   6.756306   -51.723415
 0.250000   6.491136   -58.347737
 0.255000   6.172829   -58.060888
 0.260000   5.910527   -57.328108
 0.265000   5.599548   -61.141221
 0.270000   5.299115   -57.254719
 0.275000   5.027000   -61.110733
 0.280000   4.688008   -62.283659
 0.285000   4.404164   -57.180048
 0.290000   4.116207   -62.031718
 0.295000   3.783847   -60.666437
 0.300000   3.509543   -56.259255
 0.305000   3.221254   -58.367567
 0.310000   2.925867   -53.928250
 0.315000   2.681972   -50.013810
 0.320000   2.425729   -49.603749
 0.325000   2.185934   -43.437943
 0.330000   1.991350   -39.963093
 0.335000   1.786303   -37.906880
 0.340000   1.612281   -30.764923
 0.345000   1.478654   -27.596499
 0.350000   1.336316   -25.041915
 0.355000   1.228235   -18.014449
 0.360000   1.156172   -14.979927
 0.365000   1.078436   -12.743983
 0.370000   1.028732   -7.135345
 0.375000   1.007082   -5.304258
 0.380000   0.975689   -4.402924
 0.385000   0.963053   -0.309200
 0.390000   0.972597   1.015902
 0.395000   0.973212   0.575085
 0.400000   0.978348   2.762671
 0.405000   1.000839   3.415551
 0.410000   1.012503   1.799648
 0.415000   1.018835   2.597384
 0.420000   1.038477   2.650801
 0.425000   1.045343   0.095566
 0.430000   1.039433   0.654900
 0.435000   1.051892   2.556222
 0.440000   1.064995   1.072206
 0.445000   1.062614   2.340126
 0.450000   1.088396   5.759988
 0.455000   1.120214   5.954421
 0.460000   1.147941   8.181919
 0.465000   1.202033   12.394907
 0.470000   1.271890   13.693594
 0.475000   1.338969   13.774920
 0.480000   1.409639   14.182570
 0.485000   1.480795   11.523530
 0.490000   1.524874   4.391015
 0.495000   1.524705   -4.070699
 0.500000   1.484167   -14.560457
 0.505000   1.379100   -29.259250
 0.510000   1.191575   -42.389593
 0.515000   0.955204   -52.836772
 0.520000   0.663207   -64.088187
 0.525000   0.314323   -72.643559
 0.530000   -0.063229   -75.696366
 0.535000   -0.442641   -75.057203
 0.540000   -0.813801   -72.652479
 0.545000   -1.169166   -65.235211
 0.550000   -1.466153   -54.301291
 0.555000   -1.712179   -45.297618
 0.560000   -1.919129   -35.420646
 0.565000   -2.066385   -25.443373
 0.570000   -2.173563   -19.074599
 0.575000   -2.257131   -14.467258
 0.580000   -2.318235   -10.231600
 0.585000   -2.359447   -7.958075
 0.590000   -2.397816   -9.176592
 0.595000   -2.451213   -9.620009
 0.600000   -2.494016   -8.224912
 0.605000   -2.533462   -8.148585
 0.610000   -2.575502   -7.617449
 0.615000   -2.609637   -4.904897
 0.620000   -2.624551   -1.371189
 0.625000   -2.623349   1.724044
 0.630000   -2.607310   6.659090
 0.635000   -2.556758   12.444771
 0.640000   -2.482863   15.739259
 0.645000   -2.399365   17.926362
 0.650000   -2.303599   19.286829
 0.655000   -2.206497   18.383260
 0.660000   -2.119766   15.277694
 0.665000   -2.053720   11.600865
 0.670000   -2.003758   7.581250
 0.675000   -1.977907   2.479455
 0.680000   -1.978963   -1.276440
 0.685000   -1.990672   -2.829152
 0.690000   -2.007255   -3.389545
 0.695000   -2.024567   -3.052281
 0.700000   -2.037778   -1.605367
 0.705000   -2.040621   0.932738
 0.710000   -2.028450   3.759461
 0.715000   -2.003026   6.609510
 0.720000   -1.962355   9.432742
 0.725000   -1.908699   11.314141
 0.730000   -1.849214   12.374499
 0.735000   -1.784954   13.892517
 0.740000   -1.710288   15.757456
 0.745000   -1.627379   17.276342
 0.750000   -1.537525   18.954364
 0.755000   -1.437836   20.048008
 0.760000   -1.337045   22.615591
 0.765000   -1.211680   26.550448
 0.770000   -1.071541   29.907877
 0.775000   -0.912601   33.322829
 0.780000   -0.738312   36.000404
 0.785000   -0.552597   37.772769
 0.790000   -0.360585   39.857929
 0.795000   -0.154018   41.640344
 0.800000   0.055819   41.586622
 0.805000   0.261849   40.742704
 0.810000   0.463246   39.287740
 0.815000   0.654726   37.235345
 0.820000   0.835599   34.271933
 0.825000   0.997445   30.376160
 0.830000   1.139361   26.402038
 0.835000   1.261466   22.393148
 0.840000   1.363292   18.671599
 0.845000   1.448182   15.748787
 0.850000   1.520780   12.415271
 0.855000   1.572334   8.007524
 0.860000   1.600856   3.670187
 0.865000   1.609036   -0.472730
 0.870000   1.596128   -4.782815
 0.875000   1.561208   -8.865918
 0.880000   1.507469   -13.126106
 0.885000   1.429947   -17.993359
 0.890000   1.327536   -23.127514
 0.895000   1.198672   -28.918839
 0.900000   1.038347   -35.701818
 0.905000   0.841654   -43.806248
 0.910000   0.600285   -52.935679
 0.915000   0.312297   -61.759779
 0.920000   -0.017313   -70.441211
 0.925000   -0.392115   -80.009725
 0.930000   -0.817410   -88.844534
 0.935000   -1.280561   -96.907534
 0.940000   -1.786486   -104.734161
 0.945000   -2.327902   -107.368199
 0.950000   -2.860168   -105.321144
 0.955000   -3.381114   -102.241440
 0.960000   -3.882582   -97.364337
 0.965000   -4.354757   -90.016646
 0.970000   -4.782749   -82.336141
 0.975000   -5.178118   -69.734268
 0.980000   -5.480091   -53.726270
 0.985000   -5.715381   -40.333980
 0.990000   -5.883431   -24.432483
 0.995000   -5.959706   0.811383
 1.000000   -5.875317   32.944085
201 psinorm ommvb() dommvb/dpsiN
 0.000000   -23.758497   24957.204559
 0.005000   78.675279   16016.305899
 0.010000   136.404562   10954.539758
 0.015000   188.220676   9409.191946
 0.020000   230.496481   7677.425302
 0.025000   264.994929   6303.924587
 0.030000   293.535727   5283.691190
 0.035000   317.831841   4480.836161
 0.040000   338.344089   3727.362007
 0.045000   355.105461   3137.409133
 0.050000   369.718180   2617.375416
 0.055000   381.279216   2116.743609
 0.060000   390.885616   1703.902561
 0.065000   398.318241   1374.057595
 0.070000   404.626192   1035.377064
 0.075000   408.672012   763.653160
 0.080000   412.262724   514.856916
 0.085000   413.820581   203.481921
 0.090000   414.297543   61.274928
 0.095000   414.433330   -72.918431
 0.100000   413.568358   -442.243042
 0.105000   410.010900   -615.763874
 0.110000   407.410720   -600.387068
 0.115000   404.007029   -753.509909
 0.120000   399.875621   -894.367380
 0.125000   395.063355   -1011.102700
 0.130000   389.764594   -1164.011609
 0.135000   383.423239   -1312.121186
 0.140000   376.643382   -1326.188664
 0.145000   370.161353   -1324.033039
 0.150000   363.403051   -1375.736836
 0.155000   356.403984   -1414.386611
 0.160000   349.259185   -1438.924296
 0.165000   342.014741   -1454.194574
 0.170000   334.717240   -1460.700814
 0.175000   327.407733   -1454.864447
 0.180000   320.168595   -1446.835515
 0.185000   312.939378   -1435.634904
 0.190000   305.812246   -1455.998662
 0.195000   298.379391   -1479.509806
 0.200000   291.017148   -1405.583630
 0.205000   284.323555   -1318.608234
 0.210000   277.831066   -1277.802993
 0.215000   271.545525   -1231.105364
 0.220000   265.520012   -1179.806785
 0.225000   259.747457   -1128.449659
 0.230000   254.235515   -1074.067056
 0.235000   249.006787   -1057.405205
 0.240000   243.661463   -1108.108903
 0.245000   237.925698   -998.998706
 0.250000   233.671476   -824.876543
 0.255000   229.676932   -772.321588
 0.260000   225.948260   -719.253069
 0.265000   222.484402   -676.166017
 0.270000   219.186600   -749.746178
 0.275000   214.986940   -664.204974
 0.280000   212.544551   -464.744693
 0.285000   210.339493   -418.639225
 0.290000   208.358158   -372.119171
 0.295000   206.618301   -418.914013
 0.300000   204.169018   -378.006133
 0.305000   202.838240   -224.316874
 0.310000   201.925849   -166.139229
 0.315000   201.176848   -143.401752
 0.320000   200.491832   -179.957346
 0.325000   199.377274   -113.835880
 0.330000   199.353473   8.907975
 0.335000   199.466354   35.362541
 0.340000   199.707098   9.992098
 0.345000   199.566275   24.556191
 0.350000   199.952660   106.068497
 0.355000   200.626960   141.611812
 0.360000   201.368779   119.898696
 0.365000   201.825947   99.912580
 0.370000   202.367904   141.345418
 0.375000   203.239401   174.795507
 0.380000   204.115859   131.315717
 0.385000   204.552558   91.882163
 0.390000   205.034681   127.827261
 0.395000   205.830831   155.830814
 0.400000   206.592989   80.216071
 0.405000   206.632991   38.961286
 0.410000   206.982602   91.247149
 0.415000   207.545463   107.131553
 0.420000   208.053918   -17.123540
 0.425000   207.374228   -38.992781
 0.430000   207.663990   56.920944
 0.435000   207.943437   14.567544
 0.440000   207.809665   -98.857094
 0.445000   206.954866   -76.525822
 0.450000   207.044407   13.591567
 0.455000   207.090782   -85.337133
 0.460000   206.191036   -142.255220
 0.465000   205.668229   -49.679015
 0.470000   205.694245   -0.544754
 0.475000   205.662782   -139.710933
 0.480000   204.297136   -131.540367
 0.485000   204.347378   4.600468
 0.490000   204.343141   -73.354490
 0.495000   203.613833   -161.600696
 0.500000   202.727134   -108.506204
 0.505000   202.528771   -50.706865
 0.510000   202.220065   -200.848445
 0.515000   200.520287   -234.312929
 0.520000   199.876936   -121.584647
 0.525000   199.304440   -171.618404
 0.530000   198.160752   -280.757671
 0.535000   196.496864   -235.683126
 0.540000   195.803921   -140.609992
 0.545000   195.090764   -257.032890
 0.550000   193.233592   -282.162549
 0.555000   192.269138   -151.213510
 0.560000   191.721457   -131.891494
 0.565000   190.950223   -234.499562
 0.570000   189.376461   -185.353750
 0.575000   189.096686   -51.624679
 0.580000   188.860214   -111.409755
 0.585000   187.982588   -140.031683
 0.590000   187.459897   -43.629762
 0.595000   187.546291   22.966979
 0.600000   187.689567   -44.046269
 0.605000   187.105828   -12.146951
 0.610000   187.568098   104.974267
 0.615000   188.155571   110.113147
 0.620000   188.669229   94.299956
 0.625000   189.098570   153.352387
 0.630000   190.202753   231.190431
 0.635000   191.410475   233.764836
 0.640000   192.540401   245.420521
 0.645000   193.864680   302.433060
 0.650000   195.564732   350.463503
 0.655000   197.369315   360.750244
 0.660000   199.172234   384.265577
 0.665000   201.211971   430.488363
 0.670000   203.477118   465.156825
 0.675000   205.863539   490.863728
 0.680000   208.385755   527.867245
 0.685000   211.142211   574.463707
 0.690000   214.130392   619.376255
 0.695000   217.335974   679.504663
 0.700000   220.925439   745.749573
 0.705000   224.793470   791.932202
 0.710000   228.844761   837.423254
 0.715000   233.167702   906.794025
 0.720000   237.912701   1001.680111
 0.725000   243.184503   1054.352137
 0.730000   248.456223   1084.337356
 0.735000   254.027877   1145.987656
 0.740000   259.916099   1263.780457
 0.745000   266.665681   1336.227016
 0.750000   273.278369   1348.255935
 0.755000   280.148241   1408.438715
 0.760000   287.362757   1482.379871
 0.765000   294.972039   1599.714398
 0.770000   303.359901   1662.426665
 0.775000   311.596306   1687.435269
 0.780000   320.234253   1771.108913
 0.785000   329.307395   1858.067551
 0.790000   338.814929   1973.362869
 0.795000   349.041024   2059.466017
 0.800000   359.409589   2130.422160
 0.805000   370.345245   2248.291076
 0.810000   381.892500   2375.466076
 0.815000   394.099906   2517.616149
 0.820000   407.068661   2653.759370
 0.825000   420.637500   2779.295270
 0.830000   434.861614   2927.433939
 0.835000   449.911839   3097.113223
 0.840000   465.832746   3277.494949
 0.845000   482.686789   3470.778790
 0.850000   500.540534   3682.858561
 0.855000   519.515374   3809.216774
 0.860000   538.632702   4020.497261
 0.865000   559.720347   4392.544831
 0.870000   582.558150   4771.626987
 0.875000   607.436617   5210.109002
 0.880000   634.659240   5719.076605
 0.885000   664.627383   6309.855790
 0.890000   697.757798   6996.924169
 0.895000   734.596625   7825.068869
 0.900000   776.008487   8841.333453
 0.905000   823.009959   10098.560684
 0.910000   876.994093   11540.475506
 0.915000   938.414714   13492.213769
 0.920000   1011.916231   15987.260203
 0.925000   1098.287316   18882.022570
 0.930000   1200.736457   22451.476392
 0.935000   1322.802080   26642.473038
 0.940000   1467.161187   31254.812436
 0.945000   1635.350205   35897.072799
 0.950000   1826.131915   39719.211263
 0.955000   2032.542317   41068.775207
 0.960000   2236.819667   38179.371986
 0.965000   2414.336037   29390.948101
 0.970000   2530.729148   17629.291947
 0.975000   2590.628956   4780.730415
 0.980000   2578.536452   -7869.462216
 0.985000   2511.934334   -8525.888453
 0.990000   2493.277568   7670.187628
 0.995000   2588.636211   127024.625917
 1.000000   3763.523827   342930.420680
201 psinorm ommpp() dommpp/dpsiN
 0.000000   43.754301   -24891.312346
 0.005000   -58.461284   -15994.921638
 0.010000   -116.194915   -10956.453201
 0.015000   -168.025816   -9412.330803
 0.020000   -210.318223   -7681.153360
 0.025000   -244.837349   -6309.064897
 0.030000   -273.408872   -5291.539433
 0.035000   -297.752744   -4492.103313
 0.040000   -318.329905   -3742.328006
 0.045000   -335.176024   -3156.447885
 0.050000   -349.894384   -2640.482345
 0.055000   -361.580847   -2143.600549
 0.060000   -371.330390   -1733.947477
 0.065000   -378.920322   -1406.653899
 0.070000   -385.396929   -1070.010699
 0.075000   -389.620429   -799.966373
 0.080000   -393.396592   -552.617576
 0.085000   -395.146605   -242.333736
 0.090000   -395.819930   -100.886121
 0.095000   -396.155466   32.553125
 0.100000   -395.494398   401.216021
 0.105000   -392.143306   574.266378
 0.110000   -389.751735   558.556872
 0.115000   -386.557737   711.645800
 0.120000   -382.635277   852.233740
 0.125000   -378.035399   968.449828
 0.130000   -372.950778   1120.910367
 0.135000   -366.826296   1268.482445
 0.140000   -360.265954   1281.897247
 0.145000   -354.007323   1279.205941
 0.150000   -347.473894   1329.825505
 0.155000   -340.709068   1367.027710
 0.160000   -333.803617   1390.617829
 0.165000   -326.802890   1404.960032
 0.170000   -319.754017   1410.328874
 0.175000   -312.699601   1402.955968
 0.180000   -305.724457   1392.826271
 0.185000   -298.771339   1379.242154
 0.190000   -291.932036   1397.209781
 0.195000   -284.799241   1418.024225
 0.200000   -277.751794   1341.095608
 0.205000   -271.388285   1250.520714
 0.210000   -265.246586   1205.865221
 0.215000   -259.329632   1155.540828
 0.220000   -253.691178   1100.316427
 0.225000   -248.326468   1044.874704
 0.230000   -243.242431   986.662935
 0.235000   -238.459839   966.412976
 0.240000   -233.578301   1014.689377
 0.245000   -228.312945   904.401673
 0.250000   -224.534285   729.609244
 0.255000   -221.016853   677.037571
 0.260000   -217.763909   624.560750
 0.265000   -214.771245   582.539158
 0.270000   -211.938517   657.206279
 0.275000   -208.199182   572.679471
 0.280000   -206.211723   374.373053
 0.285000   -204.455452   329.546578
 0.290000   -202.916257   284.625049
 0.295000   -201.609201   333.453024
 0.300000   -199.581727   295.265628
 0.305000   -198.656545   145.290226
 0.310000   -198.128824   91.402441
 0.315000   -197.742521   73.366507
 0.320000   -197.395159   115.070400
 0.325000   -196.591817   54.280228
 0.330000   -196.852357   -62.881247
 0.335000   -197.220629   -83.433261
 0.340000   -197.686690   -52.178454
 0.345000   -197.742414   -61.000338
 0.350000   -198.296693   -136.877829
 0.355000   -199.111192   -166.915184
 0.360000   -199.965845   -139.739876
 0.365000   -200.508591   -115.032886
 0.370000   -201.116174   -152.569115
 0.375000   -202.034282   -182.537266
 0.380000   -202.941546   -136.182369
 0.385000   -203.396106   -94.297969
 0.390000   -203.884526   -128.078602
 0.395000   -204.676892   -154.802056
 0.400000   -205.432547   -78.484446
 0.405000   -205.461736   -36.657031
 0.410000   -205.799117   -88.889415
 0.415000   -206.350630   -105.125053
 0.420000   -206.850367   18.189775
 0.425000   -206.168732   39.298216
 0.430000   -206.457385   -56.666227
 0.435000   -206.735395   -13.985267
 0.440000   -206.597238   100.261622
 0.445000   -205.732778   79.239083
 0.450000   -205.804847   -9.430722
 0.455000   -205.827086   91.864563
 0.460000   -204.886201   151.711454
 0.465000   -204.309971   61.739467
 0.470000   -204.268807   15.034627
 0.475000   -204.159625   155.243703
 0.480000   -202.716370   146.129945
 0.485000   -202.698325   6.678231
 0.490000   -202.649587   78.223569
 0.495000   -201.916090   156.482718
 0.500000   -201.084760   90.318995
 0.505000   -201.012900   18.455933
 0.510000   -200.900201   154.382351
 0.515000   -199.469076   174.571026
 0.520000   -199.154491   51.032920
 0.525000   -198.958747   92.756365
 0.530000   -198.226927   197.643862
 0.535000   -196.982308   153.427029
 0.540000   -196.692657   62.685784
 0.545000   -196.355451   186.932305
 0.550000   -194.823334   222.764861
 0.555000   -194.127802   103.426825
 0.560000   -193.789065   95.134879
 0.565000   -193.176453   206.951465
 0.570000   -191.719551   165.398821
 0.575000   -191.522465   37.566372
 0.580000   -191.343887   101.111870
 0.585000   -190.511346   131.440868
 0.590000   -190.029478   35.192079
 0.595000   -190.159425   -31.944369
 0.600000   -190.348922   35.181169
 0.605000   -189.807614   4.225543
 0.610000   -190.306667   -111.809880
 0.615000   -190.925713   -114.856322
 0.620000   -191.455230   -95.566827
 0.625000   -191.881381   -150.417649
 0.630000   -192.959406   -223.216043
 0.635000   -194.113541   -220.580383
 0.640000   -195.165210   -228.145805
 0.645000   -196.394999   -282.610367
 0.650000   -197.991314   -329.857584
 0.655000   -199.693575   -341.235702
 0.660000   -201.403671   -367.464648
 0.665000   -203.368222   -417.726714
 0.670000   -205.580938   -457.201414
 0.675000   -207.940236   -487.831434
 0.680000   -210.459252   -528.598278
 0.685000   -213.226219   -577.240862
 0.690000   -216.231661   -622.796478
 0.695000   -219.454183   -682.176892
 0.700000   -223.053430   -747.003466
 0.705000   -226.924218   -790.911885
 0.710000   -230.962549   -833.183834
 0.715000   -235.256056   -899.468242
 0.720000   -239.957231   -991.686386
 0.725000   -245.172920   -1042.479056
 0.730000   -250.382022   -1071.107002
 0.735000   -255.883990   -1131.248260
 0.740000   -261.694504   -1247.391094
 0.745000   -268.357901   -1318.097796
 0.750000   -274.875482   -1328.289785
 0.755000   -281.640799   -1387.536050
 0.760000   -288.750843   -1458.930680
 0.765000   -296.230106   -1571.970675
 0.770000   -304.470549   -1631.236214
 0.775000   -312.542468   -1652.957106
 0.780000   -321.000121   -1733.754913
 0.785000   -329.880017   -1818.792668
 0.790000   -339.188047   -1932.073575
 0.795000   -349.200753   -2016.459466
 0.800000   -359.352642   -2087.295639
 0.805000   -370.073709   -2206.045033
 0.810000   -381.413092   -2334.928317
 0.815000   -393.422992   -2479.151553
 0.820000   -406.204608   -2618.279082
 0.825000   -419.605783   -2747.907691
 0.830000   -433.683685   -2900.244050
 0.835000   -448.608224   -3073.970477
 0.840000   -464.423389   -3258.189634
 0.845000   -481.190120   -3454.596816
 0.850000   -498.969358   -3670.095190
 0.855000   -517.891072   -3800.941650
 0.860000   -536.978774   -4016.735065
 0.865000   -558.058423   -4393.127473
 0.870000   -580.910049   -4776.595453
 0.875000   -605.824377   -5219.275053
 0.880000   -633.102799   -5732.704468
 0.885000   -663.151422   -6328.495884
 0.890000   -696.387758   -7020.799179
 0.895000   -733.359414   -7854.946885
 0.900000   -774.937227   -8878.268410
 0.905000   -822.142098   -10143.767222
 0.910000   -876.374899   -11595.074278
 0.915000   -938.092841   -13555.991449
 0.920000   -1011.934814   -16059.958577
 0.925000   -1098.692426   -18964.310037
 0.930000   -1201.577914   -22542.845726
 0.935000   -1324.120884   -26742.289622
 0.940000   -1469.000810   -31362.206385
 0.945000   -1637.742947   -36006.737206
 0.950000   -1829.068182   -39826.997303
 0.955000   -2036.012920   -41173.561007
 0.960000   -2240.803792   -38278.355251
 0.965000   -2418.796473   -29482.361875
 0.970000   -2535.627411   -17713.571665
 0.975000   -2595.932190   -4852.481032
 0.980000   -2584.152222   7813.381754
 0.985000   -2517.798372   8483.711166
 0.990000   -2499.315110   -7695.231172
 0.995000   -2594.750684   -127025.690781
 1.000000   -3769.572018   -342902.842778
201 psinorm omevb() domevb/dpsiN
 0.000000   -6.303116   77.751170
 0.005000   -6.015481   37.302736
 0.010000   -5.930089   16.119169
 0.015000   -5.854289   15.061320
 0.020000   -5.779475   14.637297
 0.025000   -5.707916   13.387827
 0.030000   -5.645597   10.840271
 0.035000   -5.599514   7.579326
 0.040000   -5.569804   4.036019
 0.045000   -5.559154   0.116375
 0.050000   -5.568640   -3.801131
 0.055000   -5.597165   -7.402916
 0.060000   -5.642669   -10.445118
 0.065000   -5.701616   -12.853190
 0.070000   -5.771201   -14.749669
 0.075000   -5.849113   -16.290864
 0.080000   -5.934110   -17.602403
 0.085000   -6.025137   -18.560128
 0.090000   -6.119711   -19.188557
 0.095000   -6.217022   -19.814207
 0.100000   -6.317853   -20.349950
 0.105000   -6.420522   -20.696942
 0.110000   -6.524823   -20.908654
 0.115000   -6.629608   -20.824074
 0.120000   -6.733063   -20.977609
 0.125000   -6.839384   -21.383343
 0.130000   -6.946897   -21.720713
 0.135000   -7.056592   -22.149711
 0.140000   -7.168394   -22.696384
 0.145000   -7.283555   -23.128557
 0.150000   -7.399679   -24.111781
 0.155000   -7.524673   -25.460833
 0.160000   -7.654288   -26.312376
 0.165000   -7.787797   -27.146916
 0.170000   -7.925757   -28.193266
 0.175000   -8.069730   -29.641242
 0.180000   -8.222169   -31.655924
 0.185000   -8.386289   -33.955823
 0.190000   -8.561728   -36.270818
 0.195000   -8.748997   -38.888848
 0.200000   -8.950616   -41.815082
 0.205000   -9.167148   -45.340830
 0.210000   -9.404024   -49.119781
 0.215000   -9.658346   -52.677688
 0.220000   -9.930801   -56.537090
 0.225000   -10.223717   -60.557698
 0.230000   -10.536378   -64.325296
 0.235000   -10.866970   -67.854251
 0.240000   -11.214921   -70.224803
 0.245000   -11.569218   -71.347962
 0.250000   -11.928400   -71.966271
 0.255000   -12.288880   -71.933411
 0.260000   -12.647734   -71.294507
 0.265000   -13.001825   -70.184201
 0.270000   -13.349576   -69.054746
 0.275000   -13.692373   -68.000195
 0.280000   -14.029578   -66.808506
 0.285000   -14.360458   -65.494006
 0.290000   -14.684518   -63.862281
 0.295000   -14.999081   -61.798242
 0.300000   -15.302501   -59.049136
 0.305000   -15.589572   -55.308929
 0.310000   -15.855590   -50.994975
 0.315000   -16.099522   -46.271584
 0.320000   -16.318306   -41.103669
 0.325000   -16.510559   -35.754978
 0.330000   -16.675856   -30.157404
 0.335000   -16.812133   -24.241851
 0.340000   -16.918274   -18.346661
 0.345000   -16.995599   -12.595788
 0.350000   -17.044232   -6.954457
 0.355000   -17.065144   -1.444113
 0.360000   -17.058673   4.020347
 0.365000   -17.024940   8.741388
 0.370000   -16.971259   12.636077
 0.375000   -16.898580   16.114027
 0.380000   -16.810119   18.983091
 0.385000   -16.708749   21.425859
 0.390000   -16.595861   23.580225
 0.395000   -16.472946   24.848222
 0.400000   -16.347378   25.537000
 0.405000   -16.217576   26.093573
 0.410000   -16.086443   26.129042
 0.415000   -15.956286   25.757865
 0.420000   -15.828864   24.795740
 0.425000   -15.708329   24.011183
 0.430000   -15.588752   23.934828
 0.435000   -15.468980   24.234888
 0.440000   -15.346403   25.027798
 0.445000   -15.218702   26.305364
 0.450000   -15.083350   27.719977
 0.455000   -14.941503   30.051804
 0.460000   -14.782832   32.944082
 0.465000   -14.612062   35.510028
 0.470000   -14.427731   37.899448
 0.475000   -14.233067   38.900636
 0.480000   -14.038725   37.914046
 0.485000   -13.853927   34.558099
 0.490000   -13.693144   28.101765
 0.495000   -13.572909   18.066366
 0.500000   -13.512480   4.947184
 0.505000   -13.523437   -9.168075
 0.510000   -13.604161   -23.436338
 0.515000   -13.757801   -36.766793
 0.520000   -13.971829   -47.632783
 0.525000   -14.234128   -56.000761
 0.530000   -14.531837   -60.311674
 0.535000   -14.837245   -59.514560
 0.540000   -15.126982   -55.244699
 0.545000   -15.389692   -47.484510
 0.550000   -15.601827   -36.846425
 0.555000   -15.758156   -25.301591
 0.560000   -15.854843   -14.339015
 0.565000   -15.901547   -5.199289
 0.570000   -15.906836   2.323819
 0.575000   -15.878308   8.149147
 0.580000   -15.825345   11.837077
 0.585000   -15.759938   13.470495
 0.590000   -15.690640   13.548855
 0.595000   -15.624449   12.933304
 0.600000   -15.561307   12.968730
 0.605000   -15.494762   13.834596
 0.610000   -15.422961   14.841669
 0.615000   -15.346345   16.854564
 0.620000   -15.254415   20.250591
 0.625000   -15.143839   24.371288
 0.630000   -15.010702   29.329509
 0.635000   -14.850544   34.457764
 0.640000   -14.666124   38.465995
 0.645000   -14.465884   40.931906
 0.650000   -14.256805   41.633256
 0.655000   -14.049552   40.460456
 0.660000   -13.852201   37.666184
 0.665000   -13.672890   33.547384
 0.670000   -13.516727   28.663204
 0.675000   -13.386258   23.664251
 0.680000   -13.280084   19.827822
 0.685000   -13.187979   17.712078
 0.690000   -13.102964   17.003761
 0.695000   -13.017942   17.691940
 0.700000   -12.926044   19.057159
 0.705000   -12.827370   21.286455
 0.710000   -12.713180   24.470634
 0.715000   -12.582664   27.534189
 0.720000   -12.437838   30.193958
 0.725000   -12.280724   32.082759
 0.730000   -12.117010   33.470624
 0.735000   -11.946018   35.035566
 0.740000   -11.766655   36.771640
 0.745000   -11.578302   38.633562
 0.750000   -11.380319   40.635248
 0.755000   -11.171949   41.787062
 0.760000   -10.962448   44.608553
 0.765000   -10.725864   49.248265
 0.770000   -10.469966   53.122522
 0.775000   -10.194638   56.933971
 0.780000   -9.900626   60.445468
 0.785000   -9.590184   63.131574
 0.790000   -9.269310   66.060339
 0.795000   -8.929580   68.862456
 0.800000   -8.580686   70.260655
 0.805000   -8.226974   70.875560
 0.810000   -7.871930   70.903531
 0.815000   -7.517939   70.829598
 0.820000   -7.163634   70.125650
 0.825000   -6.816682   68.605158
 0.830000   -6.477583   67.269822
 0.835000   -6.143984   66.353820
 0.840000   -5.814044   65.865200
 0.845000   -5.485332   66.213296
 0.850000   -5.151911   66.230183
 0.855000   -4.823030   64.892514
 0.860000   -4.502986   62.869485
 0.865000   -4.194335   59.802589
 0.870000   -3.904960   54.691978
 0.875000   -3.647415   46.654645
 0.880000   -3.438414   33.703227
 0.885000   -3.310383   13.476314
 0.890000   -3.303651   -16.436836
 0.895000   -3.474751   -60.083977
 0.900000   -3.904491   -122.039208
 0.905000   -4.695144   -207.378339
 0.910000   -5.978274   -321.040841
 0.915000   -7.905552   -465.741488
 0.920000   -10.635689   -642.505663
 0.925000   -14.330609   -847.236767
 0.930000   -19.108056   -1063.526552
 0.935000   -24.965874   -1261.667141
 0.940000   -31.724728   -1395.776486
 0.945000   -38.923639   -1404.442285
 0.950000   -45.769151   -1235.801667
 0.955000   -51.281656   -869.498410
 0.960000   -54.464135   -336.350900
 0.965000   -54.645165   266.859083
 0.970000   -51.795544   806.358386
 0.975000   -46.581581   1175.139836
 0.980000   -40.044146   1324.620051
 0.985000   -33.335380   1278.686663
 0.990000   -27.257279   1115.579427
 0.995000   -22.179586   915.063606
 1.000000   -18.106643   714.113617
201 psinorm omepp() domepp/dpsiN
 0.000000   26.298920   -11.858956
 0.005000   26.229476   -15.918475
 0.010000   26.139735   -18.032612
 0.015000   26.049150   -18.200176
 0.020000   25.957733   -18.365355
 0.025000   25.865497   -18.528138
 0.030000   25.772452   -18.688515
 0.035000   25.678612   -18.846478
 0.040000   25.583987   -19.002018
 0.045000   25.488591   -19.155127
 0.050000   25.392436   -19.305798
 0.055000   25.295533   -19.454024
 0.060000   25.197896   -19.599798
 0.065000   25.099535   -19.743114
 0.070000   25.000465   -19.883966
 0.075000   24.900696   -20.022349
 0.080000   24.800241   -20.158257
 0.085000   24.699113   -20.291688
 0.090000   24.597324   -20.422636
 0.095000   24.494887   -20.551098
 0.100000   24.391813   -20.677072
 0.105000   24.288116   -20.800554
 0.110000   24.183808   -20.921542
 0.115000   24.078901   -21.040034
 0.120000   23.973407   -21.156030
 0.125000   23.867340   -21.269528
 0.130000   23.760712   -21.380528
 0.135000   23.653535   -21.489030
 0.140000   23.545822   -21.595034
 0.145000   23.437585   -21.698540
 0.150000   23.328836   -21.799551
 0.155000   23.219589   -21.898067
 0.160000   23.109856   -21.994092
 0.165000   22.999648   -22.087626
 0.170000   22.888979   -22.178673
 0.175000   22.777862   -22.267237
 0.180000   22.666307   -22.353320
 0.185000   22.554328   -22.436928
 0.190000   22.441938   -22.518063
 0.195000   22.329148   -22.596732
 0.200000   22.215970   -22.672939
 0.205000   22.102418   -22.746690
 0.210000   21.988504   -22.817991
 0.215000   21.874238   -22.886848
 0.220000   21.759635   -22.953268
 0.225000   21.644706   -23.017258
 0.230000   21.529463   -23.078825
 0.235000   21.413917   -23.137977
 0.240000   21.298083   -23.194723
 0.245000   21.181970   -23.249070
 0.250000   21.065592   -23.301028
 0.255000   20.948960   -23.350605
 0.260000   20.832086   -23.397812
 0.265000   20.714982   -23.442658
 0.270000   20.597659   -23.485153
 0.275000   20.480130   -23.525308
 0.280000   20.362406   -23.563134
 0.285000   20.244499   -23.598641
 0.290000   20.126420   -23.631841
 0.295000   20.008181   -23.662746
 0.300000   19.889792   -23.691369
 0.305000   19.771267   -23.717720
 0.310000   19.652615   -23.741813
 0.315000   19.533849   -23.763661
 0.320000   19.414979   -23.783277
 0.325000   19.296016   -23.800674
 0.330000   19.176972   -23.815867
 0.335000   19.057857   -23.828869
 0.340000   18.938683   -23.839695
 0.345000   18.819460   -23.848358
 0.350000   18.700200   -23.854875
 0.355000   18.580912   -23.859259
 0.360000   18.461607   -23.861527
 0.365000   18.342296   -23.861693
 0.370000   18.222990   -23.859774
 0.375000   18.103699   -23.855786
 0.380000   17.984432   -23.849744
 0.385000   17.865201   -23.841665
 0.390000   17.746016   -23.831566
 0.395000   17.626886   -23.819464
 0.400000   17.507821   -23.805375
 0.405000   17.388832   -23.789317
 0.410000   17.269928   -23.771308
 0.415000   17.151119   -23.751365
 0.420000   17.032414   -23.729505
 0.425000   16.913824   -23.705748
 0.430000   16.795357   -23.680110
 0.435000   16.677023   -23.652611
 0.440000   16.558831   -23.623270
 0.445000   16.440790   -23.592103
 0.450000   16.322910   -23.559132
 0.455000   16.205199   -23.524374
 0.460000   16.087666   -23.487849
 0.465000   15.970320   -23.449576
 0.470000   15.853170   -23.409575
 0.475000   15.736224   -23.367866
 0.480000   15.619491   -23.324468
 0.485000   15.502980   -23.279401
 0.490000   15.386697   -23.232686
 0.495000   15.270653   -23.184343
 0.500000   15.154854   -23.134393
 0.505000   15.039309   -23.082857
 0.510000   14.924025   -23.029756
 0.515000   14.809011   -22.975111
 0.520000   14.694274   -22.918944
 0.525000   14.579822   -22.861278
 0.530000   14.465661   -22.802134
 0.535000   14.351800   -22.741537
 0.540000   14.238246   -22.679509
 0.545000   14.125005   -22.616076
 0.550000   14.012085   -22.551262
 0.555000   13.899493   -22.485094
 0.560000   13.787234   -22.417600
 0.565000   13.675317   -22.348807
 0.570000   13.563746   -22.278748
 0.575000   13.452529   -22.207454
 0.580000   13.341672   -22.134962
 0.585000   13.231180   -22.061309
 0.590000   13.121059   -21.986538
 0.595000   13.011314   -21.910694
 0.600000   12.901952   -21.833830
 0.605000   12.792976   -21.756004
 0.610000   12.684392   -21.677282
 0.615000   12.576203   -21.597739
 0.620000   12.468414   -21.517462
 0.625000   12.361029   -21.436550
 0.630000   12.254049   -21.355121
 0.635000   12.147477   -21.273311
 0.640000   12.041316   -21.191279
 0.645000   11.935565   -21.109213
 0.650000   11.830224   -21.027337
 0.655000   11.725291   -20.945914
 0.660000   11.620764   -20.865256
 0.665000   11.516639   -20.785735
 0.670000   11.412907   -20.707793
 0.675000   11.309561   -20.631957
 0.680000   11.206588   -20.558855
 0.685000   11.103972   -20.489233
 0.690000   11.001695   -20.423984
 0.695000   10.899732   -20.364169
 0.700000   10.798053   -20.311052
 0.705000   10.696622   -20.266137
 0.710000   10.595392   -20.231214
 0.715000   10.494310   -20.208406
 0.720000   10.393308   -20.200233
 0.725000   10.292307   -20.209679
 0.730000   10.191211   -20.240270
 0.735000   10.089905   -20.296170
 0.740000   9.988250   -20.382277
 0.745000   9.886082   -20.504342
 0.750000   9.783206   -20.669098
 0.755000   9.679391   -20.884397
 0.760000   9.574362   -21.159362
 0.765000   9.467797   -21.504542
 0.770000   9.359317   -21.932071
 0.775000   9.248477   -22.455808
 0.780000   9.134759   -23.091468
 0.785000   9.017562   -23.856691
 0.790000   8.896192   -24.771046
 0.795000   8.769851   -25.855904
 0.800000   8.637633   -27.134134
 0.805000   8.498510   -28.629518
 0.810000   8.351338   -30.365771
 0.815000   8.194852   -32.365002
 0.820000   8.027688   -34.645362
 0.825000   7.848399   -37.217579
 0.830000   7.655512   -40.079933
 0.835000   7.447599   -43.211075
 0.840000   7.223401   -46.559886
 0.845000   6.982001   -50.031322
 0.850000   6.723088   -53.466812
 0.855000   6.447332   -56.617391
 0.860000   6.156914   -59.107290
 0.865000   5.856260   -60.385231
 0.870000   5.553062   -59.660445
 0.875000   5.259655   -55.820695
 0.880000   4.994855   -47.331090
 0.885000   4.786344   -32.116408
 0.890000   4.673691   -7.438174
 0.895000   4.711962   30.205961
 0.900000   4.975750   85.104252
 0.905000   5.563005   162.171800
 0.910000   6.597468   266.442069
 0.915000   8.227426   401.963808
 0.920000   10.617106   569.807288
 0.925000   13.925499   764.949299
 0.930000   18.266599   972.157218
 0.935000   23.647071   1161.850557
 0.940000   29.885105   1288.382538
 0.945000   36.530896   1294.777879
 0.950000   42.832884   1128.015627
 0.955000   47.811052   764.712610
 0.960000   50.480010   237.367636
 0.965000   50.184729   -358.272857
 0.970000   46.897281   -890.638105
 0.975000   41.278348   -1246.890453
 0.980000   34.428377   -1380.700514
 0.985000   27.471343   -1320.863951
 0.990000   21.219737   -1140.622971
 0.995000   16.065113   -916.128470
 1.000000   12.058452   -686.535716
201 psinorm kpol(km/s/T) dkpol/dpsiN
 0.000000   -0.007925   92.129088
 0.005000   0.372425   60.010800
 0.010000   0.592183   43.519122
 0.015000   0.807616   43.483792
 0.020000   1.027021   44.032380
 0.025000   1.247940   43.723731
 0.030000   1.464258   42.037011
 0.035000   1.668310   39.570312
 0.040000   1.859961   36.826881
 0.045000   2.036579   33.714882
 0.050000   2.197110   30.657311
 0.055000   2.343152   27.996506
 0.060000   2.477075   25.891268
 0.065000   2.602064   24.497829
 0.070000   2.722053   23.784609
 0.075000   2.839910   23.494174
 0.080000   2.956995   23.454374
 0.085000   3.074454   23.729888
 0.090000   3.194294   24.248345
 0.095000   3.316938   24.691680
 0.100000   3.441211   25.075431
 0.105000   3.567692   25.421901
 0.110000   3.695430   25.669937
 0.115000   3.824391   25.819741
 0.120000   3.953627   25.707553
 0.125000   4.081467   25.359907
 0.130000   4.207226   24.708233
 0.135000   4.328549   23.779728
 0.140000   4.445024   22.614526
 0.145000   4.554694   21.108760
 0.150000   4.656111   19.406822
 0.155000   4.748763   17.760340
 0.160000   4.833715   16.315715
 0.165000   4.911920   15.066817
 0.170000   4.984383   14.012895
 0.175000   5.052049   13.126472
 0.180000   5.115647   12.285835
 0.185000   5.174907   11.226477
 0.190000   5.227912   9.997535
 0.195000   5.274882   8.541410
 0.200000   5.313326   6.785428
 0.205000   5.342737   4.789753
 0.210000   5.361224   2.464173
 0.215000   5.367378   -0.052183
 0.220000   5.360702   -2.800979
 0.225000   5.339369   -5.611587
 0.230000   5.304586   -8.317320
 0.235000   5.256195   -10.873953
 0.240000   5.195847   -13.027412
 0.245000   5.125921   -14.879109
 0.250000   5.047056   -16.369808
 0.255000   4.962223   -17.506334
 0.260000   4.871992   -18.498773
 0.265000   4.777235   -19.324389
 0.270000   4.678748   -20.282071
 0.275000   4.574415   -21.458445
 0.280000   4.464164   -22.663282
 0.285000   4.347782   -24.005849
 0.290000   4.224105   -25.399882
 0.295000   4.093783   -26.799332
 0.300000   3.956112   -28.270822
 0.305000   3.811075   -29.678989
 0.310000   3.659322   -31.067819
 0.315000   3.500397   -32.486327
 0.320000   3.334459   -33.788856
 0.325000   3.162508   -35.005586
 0.330000   2.984403   -36.191738
 0.335000   2.800591   -37.230944
 0.340000   2.612094   -38.205135
 0.345000   2.418539   -39.165418
 0.350000   2.220439   -39.989910
 0.355000   2.018640   -40.782186
 0.360000   1.812618   -41.617946
 0.365000   1.602461   -42.437868
 0.370000   1.388239   -43.291418
 0.375000   1.169547   -44.206276
 0.380000   0.946176   -45.174073
 0.385000   0.717806   -46.167108
 0.390000   0.484505   -47.117083
 0.395000   0.246635   -47.975011
 0.400000   0.004755   -48.749977
 0.405000   -0.240865   -49.492618
 0.410000   -0.490171   -50.316499
 0.415000   -0.744030   -51.276078
 0.420000   -1.002932   -52.351618
 0.425000   -1.267546   -53.558516
 0.430000   -1.538517   -54.863710
 0.435000   -1.816183   -56.242749
 0.440000   -2.100945   -57.753822
 0.445000   -2.393721   -59.227686
 0.450000   -2.693222   -60.496488
 0.455000   -2.998686   -61.605850
 0.460000   -3.309280   -62.522912
 0.465000   -3.623915   -63.144526
 0.470000   -3.940725   -63.827299
 0.475000   -4.262188   -65.806444
 0.480000   -4.598790   -70.031545
 0.485000   -4.962504   -76.769053
 0.490000   -5.366480   -86.180977
 0.495000   -5.824313   -98.867710
 0.500000   -6.355157   -114.334191
 0.505000   -6.967655   -129.767298
 0.510000   -7.652830   -143.634943
 0.515000   -8.404005   -155.475059
 0.520000   -9.207581   -164.102192
 0.525000   -10.045027   -168.783315
 0.530000   -10.895414   -167.349723
 0.535000   -11.718524   -158.776368
 0.540000   -12.483178   -144.996088
 0.545000   -13.168485   -127.477978
 0.550000   -13.757958   -107.579344
 0.555000   -14.244278   -86.335189
 0.560000   -14.621309   -66.189130
 0.565000   -14.906169   -49.378726
 0.570000   -15.115097   -35.761316
 0.575000   -15.263783   -25.401709
 0.580000   -15.369114   -17.803381
 0.585000   -15.441816   -12.357293
 0.590000   -15.492687   -8.925171
 0.595000   -15.531068   -6.372814
 0.600000   -15.556415   -3.231692
 0.605000   -15.563385   1.139495
 0.610000   -15.545020   7.015362
 0.615000   -15.493231   15.222934
 0.620000   -15.392791   25.947852
 0.625000   -15.233753   38.358156
 0.630000   -15.009209   51.974059
 0.635000   -14.714012   66.096347
 0.640000   -14.348246   79.536063
 0.645000   -13.918652   90.554893
 0.650000   -13.442697   98.030428
 0.655000   -12.938347   101.797509
 0.660000   -12.424722   101.732439
 0.665000   -11.921023   98.219336
 0.670000   -11.442528   91.580205
 0.675000   -11.005221   82.390355
 0.680000   -10.618625   72.992988
 0.685000   -10.275291   64.840066
 0.690000   -9.970224   57.869173
 0.695000   -9.696599   52.356559
 0.700000   -9.446658   48.551070
 0.705000   -9.211089   46.474739
 0.710000   -8.981911   45.302043
 0.715000   -8.758068   44.163148
 0.720000   -8.540280   42.967467
 0.725000   -8.328394   41.745179
 0.730000   -8.122828   40.440498
 0.735000   -7.923989   39.230931
 0.740000   -7.730518   38.290910
 0.745000   -7.541079   37.545077
 0.750000   -7.355068   36.837547
 0.755000   -7.172704   36.128105
 0.760000   -6.993787   35.488224
 0.765000   -6.817822   34.556912
 0.770000   -6.648217   33.030589
 0.775000   -6.487516   31.035895
 0.780000   -6.337859   28.585260
 0.785000   -6.201663   25.661784
 0.790000   -6.081241   22.369067
 0.795000   -5.977973   18.828527
 0.800000   -5.892955   15.167805
 0.805000   -5.826295   11.565272
 0.810000   -5.777303   8.178225
 0.815000   -5.744512   5.103008
 0.820000   -5.726273   2.369130
 0.825000   -5.720821   0.034339
 0.830000   -5.725929   -1.950610
 0.835000   -5.740327   -3.727877
 0.840000   -5.763208   -5.403806
 0.845000   -5.794365   -7.068996
 0.850000   -5.833898   -8.816885
 0.855000   -5.882534   -10.632756
 0.860000   -5.940225   -12.390618
 0.865000   -6.006440   -13.993964
 0.870000   -6.080165   -15.339095
 0.875000   -6.159831   -16.314379
 0.880000   -6.243309   -16.849546
 0.885000   -6.328327   -16.960229
 0.890000   -6.412911   -16.681845
 0.895000   -6.495145   -16.034213
 0.900000   -6.573253   -14.964501
 0.905000   -6.644790   -13.357582
 0.910000   -6.706829   -10.979364
 0.915000   -6.754584   -7.720030
 0.920000   -6.784029   -3.561441
 0.925000   -6.790198   1.734576
 0.930000   -6.766684   8.102493
 0.935000   -6.709173   15.294755
 0.940000   -6.613736   23.355271
 0.945000   -6.475621   32.345670
 0.950000   -6.290279   41.986999
 0.955000   -6.055751   52.065373
 0.960000   -5.769626   62.513832
 0.965000   -5.430612   74.141419
 0.970000   -5.028212   88.242540
 0.975000   -4.548187   105.051066
 0.980000   -3.977701   124.295702
 0.985000   -3.305230   146.478148
 0.990000   -2.512919   171.688032
 0.995000   -1.588349   201.180498
 1.000000   -0.501114   233.713517
201 psinorm omghb() domghb/dpsiN
 0.000000   -0.000022   0.056280
 0.005000   0.000139   0.008364
 0.010000   0.000061   0.000233
 0.015000   0.000141   0.020408
 0.020000   0.000265   0.032638
 0.025000   0.000468   0.052441
 0.030000   0.000790   0.084932
 0.035000   0.001317   0.128203
 0.040000   0.002072   0.175041
 0.045000   0.003068   0.206014
 0.050000   0.004132   0.220645
 0.055000   0.005274   0.230579
 0.060000   0.006438   0.229439
 0.065000   0.007568   0.231027
 0.070000   0.008748   0.225849
 0.075000   0.009827   0.211922
 0.080000   0.010867   0.206577
 0.085000   0.011893   0.207311
 0.090000   0.012940   0.205541
 0.095000   0.013948   0.193959
 0.100000   0.014880   0.181642
 0.105000   0.015765   0.183661
 0.110000   0.016716   0.189433
 0.115000   0.017659   0.174962
 0.120000   0.018466   0.177435
 0.125000   0.019433   0.174481
 0.130000   0.020211   0.193912
 0.135000   0.021372   0.246956
 0.140000   0.022680   0.263050
 0.145000   0.024003   0.253631
 0.150000   0.025217   0.267991
 0.155000   0.026683   0.272781
 0.160000   0.027945   0.287653
 0.165000   0.029559   0.332401
 0.170000   0.031269   0.362352
 0.175000   0.033183   0.407775
 0.180000   0.035346   0.473733
 0.185000   0.037920   0.527157
 0.190000   0.040618   0.571200
 0.195000   0.043632   0.625111
 0.200000   0.046869   0.674201
 0.205000   0.050374   0.759868
 0.210000   0.054468   0.829623
 0.215000   0.058670   0.894096
 0.220000   0.063409   0.978488
 0.225000   0.068455   0.897031
 0.230000   0.072379   0.813381
 0.235000   0.076589   0.794502
 0.240000   0.080324   0.680359
 0.245000   0.083393   0.535740
 0.250000   0.085681   0.359606
 0.255000   0.086989   0.195625
 0.260000   0.087638   0.137275
 0.265000   0.088361   0.121910
 0.270000   0.088857   0.090613
 0.275000   0.089268   0.055651
 0.280000   0.089413   0.063145
 0.285000   0.089899   0.028069
 0.290000   0.089694   -0.124602
 0.295000   0.088653   -0.277136
 0.300000   0.086923   -0.436755
 0.305000   0.084285   -0.602755
 0.310000   0.080895   -0.700833
 0.315000   0.077277   -0.870442
 0.320000   0.072191   -1.023428
 0.325000   0.067043   -1.072463
 0.330000   0.061466   -1.153399
 0.335000   0.055509   -1.204377
 0.340000   0.049422   -1.272316
 0.345000   0.042786   -1.287076
 0.350000   0.036551   -1.224567
 0.355000   0.030540   -1.186439
 0.360000   0.024687   -1.145055
 0.365000   0.019089   -1.069355
 0.370000   0.013993   -1.046653
 0.375000   0.008623   -0.816077
 0.380000   0.005833   -0.540623
 0.385000   0.003217   -0.504027
 0.390000   0.000792   -0.425724
 0.395000   -0.001041   -0.325993
 0.400000   -0.002468   -0.260987
 0.405000   -0.003650   -0.079817
 0.410000   -0.003266   0.119885
 0.415000   -0.002452   0.167061
 0.420000   -0.001595   0.163026
 0.425000   -0.000821   0.103031
 0.430000   -0.000565   0.073589
 0.435000   -0.000085   -0.054352
 0.440000   -0.001108   -0.360948
 0.445000   -0.003695   -0.533438
 0.450000   -0.006443   -0.647938
 0.455000   -0.010174   -0.729934
 0.460000   -0.013742   -0.718695
 0.465000   -0.017361   -0.750242
 0.470000   -0.021244   -0.635263
 0.475000   -0.023714   -0.211288
 0.480000   -0.023357   0.660462
 0.485000   -0.017109   1.677791
 0.490000   -0.006579   2.505439
 0.495000   0.007945   3.355132
 0.500000   0.026972   4.030445
 0.505000   0.048250   4.357718
 0.510000   0.070549   4.655585
 0.515000   0.094805   4.153329
 0.520000   0.112082   3.077683
 0.525000   0.125582   2.188713
 0.530000   0.133970   0.631511
 0.535000   0.131897   -0.892335
 0.540000   0.125046   -2.040732
 0.545000   0.111490   -2.997555
 0.550000   0.095071   -3.364027
 0.555000   0.077850   -3.332176
 0.560000   0.061749   -3.278091
 0.565000   0.045069   -2.977833
 0.570000   0.031971   -2.277466
 0.575000   0.022294   -1.505936
 0.580000   0.016911   -0.812613
 0.585000   0.014168   -0.384025
 0.590000   0.013071   0.075924
 0.595000   0.014927   0.207389
 0.600000   0.015145   -0.053873
 0.605000   0.014389   -0.269148
 0.610000   0.012453   -0.582148
 0.615000   0.008567   -1.180631
 0.620000   0.000647   -1.347807
 0.625000   -0.004911   -1.423580
 0.630000   -0.013589   -1.739274
 0.635000   -0.022304   -1.590718
 0.640000   -0.029496   -1.231362
 0.645000   -0.034617   -0.812355
 0.650000   -0.037619   -0.090585
 0.655000   -0.035523   0.831842
 0.660000   -0.029301   1.444092
 0.665000   -0.021082   1.642440
 0.670000   -0.012877   1.570057
 0.675000   -0.005382   1.262495
 0.680000   -0.000252   0.911258
 0.685000   0.003731   0.791877
 0.690000   0.007667   0.272785
 0.695000   0.006459   -0.490884
 0.700000   0.002758   -0.874485
 0.705000   -0.002286   -1.124260
 0.710000   -0.008484   -1.092125
 0.715000   -0.013207   -0.902002
 0.720000   -0.017504   -0.820050
 0.725000   -0.021408   -0.720057
 0.730000   -0.024705   -0.600238
 0.735000   -0.027410   -0.420989
 0.740000   -0.028915   -0.379255
 0.745000   -0.031203   -0.694178
 0.750000   -0.035857   -0.876563
 0.755000   -0.039968   -0.912430
 0.760000   -0.044981   -1.067960
 0.765000   -0.050648   -1.017948
 0.770000   -0.055160   -1.096105
 0.775000   -0.061609   -1.436614
 0.780000   -0.069527   -1.236624
 0.785000   -0.073975   -0.772116
 0.790000   -0.077248   -0.504352
 0.795000   -0.079019   -0.209588
 0.800000   -0.079344   0.014246
 0.805000   -0.078876   0.325103
 0.810000   -0.076093   0.737948
 0.815000   -0.071497   1.078091
 0.820000   -0.065312   1.332012
 0.825000   -0.058177   1.450129
 0.830000   -0.050810   1.364228
 0.835000   -0.044534   1.421285
 0.840000   -0.036598   1.482923
 0.845000   -0.029705   1.411891
 0.850000   -0.022479   1.467757
 0.855000   -0.015028   1.481532
 0.860000   -0.007663   1.371028
 0.865000   -0.001317   1.739484
 0.870000   0.009732   1.948347
 0.875000   0.018166   1.680376
 0.880000   0.026535   1.692758
 0.885000   0.035094   1.762875
 0.890000   0.044164   2.107276
 0.895000   0.056166   2.670053
 0.900000   0.070865   2.923827
 0.905000   0.085405   3.095752
 0.910000   0.101822   3.460916
 0.915000   0.120014   3.651022
 0.920000   0.138332   4.328414
 0.925000   0.163298   3.705615
 0.930000   0.175388   2.636118
 0.935000   0.189659   2.645206
 0.940000   0.201841   1.963901
 0.945000   0.209298   0.678525
 0.950000   0.208626   0.374724
 0.955000   0.213045   -1.365947
 0.960000   0.194966   -3.619993
 0.965000   0.176846   -3.865358
 0.970000   0.156313   -4.345663
 0.975000   0.133389   -4.789051
 0.980000   0.108422   -3.588481
 0.985000   0.097504   -5.301551
 0.990000   0.055407   -9.676964
 0.995000   0.000734   -12.220460
 1.000000   -0.066798   -14.792459
201 psinorm nz1(10^20/m^3) dnz1/dpsiN
 0.000000   0.009190   0.000001
 0.005000   0.009189   -0.000190
 0.010000   0.009188   -0.000382
 0.015000   0.009185   -0.000578
 0.020000   0.009182   -0.000775
 0.025000   0.009178   -0.000975
 0.030000   0.009172   -0.001177
 0.035000   0.009166   -0.001381
 0.040000   0.009158   -0.001586
 0.045000   0.009150   -0.001792
 0.050000   0.009140   -0.001999
 0.055000   0.009130   -0.002204
 0.060000   0.009118   -0.002406
 0.065000   0.009106   -0.002606
 0.070000   0.009092   -0.002799
 0.075000   0.009078   -0.002986
 0.080000   0.009063   -0.003168
 0.085000   0.009046   -0.003344
 0.090000   0.009029   -0.003514
 0.095000   0.009011   -0.003680
 0.100000   0.008992   -0.003840
 0.105000   0.008973   -0.003997
 0.110000   0.008952   -0.004153
 0.115000   0.008931   -0.004306
 0.120000   0.008909   -0.004455
 0.125000   0.008887   -0.004599
 0.130000   0.008863   -0.004735
 0.135000   0.008839   -0.004862
 0.140000   0.008815   -0.004980
 0.145000   0.008789   -0.005090
 0.150000   0.008764   -0.005191
 0.155000   0.008738   -0.005283
 0.160000   0.008711   -0.005366
 0.165000   0.008684   -0.005438
 0.170000   0.008657   -0.005503
 0.175000   0.008629   -0.005558
 0.180000   0.008601   -0.005606
 0.185000   0.008573   -0.005646
 0.190000   0.008544   -0.005679
 0.195000   0.008516   -0.005709
 0.200000   0.008487   -0.005742
 0.205000   0.008459   -0.005779
 0.210000   0.008430   -0.005819
 0.215000   0.008400   -0.005863
 0.220000   0.008371   -0.005911
 0.225000   0.008341   -0.005966
 0.230000   0.008311   -0.006026
 0.235000   0.008281   -0.006086
 0.240000   0.008250   -0.006148
 0.245000   0.008220   -0.006211
 0.250000   0.008188   -0.006273
 0.255000   0.008157   -0.006335
 0.260000   0.008125   -0.006387
 0.265000   0.008093   -0.006423
 0.270000   0.008061   -0.006447
 0.275000   0.008028   -0.006458
 0.280000   0.007996   -0.006456
 0.285000   0.007964   -0.006447
 0.290000   0.007932   -0.006436
 0.295000   0.007900   -0.006427
 0.300000   0.007867   -0.006420
 0.305000   0.007835   -0.006415
 0.310000   0.007803   -0.006410
 0.315000   0.007771   -0.006409
 0.320000   0.007739   -0.006407
 0.325000   0.007707   -0.006398
 0.330000   0.007675   -0.006382
 0.335000   0.007643   -0.006357
 0.340000   0.007612   -0.006321
 0.345000   0.007580   -0.006268
 0.350000   0.007549   -0.006196
 0.355000   0.007518   -0.006105
 0.360000   0.007488   -0.005998
 0.365000   0.007458   -0.005877
 0.370000   0.007429   -0.005742
 0.375000   0.007401   -0.005590
 0.380000   0.007373   -0.005435
 0.385000   0.007346   -0.005290
 0.390000   0.007320   -0.005154
 0.395000   0.007295   -0.005027
 0.400000   0.007270   -0.004909
 0.405000   0.007246   -0.004803
 0.410000   0.007222   -0.004712
 0.415000   0.007199   -0.004633
 0.420000   0.007176   -0.004560
 0.425000   0.007153   -0.004487
 0.430000   0.007131   -0.004410
 0.435000   0.007109   -0.004325
 0.440000   0.007088   -0.004226
 0.445000   0.007067   -0.004112
 0.450000   0.007046   -0.003986
 0.455000   0.007027   -0.003849
 0.460000   0.007008   -0.003703
 0.465000   0.006990   -0.003549
 0.470000   0.006972   -0.003386
 0.475000   0.006956   -0.003220
 0.480000   0.006940   -0.003056
 0.485000   0.006925   -0.002894
 0.490000   0.006911   -0.002736
 0.495000   0.006898   -0.002581
 0.500000   0.006886   -0.002433
 0.505000   0.006874   -0.002295
 0.510000   0.006863   -0.002168
 0.515000   0.006852   -0.002050
 0.520000   0.006842   -0.001940
 0.525000   0.006833   -0.001838
 0.530000   0.006824   -0.001743
 0.535000   0.006815   -0.001654
 0.540000   0.006807   -0.001570
 0.545000   0.006800   -0.001493
 0.550000   0.006792   -0.001422
 0.555000   0.006785   -0.001357
 0.560000   0.006779   -0.001301
 0.565000   0.006772   -0.001252
 0.570000   0.006766   -0.001210
 0.575000   0.006760   -0.001176
 0.580000   0.006754   -0.001152
 0.585000   0.006749   -0.001136
 0.590000   0.006743   -0.001129
 0.595000   0.006737   -0.001131
 0.600000   0.006732   -0.001144
 0.605000   0.006726   -0.001168
 0.610000   0.006720   -0.001202
 0.615000   0.006714   -0.001247
 0.620000   0.006708   -0.001301
 0.625000   0.006701   -0.001367
 0.630000   0.006694   -0.001446
 0.635000   0.006686   -0.001536
 0.640000   0.006679   -0.001640
 0.645000   0.006670   -0.001756
 0.650000   0.006661   -0.001888
 0.655000   0.006651   -0.002034
 0.660000   0.006641   -0.002191
 0.665000   0.006629   -0.002358
 0.670000   0.006617   -0.002533
 0.675000   0.006604   -0.002714
 0.680000   0.006590   -0.002899
 0.685000   0.006575   -0.003087
 0.690000   0.006559   -0.003285
 0.695000   0.006542   -0.003502
 0.700000   0.006524   -0.003746
 0.705000   0.006505   -0.004026
 0.710000   0.006484   -0.004359
 0.715000   0.006461   -0.004748
 0.720000   0.006436   -0.005177
 0.725000   0.006409   -0.005641
 0.730000   0.006380   -0.006139
 0.735000   0.006348   -0.006666
 0.740000   0.006313   -0.007228
 0.745000   0.006276   -0.007822
 0.750000   0.006235   -0.008418
 0.755000   0.006191   -0.009007
 0.760000   0.006145   -0.009584
 0.765000   0.006096   -0.010132
 0.770000   0.006044   -0.010638
 0.775000   0.005989   -0.011081
 0.780000   0.005933   -0.011430
 0.785000   0.005875   -0.011679
 0.790000   0.005816   -0.011828
 0.795000   0.005757   -0.011875
 0.800000   0.005697   -0.011810
 0.805000   0.005639   -0.011626
 0.810000   0.005581   -0.011348
 0.815000   0.005525   -0.011006
 0.820000   0.005471   -0.010613
 0.825000   0.005419   -0.010191
 0.830000   0.005369   -0.009758
 0.835000   0.005321   -0.009316
 0.840000   0.005276   -0.008869
 0.845000   0.005233   -0.008413
 0.850000   0.005192   -0.007944
 0.855000   0.005153   -0.007469
 0.860000   0.005117   -0.006996
 0.865000   0.005083   -0.006530
 0.870000   0.005052   -0.006090
 0.875000   0.005022   -0.005686
 0.880000   0.004995   -0.005308
 0.885000   0.004969   -0.004954
 0.890000   0.004945   -0.004618
 0.895000   0.004923   -0.004292
 0.900000   0.004902   -0.003979
 0.905000   0.004883   -0.003691
 0.910000   0.004866   -0.003439
 0.915000   0.004849   -0.003238
 0.920000   0.004833   -0.003095
 0.925000   0.004818   -0.003033
 0.930000   0.004803   -0.003060
 0.935000   0.004787   -0.003185
 0.940000   0.004771   -0.003437
 0.945000   0.004753   -0.003858
 0.950000   0.004732   -0.004513
 0.955000   0.004708   -0.005576
 0.960000   0.004677   -0.007194
 0.965000   0.004636   -0.009493
 0.970000   0.004582   -0.012717
 0.975000   0.004509   -0.017102
 0.980000   0.004411   -0.022804
 0.985000   0.004281   -0.030045
 0.990000   0.004110   -0.038439
 0.995000   0.003896   -0.046894
 1.000000   0.003641   -0.055109
201 psinorm vtor1(km/s) dvtor1/dpsiN
 0.000000   34.737315   181.663828
 0.005000   35.441304   99.931778
 0.010000   35.736633   51.708080
 0.015000   35.958385   40.174962
 0.020000   36.138382   33.166126
 0.025000   36.290046   28.302403
 0.030000   36.421406   24.510358
 0.035000   36.535149   21.000565
 0.040000   36.631412   17.668564
 0.045000   36.711835   14.515789
 0.050000   36.776570   11.281943
 0.055000   36.824654   7.820232
 0.060000   36.854772   4.150398
 0.065000   36.866158   0.226783
 0.070000   36.857040   -4.088975
 0.075000   36.825269   -8.733020
 0.080000   36.769710   -13.621370
 0.085000   36.689055   -18.770610
 0.090000   36.582004   -24.162491
 0.095000   36.447430   -29.691656
 0.100000   36.285087   -35.180812
 0.105000   36.095622   -40.546968
 0.110000   35.879617   -45.799955
 0.115000   35.637622   -50.894346
 0.120000   35.370674   -55.795972
 0.125000   35.079663   -60.564296
 0.130000   34.765031   -65.087736
 0.135000   34.428785   -69.354416
 0.140000   34.071487   -73.528920
 0.145000   33.693496   -77.539323
 0.150000   33.296094   -81.305886
 0.155000   32.880437   -84.880276
 0.160000   32.447291   -88.284527
 0.165000   31.997592   -91.686103
 0.170000   31.530430   -95.417561
 0.175000   31.043416   -99.611914
 0.180000   30.534311   -104.267645
 0.185000   30.000740   -109.351221
 0.190000   29.440798   -114.766944
 0.195000   28.853071   -120.355784
 0.200000   28.237241   -125.885113
 0.205000   27.594219   -131.337078
 0.210000   26.923870   -136.833289
 0.215000   26.225887   -142.396826
 0.220000   25.499902   -148.080456
 0.225000   24.745082   -153.959059
 0.230000   23.960311   -159.654682
 0.235000   23.148535   -164.817057
 0.240000   22.312140   -169.405708
 0.245000   21.454478   -173.238474
 0.250000   20.579756   -176.172420
 0.255000   19.692754   -178.036679
 0.260000   18.799389   -178.651825
 0.265000   17.906236   -178.118633
 0.270000   17.018203   -176.636738
 0.275000   16.139868   -174.259783
 0.280000   15.275605   -171.016659
 0.285000   14.429702   -166.913075
 0.290000   13.606474   -161.866660
 0.295000   12.811035   -155.713548
 0.300000   12.049338   -148.352039
 0.305000   11.327515   -139.786139
 0.310000   10.651477   -130.099186
 0.315000   10.026523   -119.251773
 0.320000   9.458959   -107.615589
 0.325000   8.950367   -95.630964
 0.330000   8.502650   -83.355098
 0.335000   8.116816   -70.963808
 0.340000   7.793012   -58.617392
 0.345000   7.530642   -46.381309
 0.350000   7.329199   -34.455053
 0.355000   7.186091   -22.971973
 0.360000   7.099479   -11.888540
 0.365000   7.067206   -1.283532
 0.370000   7.086643   8.756035
 0.375000   7.154766   18.116398
 0.380000   7.267807   26.759962
 0.385000   7.422366   34.711348
 0.390000   7.614921   41.922522
 0.395000   7.841591   48.342874
 0.400000   8.098350   53.959210
 0.405000   8.381183   58.664694
 0.410000   8.684997   62.639731
 0.415000   9.007581   66.333789
 0.420000   9.348334   69.974956
 0.425000   9.707330   73.747466
 0.430000   10.085809   77.865657
 0.435000   10.485987   82.665260
 0.440000   10.912462   88.361997
 0.445000   11.369607   94.605811
 0.450000   11.858520   101.051842
 0.455000   12.380125   107.591290
 0.460000   12.934433   114.036961
 0.465000   13.520495   120.380965
 0.470000   14.138242   126.371852
 0.475000   14.784213   131.290099
 0.480000   15.451143   134.878840
 0.485000   16.133002   137.166735
 0.490000   16.822811   137.992206
 0.495000   17.512924   137.272906
 0.500000   18.195540   134.892912
 0.505000   18.861853   130.774985
 0.510000   19.503290   125.069847
 0.515000   20.112551   117.974305
 0.520000   20.683033   109.650893
 0.525000   21.209060   100.254293
 0.530000   21.685576   89.915023
 0.535000   22.108211   79.086549
 0.540000   22.476441   68.154268
 0.545000   22.789753   57.229657
 0.550000   23.048738   46.516602
 0.555000   23.254919   36.169204
 0.560000   23.410430   26.302529
 0.565000   23.517945   17.089446
 0.570000   23.581324   8.550528
 0.575000   23.603450   0.563022
 0.580000   23.586954   -6.953253
 0.585000   23.533917   -14.142744
 0.590000   23.445527   -21.288759
 0.595000   23.321030   -28.673106
 0.600000   23.158796   -36.395529
 0.605000   22.957074   -44.491176
 0.610000   22.713884   -52.988688
 0.615000   22.427188   -61.882990
 0.620000   22.095054   -71.424985
 0.625000   21.712938   -81.299643
 0.630000   21.282058   -91.011839
 0.635000   20.802819   -100.537338
 0.640000   20.276684   -109.630492
 0.645000   19.706514   -117.999057
 0.650000   19.096694   -125.537621
 0.655000   18.451138   -131.622718
 0.660000   17.780467   -135.667144
 0.665000   17.094467   -137.707920
 0.670000   16.403387   -137.652179
 0.675000   15.717945   -135.452577
 0.680000   15.048862   -131.052404
 0.685000   14.407421   -124.575238
 0.690000   13.803109   -116.405619
 0.695000   13.243365   -106.879858
 0.700000   12.734311   -96.292830
 0.705000   12.280436   -84.974051
 0.710000   11.884570   -73.130285
 0.715000   11.549134   -61.174912
 0.720000   11.272821   -49.605381
 0.725000   11.053080   -38.547801
 0.730000   10.887343   -28.025742
 0.735000   10.772822   -18.042660
 0.740000   10.706917   -8.530422
 0.745000   10.687518   0.639857
 0.750000   10.713315   9.647974
 0.755000   10.783998   18.646452
 0.760000   10.899780   27.693596
 0.765000   11.060934   36.743194
 0.770000   11.267212   45.661195
 0.775000   11.517546   54.151556
 0.780000   11.808727   61.771409
 0.785000   12.135260   68.210771
 0.790000   12.490835   73.271240
 0.795000   12.867972   76.746960
 0.800000   13.258304   78.468841
 0.805000   13.652661   78.294144
 0.810000   14.041246   76.321417
 0.815000   14.415875   72.764779
 0.820000   14.768894   67.782478
 0.825000   15.093700   61.603069
 0.830000   15.384924   54.450217
 0.835000   15.638202   46.541270
 0.840000   15.850337   38.303938
 0.845000   16.021241   30.025651
 0.850000   16.150594   21.754685
 0.855000   16.238788   13.602376
 0.860000   16.286617   5.614440
 0.865000   16.294932   -2.234478
 0.870000   16.264273   -10.082197
 0.875000   16.194110   -18.116318
 0.880000   16.083109   -26.495896
 0.885000   15.929151   -35.386374
 0.890000   15.729246   -44.987241
 0.895000   15.479279   -56.058479
 0.900000   15.168661   -69.066105
 0.905000   14.788618   -84.067941
 0.910000   14.327981   -101.327512
 0.915000   13.775343   -120.789538
 0.920000   13.120086   -142.164210
 0.925000   12.353701   -166.268252
 0.930000   11.457404   -190.870474
 0.935000   10.444996   -212.683141
 0.940000   9.330572   -230.697152
 0.945000   8.138024   -242.767396
 0.950000   6.902898   -246.638416
 0.955000   5.671640   -241.082539
 0.960000   4.492073   -223.867900
 0.965000   3.432961   -194.248505
 0.970000   2.549588   -155.005367
 0.975000   1.882908   -109.416863
 0.980000   1.455419   -61.564116
 0.985000   1.267267   -16.008677
 0.990000   1.295332   22.811326
 0.995000   1.495380   51.579613
 1.000000   1.811128   74.719855
201 psinorm vpol1(km/s) dvpol1/dpsiN
 0.000000   -0.000043   3.697656
 0.005000   0.021172   4.788281
 0.010000   0.047840   5.874609
 0.015000   0.079918   6.923828
 0.020000   0.117078   7.861719
 0.025000   0.158535   8.615625
 0.030000   0.203234   9.098437
 0.035000   0.249520   9.331641
 0.040000   0.296551   9.396484
 0.045000   0.343484   9.308594
 0.050000   0.389637   9.125781
 0.055000   0.434742   8.912109
 0.060000   0.478758   8.739844
 0.065000   0.522141   8.670312
 0.070000   0.565461   8.698438
 0.075000   0.609125   8.791797
 0.080000   0.653379   8.941016
 0.085000   0.698535   9.160547
 0.090000   0.744984   9.424219
 0.095000   0.792777   9.682812
 0.100000   0.841812   9.928516
 0.105000   0.892062   10.161719
 0.110000   0.943430   10.373828
 0.115000   0.995801   10.555469
 0.120000   1.048984   10.673828
 0.125000   1.102539   10.708203
 0.130000   1.156066   10.653125
 0.135000   1.209070   10.512891
 0.140000   1.261195   10.284766
 0.145000   1.311918   9.935547
 0.150000   1.360551   9.511328
 0.155000   1.407031   9.085547
 0.160000   1.451406   8.690625
 0.165000   1.493938   8.340625
 0.170000   1.534813   8.033984
 0.175000   1.574277   7.776563
 0.180000   1.612578   7.510156
 0.185000   1.649379   7.177734
 0.190000   1.684355   6.768359
 0.195000   1.717062   6.270312
 0.200000   1.747059   5.671484
 0.205000   1.773777   4.963281
 0.210000   1.796691   4.145703
 0.215000   1.815234   3.220703
 0.220000   1.828898   2.209375
 0.225000   1.837328   1.151562
 0.230000   1.840414   0.098047
 0.235000   1.838309   -0.898047
 0.240000   1.831434   -1.793750
 0.245000   1.820371   -2.580469
 0.250000   1.805629   -3.251172
 0.255000   1.787859   -3.815234
 0.260000   1.767477   -4.299609
 0.265000   1.744863   -4.757031
 0.270000   1.719906   -5.262891
 0.275000   1.692234   -5.827344
 0.280000   1.661633   -6.432422
 0.285000   1.627910   -7.077734
 0.290000   1.590855   -7.748047
 0.295000   1.550430   -8.439062
 0.300000   1.506465   -9.137500
 0.305000   1.459055   -9.834766
 0.310000   1.408117   -10.533594
 0.315000   1.353719   -11.217187
 0.320000   1.295945   -11.887109
 0.325000   1.234848   -12.526953
 0.330000   1.170676   -13.128516
 0.335000   1.103563   -13.698828
 0.340000   1.033688   -14.241797
 0.345000   0.961145   -14.759766
 0.350000   0.886090   -15.242969
 0.355000   0.808715   -15.709375
 0.360000   0.728996   -16.178125
 0.365000   0.646934   -16.653906
 0.370000   0.562457   -17.139844
 0.375000   0.475535   -17.639844
 0.380000   0.386059   -18.169922
 0.385000   0.293836   -18.708203
 0.390000   0.198977   -19.222266
 0.395000   0.101613   -19.701172
 0.400000   0.001965   -20.143750
 0.405000   -0.099824   -20.570703
 0.410000   -0.203742   -21.027344
 0.415000   -0.310098   -21.537891
 0.420000   -0.419121   -22.101172
 0.425000   -0.531109   -22.712500
 0.430000   -0.646246   -23.360937
 0.435000   -0.764719   -24.049609
 0.440000   -0.886742   -24.788672
 0.445000   -1.012605   -25.502734
 0.450000   -1.141770   -26.140234
 0.455000   -1.274008   -26.711328
 0.460000   -1.408883   -27.180859
 0.465000   -1.545816   -27.530469
 0.470000   -1.684187   -27.921484
 0.475000   -1.825031   -28.834375
 0.480000   -1.972531   -30.713281
 0.485000   -2.132164   -33.711328
 0.490000   -2.309645   -37.838672
 0.495000   -2.510551   -43.382422
 0.500000   -2.743469   -50.180859
 0.505000   -3.012359   -56.974219
 0.510000   -3.313211   -63.079297
 0.515000   -3.643152   -68.346094
 0.520000   -3.996672   -72.254687
 0.525000   -4.365699   -74.389062
 0.530000   -4.740563   -73.865625
 0.535000   -5.104355   -70.287891
 0.540000   -5.443441   -64.352734
 0.545000   -5.747883   -56.735937
 0.550000   -6.010801   -48.119922
 0.555000   -6.229082   -38.872266
 0.560000   -6.399523   -30.015625
 0.565000   -6.529238   -22.632812
 0.570000   -6.625852   -16.692969
 0.575000   -6.696168   -12.071484
 0.580000   -6.746566   -8.649219
 0.585000   -6.782660   -6.262500
 0.590000   -6.809191   -4.706641
 0.595000   -6.829727   -3.491797
 0.600000   -6.844109   -2.068359
 0.605000   -6.850410   -0.134766
 0.610000   -6.845457   2.544141
 0.615000   -6.824969   6.243359
 0.620000   -6.783023   10.975391
 0.625000   -6.715215   16.507422
 0.630000   -6.617949   22.602344
 0.635000   -6.489191   28.870312
 0.640000   -6.329246   34.824219
 0.645000   -6.140949   39.767578
 0.650000   -5.931570   43.133203
 0.655000   -5.709617   44.804688
 0.660000   -5.483523   44.822070
 0.665000   -5.261396   43.330469
 0.670000   -5.050219   40.417773
 0.675000   -4.857219   36.370312
 0.680000   -4.686516   32.265234
 0.685000   -4.534566   28.698438
 0.690000   -4.399531   25.617187
 0.695000   -4.278395   23.206250
 0.700000   -4.167469   21.559570
 0.705000   -4.062799   20.648242
 0.710000   -3.960986   20.129297
 0.715000   -3.861506   19.653516
 0.720000   -3.764451   19.145508
 0.725000   -3.670051   18.596484
 0.730000   -3.578486   18.031055
 0.735000   -3.489740   17.517578
 0.740000   -3.403311   17.102344
 0.745000   -3.318717   16.764844
 0.750000   -3.235662   16.467187
 0.755000   -3.154045   16.164844
 0.760000   -3.074014   15.869531
 0.765000   -2.995350   15.458984
 0.770000   -2.919424   14.796094
 0.775000   -2.847389   13.915234
 0.780000   -2.780271   12.826953
 0.785000   -2.719119   11.549609
 0.790000   -2.664775   10.111328
 0.795000   -2.618006   8.549805
 0.800000   -2.579277   6.944922
 0.805000   -2.548557   5.375000
 0.810000   -2.525527   3.895313
 0.815000   -2.509604   2.547656
 0.820000   -2.500051   1.360742
 0.825000   -2.495996   0.350781
 0.830000   -2.496543   -0.513867
 0.835000   -2.501135   -1.284570
 0.840000   -2.509389   -2.005859
 0.845000   -2.521193   -2.723242
 0.850000   -2.536621   -3.478711
 0.855000   -2.555980   -4.260645
 0.860000   -2.579228   -5.015430
 0.865000   -2.606135   -5.703027
 0.870000   -2.636258   -6.278418
 0.875000   -2.668919   -6.694727
 0.880000   -2.703205   -6.918848
 0.885000   -2.738107   -6.956641
 0.890000   -2.772771   -6.834180
 0.895000   -2.806449   -6.555762
 0.900000   -2.838329   -6.087988
 0.905000   -2.867329   -5.393555
 0.910000   -2.892265   -4.404102
 0.915000   -2.911370   -3.030273
 0.920000   -2.922567   -1.235937
 0.925000   -2.923729   0.982520
 0.930000   -2.912742   3.619434
 0.935000   -2.887535   6.672656
 0.940000   -2.846016   10.137061
 0.945000   -2.786165   13.959131
 0.950000   -2.706424   18.064404
 0.955000   -2.605521   22.400732
 0.960000   -2.482417   26.969287
 0.965000   -2.335828   32.112598
 0.970000   -2.161291   38.218286
 0.975000   -1.953645   45.384570
 0.980000   -1.707445   53.704163
 0.985000   -1.416603   63.221240
 0.990000   -1.075233   73.810974
 0.995000   -0.678493   86.158713
 1.000000   -0.213646   99.780338
3 N Z A of ION SPECIES
 6.000000   6.000000   12.010700
 1.000000   1.000000   2.000000
 1.000000   1.000000   2.000000
