201 psinorm ne(10^20/m^3) dne/dpsiN
 0.000000   0.474479   -0.448727
 0.005000   0.472244   -0.445405
 0.010000   0.470025   -0.442096
 0.015000   0.467823   -0.438814
 0.020000   0.465637   -0.435559
 0.025000   0.463467   -0.432331
 0.030000   0.461314   -0.429128
 0.035000   0.459176   -0.425952
 0.040000   0.457054   -0.422801
 0.045000   0.454948   -0.419676
 0.050000   0.452857   -0.416576
 0.055000   0.450782   -0.413500
 0.060000   0.448722   -0.410450
 0.065000   0.446678   -0.407424
 0.070000   0.444648   -0.404422
 0.075000   0.442634   -0.401445
 0.080000   0.440634   -0.398491
 0.085000   0.438649   -0.395561
 0.090000   0.436678   -0.392654
 0.095000   0.434722   -0.389771
 0.100000   0.432780   -0.386910
 0.105000   0.430853   -0.384073
 0.110000   0.428940   -0.381257
 0.115000   0.427040   -0.378464
 0.120000   0.425155   -0.375693
 0.125000   0.423284   -0.372945
 0.130000   0.421426   -0.370217
 0.135000   0.419581   -0.367512
 0.140000   0.417751   -0.364827
 0.145000   0.415933   -0.362164
 0.150000   0.414129   -0.359522
 0.155000   0.412338   -0.356900
 0.160000   0.410560   -0.354299
 0.165000   0.408795   -0.351718
 0.170000   0.407043   -0.349158
 0.175000   0.405303   -0.346617
 0.180000   0.403577   -0.344096
 0.185000   0.401862   -0.341595
 0.190000   0.400161   -0.339113
 0.195000   0.398471   -0.336650
 0.200000   0.396794   -0.334207
 0.205000   0.395129   -0.331782
 0.210000   0.393476   -0.329377
 0.215000   0.391835   -0.326989
 0.220000   0.390206   -0.324620
 0.225000   0.388589   -0.322270
 0.230000   0.386984   -0.319937
 0.235000   0.385390   -0.317622
 0.240000   0.383807   -0.315325
 0.245000   0.382237   -0.313046
 0.250000   0.380677   -0.310783
 0.255000   0.379129   -0.308539
 0.260000   0.377592   -0.306311
 0.265000   0.376066   -0.304100
 0.270000   0.374551   -0.301906
 0.275000   0.373047   -0.299728
 0.280000   0.371553   -0.297567
 0.285000   0.370071   -0.295423
 0.290000   0.368599   -0.293294
 0.295000   0.367138   -0.291182
 0.300000   0.365687   -0.289085
 0.305000   0.364247   -0.287004
 0.310000   0.362817   -0.284939
 0.315000   0.361398   -0.282889
 0.320000   0.359988   -0.280855
 0.325000   0.358589   -0.278835
 0.330000   0.357200   -0.276831
 0.335000   0.355821   -0.274842
 0.340000   0.354452   -0.272867
 0.345000   0.353092   -0.270907
 0.350000   0.351743   -0.268961
 0.355000   0.350403   -0.267030
 0.360000   0.349072   -0.265113
 0.365000   0.347751   -0.263211
 0.370000   0.346440   -0.261322
 0.375000   0.345138   -0.259447
 0.380000   0.343846   -0.257586
 0.385000   0.342562   -0.255738
 0.390000   0.341288   -0.253904
 0.395000   0.340023   -0.252083
 0.400000   0.338767   -0.250276
 0.405000   0.337521   -0.248481
 0.410000   0.336283   -0.246700
 0.415000   0.335054   -0.244931
 0.420000   0.333833   -0.243176
 0.425000   0.332622   -0.241433
 0.430000   0.331419   -0.239702
 0.435000   0.330225   -0.237984
 0.440000   0.329039   -0.236278
 0.445000   0.327862   -0.234585
 0.450000   0.326693   -0.232903
 0.455000   0.325533   -0.231234
 0.460000   0.324381   -0.229576
 0.465000   0.323237   -0.227931
 0.470000   0.322102   -0.226296
 0.475000   0.320974   -0.224674
 0.480000   0.319855   -0.223063
 0.485000   0.318744   -0.221463
 0.490000   0.317640   -0.219875
 0.495000   0.316545   -0.218297
 0.500000   0.315457   -0.216731
 0.505000   0.314378   -0.215176
 0.510000   0.313306   -0.213631
 0.515000   0.312241   -0.212098
 0.520000   0.311185   -0.210575
 0.525000   0.310136   -0.209062
 0.530000   0.309094   -0.207560
 0.535000   0.308060   -0.206068
 0.540000   0.307033   -0.204587
 0.545000   0.306014   -0.203115
 0.550000   0.305002   -0.201654
 0.555000   0.303998   -0.200202
 0.560000   0.303000   -0.198761
 0.565000   0.302010   -0.197329
 0.570000   0.301027   -0.195907
 0.575000   0.300051   -0.194494
 0.580000   0.299082   -0.193090
 0.585000   0.298120   -0.191696
 0.590000   0.297165   -0.190310
 0.595000   0.296217   -0.188934
 0.600000   0.295276   -0.187566
 0.605000   0.294341   -0.186207
 0.610000   0.293414   -0.184856
 0.615000   0.292493   -0.183514
 0.620000   0.291578   -0.182179
 0.625000   0.290671   -0.180852
 0.630000   0.289770   -0.179532
 0.635000   0.288875   -0.178219
 0.640000   0.287988   -0.176913
 0.645000   0.287106   -0.175613
 0.650000   0.286232   -0.174319
 0.655000   0.285363   -0.173030
 0.660000   0.284501   -0.171745
 0.665000   0.283646   -0.170464
 0.670000   0.282797   -0.169186
 0.675000   0.281954   -0.167909
 0.680000   0.281118   -0.166633
 0.685000   0.280288   -0.165355
 0.690000   0.279464   -0.164075
 0.695000   0.278647   -0.162790
 0.700000   0.277836   -0.161498
 0.705000   0.277032   -0.160196
 0.710000   0.276234   -0.158880
 0.715000   0.275443   -0.157548
 0.720000   0.274659   -0.156195
 0.725000   0.273881   -0.154814
 0.730000   0.273110   -0.153401
 0.735000   0.272347   -0.151948
 0.740000   0.271591   -0.150447
 0.745000   0.270843   -0.148888
 0.750000   0.270102   -0.147259
 0.755000   0.269370   -0.145547
 0.760000   0.268647   -0.143736
 0.765000   0.267933   -0.141809
 0.770000   0.267229   -0.139745
 0.775000   0.266535   -0.137519
 0.780000   0.265853   -0.135105
 0.785000   0.265184   -0.132469
 0.790000   0.264529   -0.129577
 0.795000   0.263888   -0.126386
 0.800000   0.263265   -0.122852
 0.805000   0.262660   -0.118923
 0.810000   0.262076   -0.114541
 0.815000   0.261514   -0.109646
 0.820000   0.260979   -0.104173
 0.825000   0.260473   -0.098054
 0.830000   0.259999   -0.091222
 0.835000   0.259560   -0.083615
 0.840000   0.259162   -0.075182
 0.845000   0.258809   -0.065893
 0.850000   0.258503   -0.055754
 0.855000   0.258251   -0.044824
 0.860000   0.258055   -0.033244
 0.865000   0.257919   -0.021281
 0.870000   0.257842   -0.009371
 0.875000   0.257825   0.001799
 0.880000   0.257860   0.011195
 0.885000   0.257937   0.017314
 0.890000   0.258034   0.018011
 0.895000   0.258117   0.010303
 0.900000   0.258137   -0.009862
 0.905000   0.258018   -0.047846
 0.910000   0.257658   -0.110507
 0.915000   0.256913   -0.206221
 0.920000   0.255596   -0.344565
 0.925000   0.253468   -0.535383
 0.930000   0.250242   -0.786917
 0.935000   0.245599   -1.102783
 0.940000   0.239214   -1.477926
 0.945000   0.230819   -1.894467
 0.950000   0.220270   -2.319399
 0.955000   0.207625   -2.706688
 0.960000   0.193203   -3.005494
 0.965000   0.177570   -3.173272
 0.970000   0.161470   -3.188787
 0.975000   0.145682   -3.058590
 0.980000   0.130884   -2.813507
 0.985000   0.117547   -2.497344
 0.990000   0.105911   -2.153898
 0.995000   0.096008   -1.817786
 1.000000   0.087733   -1.492460
201 psinorm te(KeV) dte/dpsiN
 0.000000   4.033583   -3.088628
 0.005000   4.018093   -3.107341
 0.010000   4.002510   -3.125899
 0.015000   3.986834   -3.144145
 0.020000   3.971068   -3.162080
 0.025000   3.955214   -3.179703
 0.030000   3.939271   -3.197012
 0.035000   3.923243   -3.214007
 0.040000   3.907131   -3.230687
 0.045000   3.890937   -3.247052
 0.050000   3.874661   -3.263100
 0.055000   3.858306   -3.278833
 0.060000   3.841872   -3.294248
 0.065000   3.825363   -3.309347
 0.070000   3.808779   -3.324127
 0.075000   3.792122   -3.338589
 0.080000   3.775393   -3.352734
 0.085000   3.758594   -3.366559
 0.090000   3.741727   -3.380066
 0.095000   3.724794   -3.393255
 0.100000   3.707795   -3.406124
 0.105000   3.690733   -3.418675
 0.110000   3.673608   -3.430906
 0.115000   3.656423   -3.442819
 0.120000   3.639180   -3.454414
 0.125000   3.621879   -3.465690
 0.130000   3.604523   -3.476647
 0.135000   3.587113   -3.487287
 0.140000   3.569650   -3.497609
 0.145000   3.552137   -3.507614
 0.150000   3.534574   -3.517302
 0.155000   3.516964   -3.526674
 0.160000   3.499307   -3.535729
 0.165000   3.481606   -3.544470
 0.170000   3.463863   -3.552896
 0.175000   3.446077   -3.561007
 0.180000   3.428253   -3.568805
 0.185000   3.410389   -3.576291
 0.190000   3.392490   -3.583464
 0.195000   3.374555   -3.590326
 0.200000   3.356586   -3.596879
 0.205000   3.338586   -3.603121
 0.210000   3.320555   -3.609056
 0.215000   3.302495   -3.614683
 0.220000   3.284408   -3.620003
 0.225000   3.266295   -3.625019
 0.230000   3.248158   -3.629730
 0.235000   3.229998   -3.634138
 0.240000   3.211817   -3.638244
 0.245000   3.193616   -3.642050
 0.250000   3.175396   -3.645556
 0.255000   3.157160   -3.648764
 0.260000   3.138909   -3.651675
 0.265000   3.120643   -3.654292
 0.270000   3.102366   -3.656614
 0.275000   3.084077   -3.658643
 0.280000   3.065779   -3.660382
 0.285000   3.047473   -3.661831
 0.290000   3.029161   -3.662993
 0.295000   3.010843   -3.663868
 0.300000   2.992522   -3.664459
 0.305000   2.974199   -3.664766
 0.310000   2.955875   -3.664792
 0.315000   2.937551   -3.664539
 0.320000   2.919229   -3.664008
 0.325000   2.900911   -3.663201
 0.330000   2.882597   -3.662120
 0.335000   2.864290   -3.660766
 0.340000   2.845990   -3.659142
 0.345000   2.827698   -3.657250
 0.350000   2.809417   -3.655090
 0.355000   2.791147   -3.652667
 0.360000   2.772890   -3.649980
 0.365000   2.754648   -3.647033
 0.370000   2.736420   -3.643828
 0.375000   2.718209   -3.640366
 0.380000   2.700016   -3.636650
 0.385000   2.681843   -3.632681
 0.390000   2.663690   -3.628463
 0.395000   2.645558   -3.623996
 0.400000   2.627450   -3.619284
 0.405000   2.609365   -3.614328
 0.410000   2.591306   -3.609131
 0.415000   2.573274   -3.603695
 0.420000   2.555269   -3.598023
 0.425000   2.537294   -3.592116
 0.430000   2.519348   -3.585977
 0.435000   2.501434   -3.579608
 0.440000   2.483552   -3.573012
 0.445000   2.465704   -3.566191
 0.450000   2.447890   -3.559147
 0.455000   2.430112   -3.551883
 0.460000   2.412371   -3.544401
 0.465000   2.394668   -3.536705
 0.470000   2.377004   -3.528795
 0.475000   2.359380   -3.520675
 0.480000   2.341798   -3.512347
 0.485000   2.324257   -3.503813
 0.490000   2.306760   -3.495077
 0.495000   2.289306   -3.486140
 0.500000   2.271898   -3.477006
 0.505000   2.254536   -3.467676
 0.510000   2.237221   -3.458154
 0.515000   2.219955   -3.448442
 0.520000   2.202737   -3.438542
 0.525000   2.185569   -3.428457
 0.530000   2.168452   -3.418189
 0.535000   2.151387   -3.407742
 0.540000   2.134375   -3.397118
 0.545000   2.117416   -3.386319
 0.550000   2.100512   -3.375348
 0.555000   2.083663   -3.364208
 0.560000   2.066870   -3.352902
 0.565000   2.050134   -3.341431
 0.570000   2.033455   -3.329799
 0.575000   2.016836   -3.318008
 0.580000   2.000275   -3.306061
 0.585000   1.983775   -3.293961
 0.590000   1.967336   -3.281709
 0.595000   1.950958   -3.269310
 0.600000   1.934643   -3.256765
 0.605000   1.918390   -3.244077
 0.610000   1.902202   -3.231249
 0.615000   1.886078   -3.218284
 0.620000   1.870019   -3.205183
 0.625000   1.854026   -3.191950
 0.630000   1.838099   -3.178588
 0.635000   1.822240   -3.165098
 0.640000   1.806448   -3.151485
 0.645000   1.790725   -3.137749
 0.650000   1.775071   -3.123895
 0.655000   1.759486   -3.109924
 0.660000   1.743972   -3.095839
 0.665000   1.728528   -3.081643
 0.670000   1.713155   -3.067338
 0.675000   1.697855   -3.052927
 0.680000   1.682626   -3.038413
 0.685000   1.667470   -3.023798
 0.690000   1.652388   -3.009084
 0.695000   1.637380   -2.994275
 0.700000   1.622445   -2.979373
 0.705000   1.607586   -2.964380
 0.710000   1.592802   -2.949299
 0.715000   1.578093   -2.934133
 0.720000   1.563460   -2.918883
 0.725000   1.548904   -2.903553
 0.730000   1.534425   -2.888145
 0.735000   1.520023   -2.872662
 0.740000   1.505698   -2.857105
 0.745000   1.491451   -2.841478
 0.750000   1.477283   -2.825783
 0.755000   1.463194   -2.810022
 0.760000   1.449183   -2.794198
 0.765000   1.435252   -2.778312
 0.770000   1.421400   -2.762368
 0.775000   1.407628   -2.746368
 0.780000   1.393936   -2.730313
 0.785000   1.380325   -2.714207
 0.790000   1.366794   -2.698050
 0.795000   1.353344   -2.681845
 0.800000   1.339976   -2.665594
 0.805000   1.326688   -2.649297
 0.810000   1.313483   -2.632955
 0.815000   1.300359   -2.616568
 0.820000   1.287317   -2.600135
 0.825000   1.274358   -2.583654
 0.830000   1.261481   -2.567119
 0.835000   1.248686   -2.550524
 0.840000   1.235975   -2.533856
 0.845000   1.223348   -2.517101
 0.850000   1.210804   -2.500233
 0.855000   1.198345   -2.483222
 0.860000   1.185972   -2.466028
 0.865000   1.173685   -2.448602
 0.870000   1.161486   -2.430887
 0.875000   1.149376   -2.412835
 0.880000   1.137358   -2.394426
 0.885000   1.125432   -2.375721
 0.890000   1.113600   -2.356960
 0.895000   1.101862   -2.338753
 0.900000   1.090213   -2.322423
 0.905000   1.078638   -2.310629
 0.910000   1.067107   -2.308460
 0.915000   1.055554   -2.325353
 0.920000   1.043853   -2.378362
 0.925000   1.031770   -2.497654
 0.930000   1.018877   -2.735401
 0.935000   1.004416   -3.179421
 0.940000   0.987082   -3.971819
 0.945000   0.964698   -5.328193
 0.950000   0.933800   -7.538877
 0.955000   0.889309   -10.903448
 0.960000   0.824766   -15.512690
 0.965000   0.734182   -20.830889
 0.970000   0.616457   -25.328048
 0.975000   0.480902   -26.889526
 0.980000   0.347562   -24.368366
 0.985000   0.237218   -18.845552
 0.990000   0.159106   -12.761913
 0.995000   0.109599   -7.924097
 1.000000   0.079865   -3.969293
201 psinorm ni(10^20/m^3) dni/dpsiN
 0.000000   0.279641   -0.654836
 0.005000   0.276685   -0.527383
 0.010000   0.274367   -0.416402
 0.015000   0.272521   -0.329428
 0.020000   0.271073   -0.256047
 0.025000   0.269961   -0.192257
 0.030000   0.269150   -0.136900
 0.035000   0.268592   -0.090386
 0.040000   0.268246   -0.051078
 0.045000   0.268081   -0.017346
 0.050000   0.268073   0.010666
 0.055000   0.268188   0.033104
 0.060000   0.268404   0.052298
 0.065000   0.268711   0.067808
 0.070000   0.269082   0.079533
 0.075000   0.269506   0.088702
 0.080000   0.269969   0.095221
 0.085000   0.270458   0.099101
 0.090000   0.270960   0.100918
 0.095000   0.271467   0.101203
 0.100000   0.271972   0.099708
 0.105000   0.272464   0.096355
 0.110000   0.272935   0.091964
 0.115000   0.273384   0.086943
 0.120000   0.273805   0.081030
 0.125000   0.274194   0.074378
 0.130000   0.274549   0.067070
 0.135000   0.274865   0.059253
 0.140000   0.275141   0.051020
 0.145000   0.275375   0.042443
 0.150000   0.275566   0.033642
 0.155000   0.275712   0.024868
 0.160000   0.275814   0.016221
 0.165000   0.275874   0.007632
 0.170000   0.275891   -0.000936
 0.175000   0.275864   -0.009583
 0.180000   0.275795   -0.018035
 0.185000   0.275684   -0.026249
 0.190000   0.275532   -0.034389
 0.195000   0.275340   -0.042383
 0.200000   0.275109   -0.050224
 0.205000   0.274838   -0.057898
 0.210000   0.274530   -0.065387
 0.215000   0.274184   -0.072684
 0.220000   0.273803   -0.079810
 0.225000   0.273386   -0.086805
 0.230000   0.272935   -0.093797
 0.235000   0.272448   -0.100819
 0.240000   0.271926   -0.107323
 0.245000   0.271375   -0.113202
 0.250000   0.270794   -0.118813
 0.255000   0.270187   -0.124147
 0.260000   0.269553   -0.129231
 0.265000   0.268894   -0.134404
 0.270000   0.268209   -0.139524
 0.275000   0.267499   -0.144100
 0.280000   0.266768   -0.148325
 0.285000   0.266016   -0.152439
 0.290000   0.265244   -0.156455
 0.295000   0.264451   -0.160728
 0.300000   0.263636   -0.164821
 0.305000   0.262803   -0.168374
 0.310000   0.261953   -0.171814
 0.315000   0.261085   -0.175151
 0.320000   0.260201   -0.178648
 0.325000   0.259299   -0.181984
 0.330000   0.258381   -0.184893
 0.335000   0.257450   -0.187680
 0.340000   0.256504   -0.190398
 0.345000   0.255546   -0.193094
 0.350000   0.254573   -0.195549
 0.355000   0.253590   -0.197716
 0.360000   0.252596   -0.199759
 0.365000   0.251593   -0.201829
 0.370000   0.250578   -0.203778
 0.375000   0.249555   -0.205451
 0.380000   0.248523   -0.207004
 0.385000   0.247485   -0.208536
 0.390000   0.246438   -0.209974
 0.395000   0.245385   -0.211181
 0.400000   0.244326   -0.212222
 0.405000   0.243263   -0.213196
 0.410000   0.242194   -0.214080
 0.415000   0.241122   -0.214748
 0.420000   0.240047   -0.215213
 0.425000   0.238970   -0.215593
 0.430000   0.237891   -0.215886
 0.435000   0.236811   -0.215965
 0.440000   0.235731   -0.215834
 0.445000   0.234653   -0.215622
 0.450000   0.233575   -0.215317
 0.455000   0.232499   -0.214790
 0.460000   0.231427   -0.214050
 0.465000   0.230359   -0.213242
 0.470000   0.229295   -0.212345
 0.475000   0.228235   -0.211221
 0.480000   0.227183   -0.209890
 0.485000   0.226137   -0.208492
 0.490000   0.225098   -0.206966
 0.495000   0.224067   -0.205176
 0.500000   0.223046   -0.203173
 0.505000   0.222035   -0.201079
 0.510000   0.221035   -0.198795
 0.515000   0.220047   -0.196196
 0.520000   0.219073   -0.193369
 0.525000   0.218114   -0.190455
 0.530000   0.217169   -0.187347
 0.535000   0.216240   -0.183938
 0.540000   0.215329   -0.180366
 0.545000   0.214436   -0.176750
 0.550000   0.213562   -0.172996
 0.555000   0.212706   -0.169024
 0.560000   0.211871   -0.164968
 0.565000   0.211057   -0.160912
 0.570000   0.210262   -0.156768
 0.575000   0.209489   -0.152473
 0.580000   0.208738   -0.148126
 0.585000   0.208008   -0.143776
 0.590000   0.207300   -0.139346
 0.595000   0.206614   -0.134793
 0.600000   0.205952   -0.130199
 0.605000   0.205312   -0.125615
 0.610000   0.204696   -0.120998
 0.615000   0.204102   -0.116329
 0.620000   0.203532   -0.111678
 0.625000   0.202986   -0.107082
 0.630000   0.202462   -0.102521
 0.635000   0.201960   -0.097981
 0.640000   0.201482   -0.093495
 0.645000   0.201025   -0.089040
 0.650000   0.200591   -0.084539
 0.655000   0.200180   -0.079952
 0.660000   0.199792   -0.075312
 0.665000   0.199427   -0.070619
 0.670000   0.199086   -0.065871
 0.675000   0.198768   -0.061110
 0.680000   0.198475   -0.056311
 0.685000   0.198205   -0.051511
 0.690000   0.197959   -0.046653
 0.695000   0.197739   -0.041552
 0.700000   0.197544   -0.036084
 0.705000   0.197378   -0.030145
 0.710000   0.197243   -0.023446
 0.715000   0.197143   -0.016151
 0.720000   0.197081   -0.008951
 0.725000   0.197054   -0.002035
 0.730000   0.197061   0.004581
 0.735000   0.197100   0.010750
 0.740000   0.197168   0.016457
 0.745000   0.197264   0.021308
 0.750000   0.197381   0.024790
 0.755000   0.197512   0.026978
 0.760000   0.197651   0.028050
 0.765000   0.197793   0.028070
 0.770000   0.197932   0.026977
 0.775000   0.198062   0.024785
 0.780000   0.198180   0.022040
 0.785000   0.198283   0.019202
 0.790000   0.198372   0.016426
 0.795000   0.198447   0.013906
 0.800000   0.198511   0.011708
 0.805000   0.198564   0.010008
 0.810000   0.198611   0.009354
 0.815000   0.198658   0.009950
 0.820000   0.198710   0.011671
 0.825000   0.198774   0.014586
 0.830000   0.198856   0.018729
 0.835000   0.198962   0.024091
 0.840000   0.199097   0.030501
 0.845000   0.199267   0.037793
 0.850000   0.199475   0.045936
 0.855000   0.199726   0.054887
 0.860000   0.200024   0.064508
 0.865000   0.200371   0.074610
 0.870000   0.200770   0.084997
 0.875000   0.201221   0.095164
 0.880000   0.201722   0.104124
 0.885000   0.202262   0.110402
 0.890000   0.202826   0.111872
 0.895000   0.203381   0.105826
 0.900000   0.203884   0.088233
 0.905000   0.204263   0.053785
 0.910000   0.204422   -0.003943
 0.915000   0.204224   -0.093044
 0.920000   0.203491   -0.222675
 0.925000   0.201997   -0.400720
 0.930000   0.199484   -0.634710
 0.935000   0.195650   -0.928138
 0.940000   0.190203   -1.273903
 0.945000   0.182911   -1.652252
 0.950000   0.173680   -2.028471
 0.955000   0.162626   -2.352161
 0.960000   0.150158   -2.574766
 0.965000   0.136879   -2.660745
 0.970000   0.123551   -2.593472
 0.975000   0.110944   -2.388730
 0.980000   0.099664   -2.089113
 0.985000   0.090053   -1.745687
 0.990000   0.082207   -1.411020
 0.995000   0.075943   -1.122224
 1.000000   0.070985   -0.860972
201 psinorm ti(KeV) dti/dpsiN
 0.000000   6.325716   0.002546
 0.005000   6.324632   -0.435860
 0.010000   6.321357   -0.877726
 0.015000   6.315855   -1.326176
 0.020000   6.308095   -1.780552
 0.025000   6.298049   -2.240215
 0.030000   6.285693   -2.704557
 0.035000   6.271004   -3.172966
 0.040000   6.253963   -3.645184
 0.045000   6.234552   -4.120311
 0.050000   6.212760   -4.596962
 0.055000   6.188582   -5.074058
 0.060000   6.162020   -5.550171
 0.065000   6.133081   -6.023629
 0.070000   6.101783   -6.492728
 0.075000   6.068153   -6.954824
 0.080000   6.032235   -7.407260
 0.085000   5.994081   -7.848098
 0.090000   5.953754   -8.275052
 0.095000   5.911330   -8.685806
 0.100000   5.866896   -9.077150
 0.105000   5.820559   -9.448601
 0.110000   5.772410   -9.802374
 0.115000   5.722535   -10.138624
 0.120000   5.671024   -10.456913
 0.125000   5.617966   -10.757295
 0.130000   5.563451   -11.040202
 0.135000   5.507564   -11.306584
 0.140000   5.450385   -11.555249
 0.145000   5.392011   -11.783114
 0.150000   5.332554   -11.987734
 0.155000   5.272134   -12.167064
 0.160000   5.210883   -12.319043
 0.165000   5.148944   -12.441829
 0.170000   5.086465   -12.535875
 0.175000   5.023585   -12.601947
 0.180000   4.960445   -12.639215
 0.185000   4.897193   -12.646758
 0.190000   4.833978   -12.621075
 0.195000   4.770982   -12.558507
 0.200000   4.708393   -12.465859
 0.205000   4.646323   -12.349386
 0.210000   4.584899   -12.210757
 0.215000   4.524216   -12.056306
 0.220000   4.464336   -11.892955
 0.225000   4.405286   -11.730816
 0.230000   4.347028   -11.577301
 0.235000   4.289513   -11.427759
 0.240000   4.232750   -11.275748
 0.245000   4.176756   -11.119538
 0.250000   4.121555   -10.958956
 0.255000   4.067166   -10.796979
 0.260000   4.013585   -10.629074
 0.265000   3.960876   -10.451137
 0.270000   3.909074   -10.265868
 0.275000   3.858217   -10.072842
 0.280000   3.808345   -9.871728
 0.285000   3.759500   -9.663031
 0.290000   3.711715   -9.440071
 0.295000   3.665099   -9.200153
 0.300000   3.619713   -8.948443
 0.305000   3.575614   -8.686263
 0.310000   3.532851   -8.415145
 0.315000   3.491463   -8.132682
 0.320000   3.451524   -7.842341
 0.325000   3.413040   -7.549615
 0.330000   3.376028   -7.254066
 0.335000   3.340499   -6.957733
 0.340000   3.306450   -6.663584
 0.345000   3.273863   -6.371472
 0.350000   3.242736   -6.094833
 0.355000   3.212915   -5.844342
 0.360000   3.184292   -5.614408
 0.365000   3.156771   -5.403772
 0.370000   3.130255   -5.211830
 0.375000   3.104652   -5.040931
 0.380000   3.079845   -4.890241
 0.385000   3.055750   -4.753655
 0.390000   3.032309   -4.627392
 0.395000   3.009476   -4.508555
 0.400000   2.987223   -4.393994
 0.405000   2.965536   -4.283188
 0.410000   2.944391   -4.172255
 0.415000   2.923814   -4.058200
 0.420000   2.903809   -3.944552
 0.425000   2.884368   -3.833541
 0.430000   2.865474   -3.726342
 0.435000   2.847105   -3.623573
 0.440000   2.829238   -3.527721
 0.445000   2.811827   -3.442690
 0.450000   2.794811   -3.369130
 0.455000   2.778136   -3.306185
 0.460000   2.761749   -3.253524
 0.465000   2.745601   -3.209830
 0.470000   2.729651   -3.174008
 0.475000   2.713861   -3.146886
 0.480000   2.698182   -3.128342
 0.485000   2.682577   -3.117285
 0.490000   2.667009   -3.113398
 0.495000   2.651443   -3.115958
 0.500000   2.635850   -3.124711
 0.505000   2.620196   -3.140767
 0.510000   2.604442   -3.163885
 0.515000   2.588557   -3.192559
 0.520000   2.572517   -3.225511
 0.525000   2.556302   -3.260176
 0.530000   2.539915   -3.291846
 0.535000   2.523384   -3.319974
 0.540000   2.506715   -3.347143
 0.545000   2.489912   -3.373671
 0.550000   2.472978   -3.399761
 0.555000   2.455915   -3.425206
 0.560000   2.438726   -3.449367
 0.565000   2.421421   -3.474088
 0.570000   2.403985   -3.500131
 0.575000   2.386420   -3.525996
 0.580000   2.368725   -3.551600
 0.585000   2.350904   -3.576874
 0.590000   2.332957   -3.602806
 0.595000   2.314876   -3.628838
 0.600000   2.296668   -3.653411
 0.605000   2.278342   -3.676001
 0.610000   2.259908   -3.695148
 0.615000   2.241390   -3.708629
 0.620000   2.222822   -3.713523
 0.625000   2.204255   -3.707752
 0.630000   2.185744   -3.693292
 0.635000   2.167322   -3.672892
 0.640000   2.149016   -3.647054
 0.645000   2.130851   -3.616060
 0.650000   2.112855   -3.579841
 0.655000   2.095053   -3.538855
 0.660000   2.077466   -3.493769
 0.665000   2.060115   -3.444912
 0.670000   2.043017   -3.393123
 0.675000   2.026184   -3.339668
 0.680000   2.009621   -3.287241
 0.685000   1.993312   -3.237749
 0.690000   1.977243   -3.190190
 0.695000   1.961410   -3.143663
 0.700000   1.945806   -3.098016
 0.705000   1.930430   -3.052877
 0.710000   1.915278   -3.009780
 0.715000   1.900332   -2.966471
 0.720000   1.885613   -2.918289
 0.725000   1.871149   -2.865797
 0.730000   1.856955   -2.810418
 0.735000   1.843045   -2.752583
 0.740000   1.829429   -2.693036
 0.745000   1.816114   -2.631453
 0.750000   1.803115   -2.567998
 0.755000   1.790434   -2.504717
 0.760000   1.778068   -2.443489
 0.765000   1.766000   -2.386006
 0.770000   1.754207   -2.333858
 0.775000   1.742661   -2.289107
 0.780000   1.731316   -2.253507
 0.785000   1.720126   -2.227088
 0.790000   1.709046   -2.209584
 0.795000   1.698030   -2.201147
 0.800000   1.687034   -2.201906
 0.805000   1.676011   -2.210933
 0.810000   1.664925   -2.226318
 0.815000   1.653748   -2.248201
 0.820000   1.642443   -2.278051
 0.825000   1.630967   -2.316617
 0.830000   1.619277   -2.364492
 0.835000   1.607322   -2.422380
 0.840000   1.595053   -2.489372
 0.845000   1.582429   -2.564960
 0.850000   1.569403   -2.651367
 0.855000   1.555915   -2.752010
 0.860000   1.541883   -2.872708
 0.865000   1.527188   -3.027718
 0.870000   1.511606   -3.214976
 0.875000   1.495038   -3.426342
 0.880000   1.477342   -3.666877
 0.885000   1.458369   -3.937848
 0.890000   1.437964   -4.240797
 0.895000   1.415961   -4.597558
 0.900000   1.391988   -4.986230
 0.905000   1.366099   -5.386185
 0.910000   1.338127   -5.820340
 0.915000   1.307896   -6.288309
 0.920000   1.275243   -6.785554
 0.925000   1.240040   -7.345630
 0.930000   1.201787   -7.925490
 0.935000   1.160785   -8.463336
 0.940000   1.117154   -8.970450
 0.945000   1.071081   -9.430068
 0.950000   1.022853   -9.823380
 0.955000   0.972847   -10.160628
 0.960000   0.921247   -10.394908
 0.965000   0.868898   -10.483462
 0.970000   0.816412   -10.457703
 0.975000   0.764321   -10.327601
 0.980000   0.713136   -10.097372
 0.985000   0.663347   -9.770395
 0.990000   0.615432   -9.341717
 0.995000   0.569930   -8.819455
 1.000000   0.527238   -8.257466
201 psinorm nb(10^20/m^3) dnb/dpsiN
 0.000000   0.105447   0.206056
 0.005000   0.106177   0.085878
 0.010000   0.106306   -0.017763
 0.015000   0.105999   -0.097275
 0.020000   0.105333   -0.163090
 0.025000   0.104368   -0.219234
 0.030000   0.103141   -0.266891
 0.035000   0.101699   -0.305680
 0.040000   0.100084   -0.337283
 0.045000   0.098327   -0.363361
 0.050000   0.096450   -0.383793
 0.055000   0.094489   -0.398758
 0.060000   0.092463   -0.410613
 0.065000   0.090383   -0.418944
 0.070000   0.088273   -0.423708
 0.075000   0.086145   -0.426151
 0.080000   0.084012   -0.426158
 0.085000   0.081884   -0.423762
 0.090000   0.079774   -0.419548
 0.095000   0.077688   -0.414051
 0.100000   0.075634   -0.407071
 0.105000   0.073618   -0.398531
 0.110000   0.071648   -0.389210
 0.115000   0.069726   -0.379513
 0.120000   0.067853   -0.369176
 0.125000   0.066034   -0.358339
 0.130000   0.064270   -0.347097
 0.135000   0.062563   -0.335580
 0.140000   0.060914   -0.323841
 0.145000   0.059324   -0.311947
 0.150000   0.057795   -0.300010
 0.155000   0.056324   -0.288267
 0.160000   0.054912   -0.276792
 0.165000   0.053556   -0.265503
 0.170000   0.052257   -0.254397
 0.175000   0.051012   -0.243409
 0.180000   0.049823   -0.232816
 0.185000   0.048684   -0.222667
 0.190000   0.047596   -0.212797
 0.195000   0.046556   -0.203286
 0.200000   0.045563   -0.194158
 0.205000   0.044615   -0.185425
 0.210000   0.043709   -0.177093
 0.215000   0.042844   -0.169163
 0.220000   0.042017   -0.161612
 0.225000   0.041228   -0.154401
 0.230000   0.040473   -0.147361
 0.235000   0.039754   -0.140412
 0.240000   0.039069   -0.134084
 0.245000   0.038413   -0.128468
 0.250000   0.037784   -0.123194
 0.255000   0.037181   -0.118252
 0.260000   0.036602   -0.113622
 0.265000   0.036045   -0.108988
 0.270000   0.035512   -0.104502
 0.275000   0.035000   -0.100661
 0.280000   0.034505   -0.097271
 0.285000   0.034027   -0.094089
 0.290000   0.033565   -0.091108
 0.295000   0.033116   -0.087967
 0.300000   0.032685   -0.085081
 0.305000   0.032265   -0.082797
 0.310000   0.031857   -0.080674
 0.315000   0.031459   -0.078698
 0.320000   0.031070   -0.076589
 0.325000   0.030693   -0.074645
 0.330000   0.030324   -0.073122
 0.335000   0.029962   -0.071700
 0.340000   0.029607   -0.070316
 0.345000   0.029258   -0.068913
 0.350000   0.028917   -0.067698
 0.355000   0.028581   -0.066710
 0.360000   0.028250   -0.065785
 0.365000   0.027924   -0.064772
 0.370000   0.027603   -0.063816
 0.375000   0.027285   -0.063074
 0.380000   0.026972   -0.062385
 0.385000   0.026662   -0.061638
 0.390000   0.026355   -0.060894
 0.395000   0.026053   -0.060280
 0.400000   0.025753   -0.059721
 0.405000   0.025455   -0.059107
 0.410000   0.025162   -0.058452
 0.415000   0.024871   -0.057880
 0.420000   0.024583   -0.057376
 0.425000   0.024297   -0.056816
 0.430000   0.024015   -0.056200
 0.435000   0.023735   -0.055650
 0.440000   0.023458   -0.055162
 0.445000   0.023184   -0.054608
 0.450000   0.022912   -0.053993
 0.455000   0.022644   -0.053445
 0.460000   0.022378   -0.052956
 0.465000   0.022114   -0.052386
 0.470000   0.021854   -0.051761
 0.475000   0.021596   -0.051214
 0.480000   0.021342   -0.050720
 0.485000   0.021089   -0.050131
 0.490000   0.020840   -0.049505
 0.495000   0.020594   -0.048976
 0.500000   0.020351   -0.048487
 0.505000   0.020109   -0.047895
 0.510000   0.019872   -0.047287
 0.515000   0.019636   -0.046791
 0.520000   0.019404   -0.046323
 0.525000   0.019173   -0.045745
 0.530000   0.018946   -0.045171
 0.535000   0.018721   -0.044723
 0.540000   0.018499   -0.044287
 0.545000   0.018279   -0.043759
 0.550000   0.018061   -0.043252
 0.555000   0.017846   -0.042860
 0.560000   0.017633   -0.042469
 0.565000   0.017421   -0.042011
 0.570000   0.017213   -0.041585
 0.575000   0.017006   -0.041256
 0.580000   0.016800   -0.040930
 0.585000   0.016596   -0.040560
 0.590000   0.016394   -0.040224
 0.595000   0.016194   -0.039968
 0.600000   0.015995   -0.039720
 0.605000   0.015797   -0.039447
 0.610000   0.015600   -0.039206
 0.615000   0.015405   -0.039030
 0.620000   0.015210   -0.038869
 0.625000   0.015016   -0.038704
 0.630000   0.014823   -0.038570
 0.635000   0.014630   -0.038490
 0.640000   0.014438   -0.038428
 0.645000   0.014246   -0.038388
 0.650000   0.014054   -0.038384
 0.655000   0.013862   -0.038414
 0.660000   0.013670   -0.038464
 0.665000   0.013478   -0.038547
 0.670000   0.013285   -0.038673
 0.675000   0.013091   -0.038819
 0.680000   0.012896   -0.038973
 0.685000   0.012701   -0.039142
 0.690000   0.012505   -0.039368
 0.695000   0.012307   -0.039611
 0.700000   0.012109   -0.039827
 0.705000   0.011909   -0.040051
 0.710000   0.011708   -0.040299
 0.715000   0.011506   -0.040584
 0.720000   0.011303   -0.040866
 0.725000   0.011098   -0.041131
 0.730000   0.010891   -0.041406
 0.735000   0.010683   -0.041718
 0.740000   0.010474   -0.042070
 0.745000   0.010263   -0.042407
 0.750000   0.010050   -0.042724
 0.755000   0.009836   -0.043045
 0.760000   0.009620   -0.043381
 0.765000   0.009402   -0.043745
 0.770000   0.009182   -0.044084
 0.775000   0.008961   -0.044380
 0.780000   0.008738   -0.044664
 0.785000   0.008514   -0.044935
 0.790000   0.008289   -0.045210
 0.795000   0.008062   -0.045472
 0.800000   0.007834   -0.045691
 0.805000   0.007605   -0.045886
 0.810000   0.007375   -0.046067
 0.815000   0.007145   -0.046231
 0.820000   0.006913   -0.046376
 0.825000   0.006681   -0.046494
 0.830000   0.006448   -0.046567
 0.835000   0.006215   -0.046596
 0.840000   0.005982   -0.046581
 0.845000   0.005749   -0.046522
 0.850000   0.005517   -0.046410
 0.855000   0.005285   -0.046238
 0.860000   0.005055   -0.045988
 0.865000   0.004825   -0.045725
 0.870000   0.004597   -0.045507
 0.875000   0.004370   -0.045306
 0.880000   0.004144   -0.045111
 0.885000   0.003919   -0.044907
 0.890000   0.003695   -0.044680
 0.895000   0.003472   -0.044417
 0.900000   0.003251   -0.044115
 0.905000   0.003031   -0.043771
 0.910000   0.002813   -0.043388
 0.915000   0.002597   -0.042918
 0.920000   0.002384   -0.042314
 0.925000   0.002174   -0.041584
 0.930000   0.001968   -0.040778
 0.935000   0.001766   -0.039940
 0.940000   0.001569   -0.039051
 0.945000   0.001376   -0.038010
 0.950000   0.001189   -0.036588
 0.955000   0.001010   -0.034415
 0.960000   0.000845   -0.031253
 0.965000   0.000698   -0.027268
 0.970000   0.000572   -0.022927
 0.975000   0.000468   -0.018729
 0.980000   0.000385   -0.015162
 0.985000   0.000317   -0.012898
 0.990000   0.000256   -0.011904
 0.995000   0.000198   -0.011929
 1.000000   0.000136   -0.012555
201 psinorm pb(KPa) dpb/dpsiN
 0.000000   43.217674   59.259143
 0.005000   43.404646   15.529409
 0.010000   43.372969   -23.500476
 0.015000   43.169641   -54.605186
 0.020000   42.826917   -80.100622
 0.025000   42.368635   -101.786424
 0.030000   41.809052   -120.157149
 0.035000   41.167063   -135.001074
 0.040000   40.459042   -146.894588
 0.045000   39.698117   -156.564840
 0.050000   38.893393   -163.829025
 0.055000   38.059827   -168.940031
 0.060000   37.203993   -173.014864
 0.065000   36.329679   -175.746070
 0.070000   35.446532   -177.103657
 0.075000   34.558642   -177.619505
 0.080000   33.670337   -177.207652
 0.085000   32.786566   -175.788594
 0.090000   31.912451   -173.649984
 0.095000   31.050066   -171.038769
 0.100000   30.202064   -167.859057
 0.105000   29.371475   -164.069246
 0.110000   28.561371   -159.994902
 0.115000   27.771526   -155.813495
 0.120000   27.003236   -151.405133
 0.125000   26.257475   -146.818169
 0.130000   25.535055   -142.091001
 0.135000   24.836565   -137.270729
 0.140000   24.162347   -132.386504
 0.145000   23.512700   -127.461629
 0.150000   22.887731   -122.526963
 0.155000   22.287430   -117.681469
 0.160000   21.710916   -112.959669
 0.165000   21.157833   -108.321396
 0.170000   20.627702   -103.761040
 0.175000   20.120223   -99.262318
 0.180000   19.635079   -94.947035
 0.185000   19.170753   -90.816830
 0.190000   18.726911   -86.793191
 0.195000   18.302821   -82.920117
 0.200000   17.897710   -79.208012
 0.205000   17.510741   -75.660143
 0.210000   17.141108   -72.275619
 0.215000   16.787984   -69.056553
 0.220000   16.450543   -65.992183
 0.225000   16.128063   -63.059770
 0.230000   15.819945   -60.196441
 0.235000   15.526098   -57.384077
 0.240000   15.246104   -54.829634
 0.245000   14.977802   -52.559660
 0.250000   14.720508   -50.427327
 0.255000   14.473529   -48.430178
 0.260000   14.236206   -46.559057
 0.265000   14.007938   -44.693458
 0.270000   13.789271   -42.891593
 0.275000   13.579022   -41.351473
 0.280000   13.375757   -39.993550
 0.285000   13.179087   -38.710664
 0.290000   12.988650   -37.504348
 0.295000   12.804043   -36.241644
 0.300000   12.626233   -35.081504
 0.305000   12.453228   -34.154682
 0.310000   12.284687   -33.292762
 0.315000   12.120300   -32.489795
 0.320000   11.959789   -31.639880
 0.325000   11.803902   -30.853084
 0.330000   11.651258   -30.222627
 0.335000   11.501675   -29.631126
 0.340000   11.354947   -29.061537
 0.345000   11.211060   -28.493940
 0.350000   11.070007   -27.999565
 0.355000   10.931064   -27.590335
 0.360000   10.794104   -27.206024
 0.365000   10.659004   -26.792321
 0.370000   10.526181   -26.401819
 0.375000   10.394986   -26.089657
 0.380000   10.265284   -25.797912
 0.385000   10.137007   -25.487176
 0.390000   10.010412   -25.182360
 0.395000   9.885183   -24.925021
 0.400000   9.761162   -24.684743
 0.405000   9.638336   -24.425439
 0.410000   9.516908   -24.152772
 0.415000   9.396808   -23.909791
 0.420000   9.277810   -23.690970
 0.425000   9.159898   -23.453946
 0.430000   9.043270   -23.198491
 0.435000   8.927913   -22.965798
 0.440000   8.813612   -22.754857
 0.445000   8.700365   -22.521261
 0.450000   8.588400   -22.268286
 0.455000   8.477682   -22.038971
 0.460000   8.368010   -21.829548
 0.465000   8.259387   -21.591379
 0.470000   8.152096   -21.333923
 0.475000   8.046047   -21.102985
 0.480000   7.941066   -20.889515
 0.485000   7.837152   -20.644835
 0.490000   7.734618   -20.387851
 0.495000   7.633274   -20.163362
 0.500000   7.532984   -19.952922
 0.505000   7.433744   -19.708535
 0.510000   7.335899   -19.459015
 0.515000   7.239154   -19.247330
 0.520000   7.143426   -19.044883
 0.525000   7.048705   -18.802008
 0.530000   6.955406   -18.560136
 0.535000   6.863104   -18.364622
 0.540000   6.771759   -18.173607
 0.545000   6.681368   -17.952678
 0.550000   6.592233   -17.738415
 0.555000   6.503984   -17.562615
 0.560000   6.416606   -17.386778
 0.565000   6.330116   -17.189266
 0.570000   6.244714   -17.001963
 0.575000   6.160096   -16.846795
 0.580000   6.076246   -16.692258
 0.585000   5.993174   -16.522472
 0.590000   5.911021   -16.363120
 0.595000   5.829543   -16.230654
 0.600000   5.748715   -16.101489
 0.605000   5.668528   -15.963135
 0.610000   5.589083   -15.833102
 0.615000   5.510197   -15.723840
 0.620000   5.431845   -15.619370
 0.625000   5.354003   -15.512377
 0.630000   5.276721   -15.415400
 0.635000   5.199849   -15.336893
 0.640000   5.123352   -15.265229
 0.645000   5.047197   -15.200636
 0.650000   4.971346   -15.149880
 0.655000   4.895698   -15.112654
 0.660000   4.820219   -15.082453
 0.665000   4.744873   -15.064735
 0.670000   4.669572   -15.063995
 0.675000   4.594233   -15.070203
 0.680000   4.518870   -15.078239
 0.685000   4.443451   -15.092569
 0.690000   4.367944   -15.126194
 0.695000   4.292189   -15.165040
 0.700000   4.216294   -15.192888
 0.705000   4.140260   -15.221165
 0.710000   4.064082   -15.257150
 0.715000   3.987689   -15.304096
 0.720000   3.911041   -15.349580
 0.725000   3.834193   -15.390857
 0.730000   3.757133   -15.434666
 0.735000   3.679846   -15.491229
 0.740000   3.602220   -15.561144
 0.745000   3.524235   -15.626560
 0.750000   3.445955   -15.686294
 0.755000   3.367372   -15.747219
 0.760000   3.288483   -15.813103
 0.765000   3.209241   -15.886654
 0.770000   3.129616   -15.950888
 0.775000   3.049732   -16.000440
 0.780000   2.969612   -16.045196
 0.785000   2.889280   -16.084697
 0.790000   2.808765   -16.123433
 0.795000   2.728046   -16.156302
 0.800000   2.647202   -16.174800
 0.805000   2.566298   -16.183964
 0.810000   2.485362   -16.187176
 0.815000   2.404426   -16.183201
 0.820000   2.323530   -16.170470
 0.825000   2.242721   -16.145044
 0.830000   2.162080   -16.103757
 0.835000   2.081684   -16.046874
 0.840000   2.001611   -15.974451
 0.845000   1.921939   -15.885748
 0.850000   1.842753   -15.779010
 0.855000   1.764149   -15.651518
 0.860000   1.686238   -15.493015
 0.865000   1.609219   -15.323326
 0.870000   1.533005   -15.160827
 0.875000   1.457611   -14.993694
 0.880000   1.383068   -14.818318
 0.885000   1.309427   -14.630843
 0.890000   1.236759   -14.426951
 0.895000   1.165158   -14.202695
 0.900000   1.094733   -13.957352
 0.905000   1.025584   -13.690819
 0.910000   0.957824   -13.400589
 0.915000   0.891579   -13.068508
 0.920000   0.827139   -12.704973
 0.925000   0.764529   -12.332696
 0.930000   0.703812   -11.972059
 0.935000   0.644808   -11.662263
 0.940000   0.587190   -11.437607
 0.945000   0.530432   -11.323313
 0.950000   0.473957   -11.299270
 0.955000   0.417439   -11.265725
 0.960000   0.361299   -11.084961
 0.965000   0.306590   -10.670789
 0.970000   0.254591   -10.023704
 0.975000   0.206353   -9.171950
 0.980000   0.162872   -8.170619
 0.985000   0.124647   -7.085286
 0.990000   0.092019   -5.850786
 0.995000   0.066139   -4.744464
 1.000000   0.044574   -3.881267
201 psinorm ptot(KPa) dptot/dpsiN
 0.000000   103.732264   -59.589969
 0.005000   103.352812   -92.190840
 0.010000   102.810356   -121.761360
 0.015000   102.135199   -145.845797
 0.020000   101.351898   -165.714534
 0.025000   100.478053   -182.768962
 0.030000   99.524208   -197.391215
 0.035000   98.504141   -209.412844
 0.040000   97.430080   -219.246452
 0.045000   96.311677   -227.452866
 0.050000   95.155551   -233.857281
 0.055000   93.973104   -238.691288
 0.060000   92.768638   -242.831988
 0.065000   91.544784   -246.005157
 0.070000   90.308587   -248.179199
 0.075000   89.062992   -249.749166
 0.080000   87.811095   -250.622767
 0.085000   86.556764   -250.705066
 0.090000   85.304044   -250.212846
 0.095000   84.054636   -249.326613
 0.100000   82.810778   -247.953657
 0.105000   81.575099   -246.051724
 0.110000   80.350261   -243.875321
 0.115000   79.136346   -241.560735
 0.120000   77.934654   -239.006848
 0.125000   76.746278   -236.244561
 0.130000   75.572208   -233.302921
 0.135000   74.413248   -230.217409
 0.140000   73.270034   -227.001178
 0.145000   72.143237   -223.654453
 0.150000   71.033489   -220.184464
 0.155000   69.941392   -216.657993
 0.160000   68.866909   -213.091406
 0.165000   67.810478   -209.441774
 0.170000   66.772492   -205.707922
 0.175000   65.753399   -201.884566
 0.180000   64.753646   -198.067883
 0.185000   63.772720   -194.252536
 0.190000   62.811121   -190.358203
 0.195000   61.869138   -186.407335
 0.200000   60.947047   -182.442564
 0.205000   60.044712   -178.496652
 0.210000   59.162081   -174.576933
 0.215000   58.298943   -170.716075
 0.220000   57.454920   -166.938336
 0.225000   56.629559   -163.271540
 0.230000   55.822205   -159.697162
 0.235000   55.032588   -156.178988
 0.240000   54.260415   -152.858555
 0.245000   53.504002   -149.749686
 0.250000   52.762918   -146.731302
 0.255000   52.036689   -143.815652
 0.260000   51.324761   -140.976287
 0.265000   50.626926   -138.096714
 0.270000   49.943794   -135.239276
 0.275000   49.274534   -132.570664
 0.280000   48.618088   -130.024081
 0.285000   47.974293   -127.510960
 0.290000   47.342978   -125.005184
 0.295000   46.724241   -122.384008
 0.300000   46.119138   -119.805073
 0.305000   45.526190   -117.385850
 0.310000   44.945279   -114.991445
 0.315000   44.376276   -112.607152
 0.320000   43.819208   -110.158000
 0.325000   43.274696   -107.761398
 0.330000   42.741594   -105.495045
 0.335000   42.219745   -103.268331
 0.340000   41.708911   -101.080425
 0.345000   41.208941   -98.913682
 0.350000   40.719774   -96.885337
 0.355000   40.240088   -95.050091
 0.360000   39.769273   -93.331507
 0.365000   39.306773   -91.676609
 0.370000   38.852507   -90.127060
 0.375000   38.405502   -88.739125
 0.380000   37.965116   -87.458321
 0.385000   37.530919   -86.223852
 0.390000   37.102877   -85.040756
 0.395000   36.680511   -83.931702
 0.400000   36.263560   -82.856435
 0.405000   35.851947   -81.781417
 0.410000   35.445746   -80.695525
 0.415000   35.044992   -79.623917
 0.420000   34.649507   -78.576301
 0.425000   34.259229   -77.524985
 0.430000   33.874257   -76.474280
 0.435000   33.494486   -75.461937
 0.440000   33.119637   -74.496777
 0.445000   32.749518   -73.555421
 0.450000   32.384083   -72.642486
 0.455000   32.023093   -71.791216
 0.460000   31.666171   -70.996482
 0.465000   31.313128   -70.210343
 0.470000   30.964068   -69.436487
 0.475000   30.618764   -68.717529
 0.480000   30.276892   -68.044442
 0.485000   29.938319   -67.370063
 0.490000   29.603192   -66.709084
 0.495000   29.271228   -66.097474
 0.500000   28.942217   -65.517803
 0.505000   28.616050   -64.931301
 0.510000   28.292904   -64.361528
 0.515000   27.972435   -63.840323
 0.520000   27.654501   -63.337930
 0.525000   27.339056   -62.800981
 0.530000   27.026491   -62.249258
 0.535000   26.716563   -61.722028
 0.540000   26.409271   -61.192756
 0.545000   26.104636   -60.633051
 0.550000   25.802940   -60.076534
 0.555000   25.503870   -59.551199
 0.560000   25.207428   -59.021621
 0.565000   24.913654   -58.476031
 0.570000   24.622668   -57.945695
 0.575000   24.334197   -57.444778
 0.580000   24.048220   -56.945441
 0.585000   23.764743   -56.433487
 0.590000   23.483885   -55.935265
 0.595000   23.205390   -55.463724
 0.600000   22.929248   -54.993021
 0.605000   22.655460   -54.510671
 0.610000   22.384141   -54.027646
 0.615000   22.115183   -53.548125
 0.620000   21.848660   -53.048706
 0.625000   21.584696   -52.516464
 0.630000   21.323495   -51.970210
 0.635000   21.064994   -51.427543
 0.640000   20.809220   -50.879843
 0.645000   20.556196   -50.327726
 0.650000   20.305943   -49.775490
 0.655000   20.058441   -49.223439
 0.660000   19.813708   -48.668462
 0.665000   19.571756   -48.117062
 0.670000   19.332538   -47.576511
 0.675000   19.095991   -47.042325
 0.680000   18.862114   -46.517728
 0.685000   18.630814   -46.014383
 0.690000   18.401971   -45.540077
 0.695000   18.175413   -45.072917
 0.700000   17.951241   -44.593270
 0.705000   17.729480   -44.108515
 0.710000   17.510156   -43.623858
 0.715000   17.293242   -43.139415
 0.720000   17.078762   -42.645039
 0.725000   16.866791   -42.144321
 0.730000   16.657319   -41.648505
 0.735000   16.450306   -41.172229
 0.740000   16.245597   -40.718220
 0.745000   16.043124   -40.276616
 0.750000   15.842831   -39.858169
 0.755000   15.644542   -39.473275
 0.760000   15.448098   -39.126456
 0.765000   15.253278   -38.823297
 0.770000   15.059865   -38.552647
 0.775000   14.867751   -38.314596
 0.780000   14.676719   -38.110935
 0.785000   14.486642   -37.929796
 0.790000   14.297421   -37.770425
 0.795000   14.108938   -37.623155
 0.800000   13.921189   -37.477759
 0.805000   13.734160   -37.331383
 0.810000   13.547875   -37.168089
 0.815000   13.362479   -36.982073
 0.820000   13.178055   -36.778951
 0.825000   12.994690   -36.555409
 0.830000   12.812501   -36.309291
 0.835000   12.631597   -36.043411
 0.840000   12.452067   -35.758737
 0.845000   12.274010   -35.457269
 0.850000   12.097494   -35.147022
 0.855000   11.922539   -34.840689
 0.860000   11.749087   -34.555365
 0.865000   11.576986   -34.369962
 0.870000   11.405387   -34.311343
 0.875000   11.233872   -34.367243
 0.880000   11.061715   -34.593819
 0.885000   10.887934   -35.052020
 0.890000   10.711195   -35.826201
 0.895000   10.529672   -37.094055
 0.900000   10.340254   -38.928166
 0.905000   10.140390   -41.446742
 0.910000   9.925787   -44.952038
 0.915000   9.690870   -49.699225
 0.920000   9.428795   -55.988414
 0.925000   9.130986   -64.239138
 0.930000   8.786403   -74.586560
 0.935000   8.385120   -87.016441
 0.940000   7.916239   -101.515706
 0.945000   7.369963   -117.654109
 0.950000   6.739698   -134.513062
 0.955000   6.024833   -150.522696
 0.960000   5.234471   -163.118080
 0.965000   4.393652   -168.757204
 0.970000   3.546899   -163.629283
 0.975000   2.757359   -145.774343
 0.980000   2.089155   -118.073389
 0.985000   1.576625   -87.803287
 0.990000   1.211122   -61.820801
 0.995000   0.958417   -43.127209
 1.000000   0.779850   -28.299509
201 psinorm omeg(kRad/s) domeg/dpsiN
 0.000000   55.353207   0.030613
 0.005000   55.352808   -0.189986
 0.010000   55.351307   -0.462532
 0.015000   55.348183   -0.851737
 0.020000   55.342790   -1.380567
 0.025000   55.334377   -2.067631
 0.030000   55.322113   -2.926488
 0.035000   55.305112   -3.963229
 0.040000   55.282481   -5.165916
 0.045000   55.253453   -6.517519
 0.050000   55.217306   -8.000768
 0.055000   55.173446   -9.585232
 0.060000   55.121453   -11.234967
 0.065000   55.061096   -12.912823
 0.070000   54.992325   -14.543146
 0.075000   54.915664   -16.128436
 0.080000   54.831041   -17.711618
 0.085000   54.738548   -19.256879
 0.090000   54.638472   -20.738712
 0.095000   54.531161   -22.148512
 0.100000   54.416987   -23.452545
 0.105000   54.296636   -24.725421
 0.110000   54.169733   -26.068848
 0.115000   54.035947   -27.453776
 0.120000   53.895195   -28.852267
 0.125000   53.747425   -30.258490
 0.130000   53.592610   -31.666232
 0.135000   53.430762   -33.113131
 0.140000   53.261479   -34.630539
 0.145000   53.084457   -36.185809
 0.150000   52.899621   -37.745403
 0.155000   52.707003   -39.288217
 0.160000   52.506738   -40.793041
 0.165000   52.299072   -42.249102
 0.170000   52.084247   -43.663336
 0.175000   51.862439   -45.034411
 0.180000   51.633903   -46.347609
 0.185000   51.398963   -47.587360
 0.190000   51.158030   -48.720185
 0.195000   50.911761   -49.708092
 0.200000   50.660949   -50.571820
 0.205000   50.406043   -51.331339
 0.210000   50.147635   -51.977006
 0.215000   49.886273   -52.520323
 0.220000   49.622432   -52.967123
 0.225000   49.356602   -53.327953
 0.230000   49.089153   -53.646152
 0.235000   48.820140   -53.901104
 0.240000   48.550142   -54.027954
 0.245000   48.279861   -54.006656
 0.250000   48.010075   -53.817442
 0.255000   47.741686   -53.417240
 0.260000   47.475903   -52.889719
 0.265000   47.212789   -52.308264
 0.270000   46.952820   -51.641308
 0.275000   46.696376   -50.906745
 0.280000   46.443753   -50.115104
 0.285000   46.195225   -49.224071
 0.290000   45.951512   -48.294035
 0.295000   45.712284   -47.378024
 0.300000   45.477732   -46.432041
 0.305000   45.247964   -45.471414
 0.310000   45.023017   -44.510574
 0.315000   44.802858   -43.543357
 0.320000   44.587584   -42.605826
 0.325000   44.376800   -41.694475
 0.330000   44.170639   -40.748836
 0.335000   43.969312   -39.758733
 0.340000   43.773052   -38.723753
 0.345000   43.582074   -37.628836
 0.350000   43.396763   -36.506579
 0.355000   43.217008   -35.395691
 0.360000   43.042807   -34.285555
 0.365000   42.874153   -33.179646
 0.370000   42.711010   -32.083984
 0.375000   42.553313   -30.997954
 0.380000   42.401031   -29.938496
 0.385000   42.253928   -28.916082
 0.390000   42.111870   -27.914541
 0.395000   41.974783   -26.923923
 0.400000   41.842630   -25.937123
 0.405000   41.715411   -24.948096
 0.410000   41.593150   -23.955311
 0.415000   41.475858   -22.962325
 0.420000   41.363526   -21.972841
 0.425000   41.256130   -20.991053
 0.430000   41.153616   -20.024334
 0.435000   41.055887   -19.090266
 0.440000   40.962713   -18.217499
 0.445000   40.873712   -17.409097
 0.450000   40.788622   -16.648240
 0.455000   40.707229   -15.925467
 0.460000   40.629367   -15.230827
 0.465000   40.554921   -14.568792
 0.470000   40.483680   -13.931503
 0.475000   40.415606   -13.277617
 0.480000   40.350903   -12.598190
 0.485000   40.289624   -11.908707
 0.490000   40.231816   -11.211040
 0.495000   40.177514   -10.514574
 0.500000   40.126671   -9.823971
 0.505000   40.079274   -9.130576
 0.510000   40.035365   -8.446815
 0.515000   39.994806   -7.796523
 0.520000   39.957400   -7.191289
 0.525000   39.922893   -6.640749
 0.530000   39.890992   -6.156200
 0.535000   39.861331   -5.765601
 0.540000   39.833336   -5.494552
 0.545000   39.806385   -5.350775
 0.550000   39.779828   -5.341296
 0.555000   39.752972   -5.481171
 0.560000   39.725017   -5.812666
 0.565000   39.694846   -6.343938
 0.570000   39.661577   -7.089204
 0.575000   39.623954   -8.112250
 0.580000   39.580455   -9.469385
 0.585000   39.529260   -11.226601
 0.590000   39.468189   -13.511475
 0.595000   39.394145   -16.324887
 0.600000   39.304940   -19.647605
 0.605000   39.197669   -23.556928
 0.610000   39.069371   -28.045119
 0.615000   38.917218   -33.059950
 0.620000   38.738771   -38.497860
 0.625000   38.532239   -44.162914
 0.630000   38.297142   -49.935949
 0.635000   38.032880   -55.769266
 0.640000   37.739449   -61.538771
 0.645000   37.417492   -67.114543
 0.650000   37.068304   -72.225887
 0.655000   36.695233   -76.825871
 0.660000   36.300045   -81.017754
 0.665000   35.885056   -84.721443
 0.670000   35.452831   -87.935490
 0.675000   35.005701   -90.734035
 0.680000   34.545490   -93.161946
 0.685000   34.074081   -95.578342
 0.690000   33.589707   -98.285008
 0.695000   33.091231   -101.201436
 0.700000   32.577693   -104.328407
 0.705000   32.047947   -107.682634
 0.710000   31.500866   -111.398788
 0.715000   30.933959   -115.201801
 0.720000   30.348848   -118.417151
 0.725000   29.749788   -120.790463
 0.730000   29.140944   -122.271022
 0.735000   28.527077   -122.759593
 0.740000   27.913348   -122.207666
 0.745000   27.305001   -120.494188
 0.750000   26.708406   -117.588194
 0.755000   26.129119   -113.681735
 0.760000   25.571588   -108.999840
 0.765000   25.039120   -103.786185
 0.770000   24.533727   -98.316371
 0.775000   24.055957   -92.897517
 0.780000   23.604751   -87.631366
 0.785000   23.179643   -82.432083
 0.790000   22.780431   -77.272664
 0.795000   22.406916   -72.154895
 0.800000   22.058882   -67.138129
 0.805000   21.735535   -62.242693
 0.810000   21.436455   -57.346579
 0.815000   21.162069   -52.604121
 0.820000   20.910413   -48.385402
 0.825000   20.678215   -44.945389
 0.830000   20.460960   -42.530545
 0.835000   20.252910   -41.359782
 0.840000   20.047362   -41.557695
 0.845000   19.837333   -43.249730
 0.850000   19.614864   -46.579036
 0.855000   19.371543   -51.628758
 0.860000   19.098577   -58.501828
 0.865000   18.786524   -67.473184
 0.870000   18.423845   -78.595760
 0.875000   18.000567   -91.759100
 0.880000   17.506254   -106.954825
 0.885000   16.931018   -123.994962
 0.890000   16.266304   -142.518872
 0.895000   15.505830   -162.425026
 0.900000   14.642054   -182.094688
 0.905000   13.684883   -199.646687
 0.910000   12.645587   -214.256990
 0.915000   11.542313   -224.549254
 0.920000   10.400095   -229.218190
 0.925000   9.250131   -227.421722
 0.930000   8.125878   -218.063927
 0.935000   7.069492   -200.837593
 0.940000   6.117502   -176.838448
 0.945000   5.301107   -147.466129
 0.950000   4.642840   -114.744654
 0.955000   4.153661   -81.045701
 0.960000   3.832383   -49.153217
 0.965000   3.662129   -21.561832
 0.970000   3.616765   0.263992
 0.975000   3.664769   15.600270
 0.980000   3.772768   24.406387
 0.985000   3.908832   27.136730
 0.990000   4.044135   24.812475
 0.995000   4.156957   18.705711
 1.000000   4.231192   10.988274
201 psinorm omegp(kRad/s) domegp/dpsiN
 0.000000   0.025465   155.539873
 0.005000   0.652560   95.297934
 0.010000   0.978445   61.987740
 0.015000   1.272437   57.576244
 0.020000   1.554207   55.519321
 0.025000   1.827631   53.303322
 0.030000   2.087240   50.267909
 0.035000   2.330310   47.237480
 0.040000   2.559615   44.453436
 0.045000   2.774844   41.773458
 0.050000   2.977350   39.529811
 0.055000   3.170142   38.034498
 0.060000   3.357695   37.058335
 0.065000   3.540725   36.327067
 0.070000   3.720965   35.814995
 0.075000   3.898875   35.103835
 0.080000   4.072004   34.093377
 0.085000   4.239809   32.865530
 0.090000   4.400659   31.201668
 0.095000   4.551826   29.232610
 0.100000   4.692985   26.904058
 0.105000   4.820866   24.348859
 0.110000   4.936474   21.770860
 0.115000   5.038575   18.998502
 0.120000   5.126459   16.417478
 0.125000   5.202750   14.269441
 0.130000   5.269153   12.510801
 0.135000   5.327858   10.945486
 0.140000   5.378608   9.544660
 0.145000   5.423304   8.337215
 0.150000   5.461980   7.163297
 0.155000   5.494937   5.747285
 0.160000   5.519453   4.122439
 0.165000   5.536162   2.432742
 0.170000   5.543780   0.508100
 0.175000   5.541243   -1.441517
 0.180000   5.529365   -3.446247
 0.185000   5.506780   -5.458307
 0.190000   5.474782   -7.423578
 0.195000   5.432545   -9.407950
 0.200000   5.380703   -11.151183
 0.205000   5.321033   -12.827704
 0.210000   5.252426   -14.340486
 0.215000   5.177628   -15.620575
 0.220000   5.096220   -16.827393
 0.225000   5.009354   -18.007985
 0.230000   4.916140   -19.331972
 0.235000   4.816034   -20.623365
 0.240000   4.709906   -22.003961
 0.245000   4.595995   -23.529445
 0.250000   4.474612   -24.997793
 0.255000   4.346017   -26.548054
 0.260000   4.209131   -28.103773
 0.265000   4.064979   -29.496451
 0.270000   3.914167   -30.840945
 0.275000   3.756569   -32.003110
 0.280000   3.594136   -32.996390
 0.285000   3.426606   -33.945741
 0.290000   3.254678   -34.695788
 0.295000   3.079648   -35.349951
 0.300000   2.901179   -35.999317
 0.305000   2.719655   -36.593666
 0.310000   2.535242   -37.207984
 0.315000   2.347575   -37.834947
 0.320000   2.156893   -38.439814
 0.325000   1.963177   -39.130342
 0.330000   1.765589   -39.899967
 0.335000   1.564177   -40.594223
 0.340000   1.359647   -41.176660
 0.345000   1.152410   -41.632018
 0.350000   0.943327   -41.781638
 0.355000   0.734594   -41.664387
 0.360000   0.526683   -41.361524
 0.365000   0.320979   -40.899527
 0.370000   0.117688   -40.290896
 0.375000   -0.081930   -39.575722
 0.380000   -0.278069   -38.760726
 0.385000   -0.469538   -37.957945
 0.390000   -0.657649   -37.312818
 0.395000   -0.842666   -36.743025
 0.400000   -1.025079   -36.303580
 0.405000   -1.205702   -35.920846
 0.410000   -1.384288   -35.570373
 0.415000   -1.561405   -35.255241
 0.420000   -1.736840   -35.000413
 0.425000   -1.911409   -35.008516
 0.430000   -2.086925   -35.486564
 0.435000   -2.266275   -36.609444
 0.440000   -2.453020   -38.562886
 0.445000   -2.651904   -40.913436
 0.450000   -2.862154   -43.139067
 0.455000   -3.083295   -45.128860
 0.460000   -3.313443   -46.810577
 0.465000   -3.551400   -48.061017
 0.470000   -3.794053   -48.520643
 0.475000   -4.036607   -47.833622
 0.480000   -4.272389   -46.024673
 0.485000   -4.496854   -43.339422
 0.490000   -4.705783   -39.870640
 0.495000   -4.895560   -35.824865
 0.500000   -5.064032   -31.267222
 0.505000   -5.208232   -26.645562
 0.510000   -5.330487   -22.440211
 0.515000   -5.432634   -18.553336
 0.520000   -5.516021   -15.094567
 0.525000   -5.583580   -12.108418
 0.530000   -5.637105   -9.654209
 0.535000   -5.680122   -7.831494
 0.540000   -5.715420   -6.440188
 0.545000   -5.744524   -5.381434
 0.550000   -5.769234   -4.519056
 0.555000   -5.789714   -3.728091
 0.560000   -5.806515   -2.953487
 0.565000   -5.819249   -2.005042
 0.570000   -5.826566   -0.788968
 0.575000   -5.827139   0.758584
 0.580000   -5.818980   2.509380
 0.585000   -5.802045   4.475092
 0.590000   -5.774229   6.692048
 0.595000   -5.735125   8.839633
 0.600000   -5.685832   10.762132
 0.605000   -5.627503   12.417862
 0.610000   -5.561654   13.663394
 0.615000   -5.490869   14.270005
 0.620000   -5.418954   14.335513
 0.625000   -5.347514   14.055666
 0.630000   -5.278397   13.446413
 0.635000   -5.213050   12.572996
 0.640000   -5.152667   11.575974
 0.645000   -5.097290   10.569838
 0.650000   -5.046969   9.669704
 0.655000   -5.000593   8.909946
 0.660000   -4.957869   8.306960
 0.665000   -4.917524   7.796949
 0.670000   -4.879900   7.256402
 0.675000   -4.844960   6.750403
 0.680000   -4.812396   6.186923
 0.685000   -4.783091   5.581506
 0.690000   -4.756581   4.969761
 0.695000   -4.733393   4.339522
 0.700000   -4.713186   3.669525
 0.705000   -4.696698   2.866645
 0.710000   -4.684519   1.858260
 0.715000   -4.678115   0.483108
 0.720000   -4.679688   -1.360582
 0.725000   -4.691721   -3.762212
 0.730000   -4.717310   -6.793798
 0.735000   -4.759659   -10.419751
 0.740000   -4.821508   -14.437364
 0.745000   -4.904033   -18.603724
 0.750000   -5.007545   -22.657156
 0.755000   -5.130604   -26.308707
 0.760000   -5.270632   -29.120441
 0.765000   -5.421809   -30.779062
 0.770000   -5.578423   -31.365181
 0.775000   -5.735460   -31.024213
 0.780000   -5.888665   -29.965324
 0.785000   -6.035114   -28.497795
 0.790000   -6.173643   -27.034675
 0.795000   -6.305460   -26.420878
 0.800000   -6.437851   -26.903837
 0.805000   -6.574499   -28.079205
 0.810000   -6.718643   -29.747231
 0.815000   -6.871971   -31.659207
 0.820000   -7.035236   -33.476671
 0.825000   -7.206738   -34.130262
 0.830000   -7.376538   -33.083836
 0.835000   -7.537576   -30.583498
 0.840000   -7.682373   -26.619416
 0.845000   -7.803770   -21.383903
 0.850000   -7.896212   -15.306133
 0.855000   -7.956832   -8.618868
 0.860000   -7.982401   -1.433990
 0.865000   -7.971171   5.987891
 0.870000   -7.922522   13.375065
 0.875000   -7.837421   20.667179
 0.880000   -7.715850   27.796960
 0.885000   -7.559451   34.557216
 0.890000   -7.370278   40.859469
 0.895000   -7.150857   46.635275
 0.900000   -6.903925   51.802630
 0.905000   -6.632830   56.359306
 0.910000   -6.340332   60.034406
 0.915000   -6.032486   62.429029
 0.920000   -5.716042   63.682524
 0.925000   -5.395661   64.625323
 0.930000   -5.069789   65.103910
 0.935000   -4.744622   65.815237
 0.940000   -4.411636   68.242380
 0.945000   -4.062198   70.353337
 0.950000   -3.708103   66.640791
 0.955000   -3.395790   50.363784
 0.960000   -3.204465   14.239092
 0.965000   -3.253399   -47.435438
 0.970000   -3.678819   -118.604546
 0.975000   -4.439445   -136.942851
 0.980000   -5.048248   -2.556771
 0.985000   -4.465012   358.509162
 0.990000   -1.463156   872.796465
 0.995000   4.262952   1243.384913
 1.000000   10.970693   1439.711284
201 psinorm omgvb(kRad/s) domgvb/dpsiN
 0.000000   55.378672   155.570487
 0.005000   56.005368   95.107948
 0.010000   56.329752   61.525208
 0.015000   56.620620   56.724507
 0.020000   56.896997   54.138754
 0.025000   57.162008   51.235691
 0.030000   57.409354   47.341420
 0.035000   57.635422   43.274252
 0.040000   57.842096   39.287519
 0.045000   58.028297   35.255939
 0.050000   58.194655   31.529043
 0.055000   58.343588   28.449265
 0.060000   58.479148   25.823369
 0.065000   58.601821   23.414244
 0.070000   58.713291   21.271849
 0.075000   58.814540   18.975399
 0.080000   58.903045   16.381759
 0.085000   58.978357   13.608651
 0.090000   59.039131   10.462957
 0.095000   59.082987   7.084098
 0.100000   59.109972   3.451514
 0.105000   59.117502   -0.376562
 0.110000   59.106206   -4.297988
 0.115000   59.074522   -8.455274
 0.120000   59.021654   -12.434789
 0.125000   58.950174   -15.989050
 0.130000   58.861763   -19.155431
 0.135000   58.758620   -22.167644
 0.140000   58.640087   -25.085879
 0.145000   58.507761   -27.848594
 0.150000   58.361601   -30.582106
 0.155000   58.201940   -33.540932
 0.160000   58.026192   -36.670602
 0.165000   57.835234   -39.816360
 0.170000   57.628028   -43.155236
 0.175000   57.403682   -46.475928
 0.180000   57.163269   -49.793856
 0.185000   56.905743   -53.045668
 0.190000   56.632812   -56.143763
 0.195000   56.344306   -59.116042
 0.200000   56.041652   -61.723004
 0.205000   55.727076   -64.159043
 0.210000   55.400061   -66.317492
 0.215000   55.063901   -68.140899
 0.220000   54.718652   -69.794516
 0.225000   54.365956   -71.335939
 0.230000   54.005293   -72.978124
 0.235000   53.636174   -74.524470
 0.240000   53.260048   -76.031915
 0.245000   52.875855   -77.536101
 0.250000   52.484687   -78.815234
 0.255000   52.087703   -79.965294
 0.260000   51.685034   -80.993492
 0.265000   51.277768   -81.804715
 0.270000   50.866987   -82.482253
 0.275000   50.452945   -82.909855
 0.280000   50.037888   -83.111494
 0.285000   49.621830   -83.169812
 0.290000   49.206190   -82.989823
 0.295000   48.791932   -82.727975
 0.300000   48.378911   -82.431358
 0.305000   47.967619   -82.065080
 0.310000   47.558260   -81.718558
 0.315000   47.150433   -81.378304
 0.320000   46.744477   -81.045640
 0.325000   46.339977   -80.824817
 0.330000   45.936229   -80.648803
 0.335000   45.533489   -80.352956
 0.340000   45.132699   -79.900414
 0.345000   44.734484   -79.260854
 0.350000   44.340090   -78.288217
 0.355000   43.951602   -77.060078
 0.360000   43.569490   -75.647080
 0.365000   43.195131   -74.079173
 0.370000   42.828698   -72.374880
 0.375000   42.471383   -70.573675
 0.380000   42.122961   -68.699222
 0.385000   41.784390   -66.874027
 0.390000   41.454221   -65.227359
 0.395000   41.132117   -63.666948
 0.400000   40.817551   -62.240703
 0.405000   40.509710   -60.868942
 0.410000   40.208862   -59.525684
 0.415000   39.914453   -58.217565
 0.420000   39.626686   -56.973254
 0.425000   39.344720   -55.999569
 0.430000   39.066691   -55.510898
 0.435000   38.789611   -55.699710
 0.440000   38.509694   -56.780385
 0.445000   38.221808   -58.322533
 0.450000   37.926468   -59.787307
 0.455000   37.623935   -61.054327
 0.460000   37.315925   -62.041404
 0.465000   37.003520   -62.629809
 0.470000   36.689627   -62.452146
 0.475000   36.378999   -61.111239
 0.480000   36.078514   -58.622862
 0.485000   35.792770   -55.248129
 0.490000   35.526033   -51.081681
 0.495000   35.281954   -46.339439
 0.500000   35.062639   -41.091193
 0.505000   34.871042   -35.776138
 0.510000   34.704877   -30.887026
 0.515000   34.562171   -26.349859
 0.520000   34.441379   -22.285856
 0.525000   34.339313   -18.749167
 0.530000   34.253887   -15.810410
 0.535000   34.181209   -13.597095
 0.540000   34.117916   -11.934740
 0.545000   34.061861   -10.732209
 0.550000   34.010594   -9.860352
 0.555000   33.963258   -9.209261
 0.560000   33.918501   -8.766152
 0.565000   33.875596   -8.348981
 0.570000   33.835012   -7.878171
 0.575000   33.796815   -7.353665
 0.580000   33.761475   -6.960005
 0.585000   33.727215   -6.751509
 0.590000   33.693960   -6.819427
 0.595000   33.659020   -7.485254
 0.600000   33.619107   -8.885473
 0.605000   33.570166   -11.139067
 0.610000   33.507717   -14.381725
 0.615000   33.426348   -18.789945
 0.620000   33.319817   -24.162347
 0.625000   33.184725   -30.107248
 0.630000   33.018745   -36.489536
 0.635000   32.819829   -43.196270
 0.640000   32.586782   -49.962797
 0.645000   32.320202   -56.544705
 0.650000   32.021335   -62.556182
 0.655000   31.694640   -67.915925
 0.660000   31.342176   -72.710794
 0.665000   30.967532   -76.924494
 0.670000   30.572931   -80.679088
 0.675000   30.160741   -83.983632
 0.680000   29.733095   -86.975023
 0.685000   29.290991   -89.996836
 0.690000   28.833126   -93.315247
 0.695000   28.357838   -96.861914
 0.700000   27.864507   -100.658883
 0.705000   27.351249   -104.815989
 0.710000   26.816347   -109.540528
 0.715000   26.255844   -114.718692
 0.720000   25.669160   -119.777732
 0.725000   25.058067   -124.552675
 0.730000   24.423633   -129.064820
 0.735000   23.767419   -133.179344
 0.740000   23.091840   -136.645030
 0.745000   22.400968   -139.097912
 0.750000   21.700861   -140.245351
 0.755000   20.998515   -139.990442
 0.760000   20.300957   -138.120281
 0.765000   19.617312   -134.565247
 0.770000   18.955304   -129.681552
 0.775000   18.320496   -123.921731
 0.780000   17.716087   -117.596690
 0.785000   17.144530   -110.929878
 0.790000   16.606788   -104.307339
 0.795000   16.101456   -98.575773
 0.800000   15.621030   -94.041965
 0.805000   15.161036   -90.321897
 0.810000   14.717811   -87.093810
 0.815000   14.290098   -84.263328
 0.820000   13.875178   -81.862072
 0.825000   13.471478   -79.075650
 0.830000   13.084421   -75.614381
 0.835000   12.715334   -71.943280
 0.840000   12.364989   -68.177111
 0.845000   12.033563   -64.633633
 0.850000   11.718652   -61.885168
 0.855000   11.414711   -60.247627
 0.860000   11.116176   -59.935818
 0.865000   10.815353   -61.485293
 0.870000   10.501323   -65.220695
 0.875000   10.163146   -71.091922
 0.880000   9.790404   -79.157865
 0.885000   9.371567   -89.437745
 0.890000   8.896026   -101.659403
 0.895000   8.354973   -115.789751
 0.900000   7.738129   -130.292058
 0.905000   7.052053   -143.287381
 0.910000   6.305255   -154.222584
 0.915000   5.509827   -162.120225
 0.920000   4.684053   -165.535666
 0.925000   3.854470   -162.796400
 0.930000   3.056089   -152.960016
 0.935000   2.324870   -135.022357
 0.940000   1.705865   -108.596068
 0.945000   1.238909   -77.112791
 0.950000   0.934737   -48.103863
 0.955000   0.757871   -30.681917
 0.960000   0.627918   -34.914124
 0.965000   0.408729   -68.997270
 0.970000   -0.062054   -118.340554
 0.975000   -0.774676   -121.342581
 0.980000   -1.275480   21.849616
 0.985000   -0.556180   385.645892
 0.990000   2.580979   897.608940
 0.995000   8.419909   1262.090624
 1.000000   15.201885   1450.699558
201 psinorm omgpp(kRad/s) domgpp/dpsiN
 0.000000   -0.088456   -44.034422
 0.005000   -0.357350   -63.523024
 0.010000   -0.723686   -74.123336
 0.015000   -1.098583   -75.728958
 0.020000   -1.480976   -77.100230
 0.025000   -1.869586   -78.206331
 0.030000   -2.263039   -79.045630
 0.035000   -2.660042   -79.591778
 0.040000   -3.058957   -79.807486
 0.045000   -3.458117   -79.677485
 0.050000   -3.855732   -79.161603
 0.055000   -4.249733   -78.240824
 0.060000   -4.638140   -77.038678
 0.065000   -5.020119   -75.485196
 0.070000   -5.392992   -73.460278
 0.075000   -5.754722   -71.041641
 0.080000   -6.103409   -68.197582
 0.085000   -6.436698   -64.871013
 0.090000   -6.752119   -61.586474
 0.095000   -7.052563   -58.207749
 0.100000   -7.334196   -54.363813
 0.105000   -7.596201   -50.415757
 0.110000   -7.838354   -46.442303
 0.115000   -8.060624   -42.425227
 0.120000   -8.262606   -39.080822
 0.125000   -8.451432   -36.048563
 0.130000   -8.623092   -32.628772
 0.135000   -8.777720   -29.229746
 0.140000   -8.915389   -25.826679
 0.145000   -9.035987   -22.341721
 0.150000   -9.138806   -18.757995
 0.155000   -9.223567   -15.086077
 0.160000   -9.289667   -11.324055
 0.165000   -9.336807   -7.492166
 0.170000   -9.364589   -3.570708
 0.175000   -9.372514   0.642681
 0.180000   -9.358162   5.005310
 0.185000   -9.322461   9.352460
 0.190000   -9.264637   13.753646
 0.195000   -9.184925   18.055153
 0.200000   -9.084086   22.164273
 0.205000   -8.963282   26.659867
 0.210000   -8.817487   29.893282
 0.215000   -8.664349   31.184893
 0.220000   -8.505638   32.143441
 0.225000   -8.342915   32.774094
 0.230000   -8.177897   33.157724
 0.235000   -8.011338   33.317194
 0.240000   -7.844725   33.525474
 0.245000   -7.676083   34.115123
 0.250000   -7.503574   34.839779
 0.255000   -7.327685   35.521706
 0.260000   -7.148357   36.226583
 0.265000   -6.965419   36.630382
 0.270000   -6.782053   37.323330
 0.275000   -6.592186   38.764572
 0.280000   -6.394408   40.185095
 0.285000   -6.190335   41.466376
 0.290000   -5.979744   42.760619
 0.295000   -5.762729   44.025442
 0.300000   -5.539489   45.357155
 0.305000   -5.309157   46.458798
 0.310000   -5.074901   47.078025
 0.315000   -4.838377   47.423416
 0.320000   -4.600667   47.559561
 0.325000   -4.362781   47.810025
 0.330000   -4.122567   48.122592
 0.335000   -3.881555   47.403390
 0.340000   -3.648533   45.819412
 0.345000   -3.423361   43.999116
 0.350000   -3.208542   41.752455
 0.355000   -3.005837   39.280526
 0.360000   -2.815737   36.513577
 0.365000   -2.640701   33.567564
 0.370000   -2.480061   30.958255
 0.375000   -2.331118   28.674269
 0.380000   -2.193318   26.502762
 0.385000   -2.066091   24.325929
 0.390000   -1.950059   22.082713
 0.395000   -1.845264   20.934973
 0.400000   -1.740709   20.501840
 0.405000   -1.640245   19.673622
 0.410000   -1.543973   18.810989
 0.415000   -1.452135   17.887319
 0.420000   -1.365100   17.003051
 0.425000   -1.282105   16.170280
 0.430000   -1.203397   15.039225
 0.435000   -1.131713   13.539437
 0.440000   -1.068003   11.882334
 0.445000   -1.012889   10.131489
 0.450000   -0.966688   8.487126
 0.455000   -0.928018   6.729771
 0.460000   -0.899390   4.929374
 0.465000   -0.878724   3.381239
 0.470000   -0.865578   1.912412
 0.475000   -0.859600   0.505087
 0.480000   -0.860527   -0.689614
 0.485000   -0.866496   -2.031535
 0.490000   -0.880842   -3.559447
 0.495000   -0.902091   -4.912119
 0.500000   -0.929963   -6.225624
 0.505000   -0.964347   -7.516078
 0.510000   -1.005124   -8.760516
 0.515000   -1.051952   -10.002756
 0.520000   -1.105152   -10.988659
 0.525000   -1.161839   -11.525459
 0.530000   -1.220406   -11.821774
 0.535000   -1.280056   -12.016438
 0.540000   -1.340571   -12.109476
 0.545000   -1.401151   -12.323537
 0.550000   -1.463806   -12.675081
 0.555000   -1.527902   -12.881593
 0.560000   -1.592622   -12.981782
 0.565000   -1.657720   -13.040028
 0.570000   -1.723022   -13.052849
 0.575000   -1.788248   -13.125465
 0.580000   -1.854277   -13.235851
 0.585000   -1.920607   -13.252979
 0.590000   -1.986807   -13.207179
 0.595000   -2.052679   -13.112599
 0.600000   -2.117933   -13.051217
 0.605000   -2.183191   -12.873846
 0.610000   -2.246671   -12.165223
 0.615000   -2.304843   -11.065527
 0.620000   -2.357326   -9.910961
 0.625000   -2.403953   -8.772179
 0.630000   -2.445048   -7.732636
 0.635000   -2.481279   -6.816305
 0.640000   -2.513211   -6.064589
 0.645000   -2.541925   -5.469491
 0.650000   -2.567906   -4.970429
 0.655000   -2.591629   -4.555305
 0.660000   -2.613459   -4.250390
 0.665000   -2.634133   -4.125516
 0.670000   -2.654714   -3.954017
 0.675000   -2.673673   -3.756075
 0.680000   -2.692275   -3.721959
 0.685000   -2.710893   -3.811054
 0.690000   -2.730386   -4.344320
 0.695000   -2.754336   -6.332499
 0.700000   -2.793711   -8.128456
 0.705000   -2.835621   -8.947478
 0.710000   -2.883185   -9.879700
 0.715000   -2.934418   -10.380760
 0.720000   -2.986993   -10.512112
 0.725000   -3.039539   -11.165362
 0.730000   -3.098647   -9.470830
 0.735000   -3.134247   -6.021834
 0.740000   -3.158865   -3.622509
 0.745000   -3.170472   -0.837755
 0.750000   -3.167243   2.267898
 0.755000   -3.147793   5.867140
 0.760000   -3.108571   9.856144
 0.765000   -3.049232   13.163854
 0.770000   -2.976933   15.486075
 0.775000   -2.894371   17.232733
 0.780000   -2.804605   18.333209
 0.785000   -2.711039   19.650769
 0.790000   -2.608098   19.458247
 0.795000   -2.516456   17.595968
 0.800000   -2.432138   16.099752
 0.805000   -2.355459   14.443109
 0.810000   -2.287707   12.546469
 0.815000   -2.229994   10.608567
 0.820000   -2.181621   7.811056
 0.825000   -2.151884   4.605420
 0.830000   -2.135567   2.260895
 0.835000   -2.129275   0.481866
 0.840000   -2.130748   -0.874707
 0.845000   -2.138022   -2.036607
 0.850000   -2.151114   -3.468490
 0.855000   -2.172707   -5.555038
 0.860000   -2.206665   -8.301409
 0.865000   -2.255721   -11.553021
 0.870000   -2.322195   -15.254388
 0.875000   -2.408265   -20.478718
 0.880000   -2.526982   -26.529694
 0.885000   -2.673562   -31.087973
 0.890000   -2.837862   -35.152423
 0.895000   -3.025086   -39.819492
 0.900000   -3.236057   -44.814492
 0.905000   -3.473231   -52.909720
 0.910000   -3.765154   -63.577488
 0.915000   -4.109006   -70.645686
 0.920000   -4.471611   -76.982788
 0.925000   -4.878834   -86.334646
 0.930000   -5.334957   -96.585028
 0.935000   -5.844684   -111.248525
 0.940000   -6.447443   -130.877818
 0.945000   -7.153462   -143.327503
 0.950000   -7.880718   -153.359981
 0.955000   -8.687062   -169.219441
 0.960000   -9.572912   -183.944524
 0.965000   -10.526507   -198.488973
 0.970000   -11.557802   -210.076219
 0.975000   -12.627269   -190.721213
 0.980000   -13.465014   -144.982914
 0.985000   -14.077098   -92.420001
 0.990000   -14.389214   -26.261258
 0.995000   -14.339711   46.931222
 1.000000   -13.919902   120.992488
201 psinorm omgeb(kRad/s) domgeb/dpsiN
 0.000000   55.290216   111.536065
 0.005000   55.648018   31.584924
 0.010000   55.606065   -12.598128
 0.015000   55.522037   -19.004452
 0.020000   55.416021   -22.961476
 0.025000   55.292422   -26.970640
 0.030000   55.146314   -31.704209
 0.035000   54.975380   -36.317526
 0.040000   54.783139   -40.519967
 0.045000   54.570181   -44.421546
 0.050000   54.338923   -47.632561
 0.055000   54.093855   -49.791559
 0.060000   53.841008   -51.215309
 0.065000   53.581702   -52.070952
 0.070000   53.320298   -52.188429
 0.075000   53.059818   -52.066241
 0.080000   52.799636   -51.815823
 0.085000   52.541659   -51.262362
 0.090000   52.287012   -51.123518
 0.095000   52.030424   -51.123652
 0.100000   51.775776   -50.912299
 0.105000   51.521301   -50.792319
 0.110000   51.267853   -50.740290
 0.115000   51.013898   -50.880501
 0.120000   50.759048   -51.515611
 0.125000   50.498742   -52.037612
 0.130000   50.238672   -51.784203
 0.135000   49.980900   -51.397390
 0.140000   49.724698   -50.912558
 0.145000   49.471775   -50.190314
 0.150000   49.222794   -49.340101
 0.155000   48.978374   -48.627010
 0.160000   48.736524   -47.994657
 0.165000   48.498427   -47.308526
 0.170000   48.263439   -46.725944
 0.175000   48.031168   -45.833247
 0.180000   47.805107   -44.788546
 0.185000   47.583282   -43.693207
 0.190000   47.368175   -42.390117
 0.195000   47.159381   -41.060889
 0.200000   46.957566   -39.558731
 0.205000   46.763794   -37.499176
 0.210000   46.582574   -36.424210
 0.215000   46.399551   -36.956005
 0.220000   46.213014   -37.651075
 0.225000   46.023041   -38.561844
 0.230000   45.827395   -39.820400
 0.235000   45.624837   -41.207276
 0.240000   45.415323   -42.506441
 0.245000   45.199772   -43.420978
 0.250000   44.981113   -43.975455
 0.255000   44.760018   -44.443588
 0.260000   44.536677   -44.766909
 0.265000   44.312349   -45.174333
 0.270000   44.084934   -45.158923
 0.275000   43.860759   -44.145284
 0.280000   43.643481   -42.926400
 0.285000   43.431495   -41.703437
 0.290000   43.226446   -40.229205
 0.295000   43.029203   -38.702533
 0.300000   42.839421   -37.074203
 0.305000   42.658461   -35.606282
 0.310000   42.483358   -34.640534
 0.315000   42.312056   -33.954889
 0.320000   42.143809   -33.486079
 0.325000   41.977195   -33.014792
 0.330000   41.813662   -32.526211
 0.335000   41.651933   -32.949566
 0.340000   41.484166   -34.081002
 0.345000   41.311123   -35.261738
 0.350000   41.131548   -36.535761
 0.355000   40.945766   -37.779552
 0.360000   40.753753   -39.133502
 0.365000   40.554430   -40.511609
 0.370000   40.348637   -41.416625
 0.375000   40.140264   -41.899407
 0.380000   39.929643   -42.196459
 0.385000   39.718300   -42.548098
 0.390000   39.504162   -43.144646
 0.395000   39.286853   -42.731975
 0.400000   39.076842   -41.738863
 0.405000   38.869465   -41.195321
 0.410000   38.664889   -40.714695
 0.415000   38.462318   -40.330246
 0.420000   38.261586   -39.970203
 0.425000   38.062616   -39.829288
 0.430000   37.863294   -40.471673
 0.435000   37.657899   -42.160273
 0.440000   37.441691   -44.898051
 0.445000   37.208918   -48.191045
 0.450000   36.959780   -51.300181
 0.455000   36.695917   -54.324555
 0.460000   36.416535   -57.112030
 0.465000   36.124796   -59.248570
 0.470000   35.824049   -60.539734
 0.475000   35.519399   -60.606153
 0.480000   35.217988   -59.312476
 0.485000   34.926274   -57.279663
 0.490000   34.645191   -54.641127
 0.495000   34.379863   -51.251557
 0.500000   34.132675   -47.316817
 0.505000   33.906695   -43.292216
 0.510000   33.699753   -39.647542
 0.515000   33.510219   -36.352615
 0.520000   33.336227   -33.274515
 0.525000   33.177474   -30.274626
 0.530000   33.033481   -27.632184
 0.535000   32.901152   -25.613533
 0.540000   32.777345   -24.044216
 0.545000   32.660710   -23.055746
 0.550000   32.546788   -22.535432
 0.555000   32.435356   -22.090854
 0.560000   32.325879   -21.747935
 0.565000   32.217876   -21.389008
 0.570000   32.111989   -20.931020
 0.575000   32.008566   -20.479130
 0.580000   31.907198   -20.195856
 0.585000   31.806608   -20.004488
 0.590000   31.707153   -20.026606
 0.595000   31.606342   -20.597853
 0.600000   31.501175   -21.936690
 0.605000   31.386975   -24.012913
 0.610000   31.261046   -26.546948
 0.615000   31.121505   -29.855472
 0.620000   30.962491   -34.073308
 0.625000   30.780772   -38.879427
 0.630000   30.573697   -44.222171
 0.635000   30.338550   -50.012575
 0.640000   30.073571   -56.027386
 0.645000   29.778277   -62.014195
 0.650000   29.453429   -67.526611
 0.655000   29.103010   -72.471230
 0.660000   28.728717   -76.961184
 0.665000   28.333399   -81.050010
 0.670000   27.918216   -84.633105
 0.675000   27.487068   -87.739707
 0.680000   27.040819   -90.696983
 0.685000   26.580098   -93.807890
 0.690000   26.102740   -97.659567
 0.695000   25.603502   -103.194412
 0.700000   25.070796   -108.787339
 0.705000   24.515629   -113.763467
 0.710000   23.933162   -119.420228
 0.715000   23.321426   -125.099453
 0.720000   22.682167   -130.289845
 0.725000   22.018528   -135.718037
 0.730000   21.324987   -138.535650
 0.735000   20.633171   -139.201178
 0.740000   19.932975   -140.267539
 0.745000   19.230496   -139.935667
 0.750000   18.533618   -137.977452
 0.755000   17.850722   -134.123302
 0.760000   17.192385   -128.264137
 0.765000   16.568080   -121.401393
 0.770000   15.978371   -114.195477
 0.775000   15.426125   -106.688998
 0.780000   14.911481   -99.263481
 0.785000   14.433491   -91.279109
 0.790000   13.998690   -84.849092
 0.795000   13.585000   -80.979805
 0.800000   13.188892   -77.942214
 0.805000   12.805578   -75.878788
 0.810000   12.430104   -74.547341
 0.815000   12.060104   -73.654762
 0.820000   11.693557   -74.051017
 0.825000   11.319594   -74.470231
 0.830000   10.948854   -73.353487
 0.835000   10.586059   -71.461414
 0.840000   10.234240   -69.051818
 0.845000   9.895541   -66.670240
 0.850000   9.567538   -65.353659
 0.855000   9.242004   -65.802665
 0.860000   8.909511   -68.237226
 0.865000   8.559632   -73.038314
 0.870000   8.179128   -80.475083
 0.875000   7.754881   -91.570640
 0.880000   7.263422   -105.687559
 0.885000   6.698006   -120.525718
 0.890000   6.058165   -136.811827
 0.895000   5.329887   -155.609243
 0.900000   4.502072   -175.106550
 0.905000   3.578822   -196.197101
 0.910000   2.540101   -217.800072
 0.915000   1.400821   -232.765911
 0.920000   0.212442   -242.518454
 0.925000   -1.024363   -249.131046
 0.930000   -2.278868   -249.545044
 0.935000   -3.519814   -246.270881
 0.940000   -4.741577   -239.473886
 0.945000   -5.914553   -220.440294
 0.950000   -6.945980   -201.463845
 0.955000   -7.929191   -199.901358
 0.960000   -8.944994   -218.858648
 0.965000   -10.117778   -267.486243
 0.970000   -11.619856   -328.416773
 0.975000   -13.401945   -312.063794
 0.980000   -14.740494   -123.133298
 0.985000   -14.633278   293.225891
 0.990000   -11.808235   871.347682
 0.995000   -5.919801   1309.021846
 1.000000   1.281983   1571.692046
201 psinorm er(kV/m) der/dpsiN
 0.000000   0.493064   1210.164266
 0.005000   5.275558   702.833509
 0.010000   7.521399   394.689722
 0.015000   9.222455   315.554776
 0.020000   10.676947   271.044842
 0.025000   11.932904   238.493335
 0.030000   13.061880   215.458097
 0.035000   14.087485   196.632284
 0.040000   15.028203   181.113571
 0.045000   15.898621   168.214340
 0.050000   16.710346   156.059789
 0.055000   17.459218   144.685993
 0.060000   18.157206   134.357085
 0.065000   18.802789   128.598952
 0.070000   19.443196   123.576604
 0.075000   20.038555   111.886497
 0.080000   20.562061   108.418048
 0.085000   21.122736   105.832717
 0.090000   21.620388   96.631649
 0.095000   22.089052   96.374813
 0.100000   22.584136   87.253140
 0.105000   22.961584   84.844302
 0.110000   23.432579   82.310250
 0.115000   23.784686   77.077649
 0.120000   24.203355   74.278192
 0.125000   24.527468   69.832283
 0.130000   24.901678   66.888178
 0.135000   25.196350   64.194313
 0.140000   25.543621   60.675138
 0.145000   25.803101   59.501101
 0.150000   26.138632   55.405738
 0.155000   26.357159   55.549209
 0.160000   26.694125   50.592013
 0.165000   26.863079   48.488521
 0.170000   27.179010   49.889434
 0.175000   27.361973   43.985951
 0.180000   27.618869   47.680262
 0.185000   27.838776   40.793338
 0.190000   28.026803   44.876555
 0.195000   28.287541   38.415048
 0.200000   28.410953   37.984590
 0.205000   28.667387   42.442890
 0.210000   28.835382   35.330178
 0.215000   29.020689   40.226481
 0.220000   29.237647   31.561954
 0.225000   29.336309   30.208221
 0.230000   29.539729   33.165961
 0.235000   29.667968   24.239804
 0.240000   29.782127   27.803930
 0.245000   29.946007   21.409574
 0.250000   29.996223   17.709404
 0.255000   30.123101   23.950087
 0.260000   30.235724   14.895207
 0.265000   30.272054   14.579535
 0.270000   30.381519   17.684364
 0.275000   30.448897   11.248507
 0.280000   30.494004   14.188034
 0.285000   30.590778   14.248441
 0.290000   30.636488   10.349042
 0.295000   30.694268   14.843386
 0.300000   30.784922   12.852084
 0.305000   30.822789   10.466556
 0.310000   30.889588   15.054839
 0.315000   30.973337   11.429612
 0.320000   31.003884   9.192830
 0.325000   31.065265   13.202719
 0.330000   31.135911   9.524602
 0.335000   31.160511   7.041738
 0.340000   31.206329   9.169493
 0.345000   31.252206   4.942462
 0.350000   31.255753   1.945275
 0.355000   31.271659   3.076246
 0.360000   31.286516   -0.339305
 0.365000   31.268266   -3.431577
 0.370000   31.252200   -2.940925
 0.375000   31.238857   -4.705487
 0.380000   31.205145   -7.010656
 0.385000   31.168750   -6.875576
 0.390000   31.136389   -7.819583
 0.395000   31.090554   -9.604912
 0.400000   31.040340   -9.064111
 0.405000   30.999913   -8.459336
 0.410000   30.955747   -10.027634
 0.415000   30.899637   -10.356801
 0.420000   30.852179   -9.564084
 0.425000   30.803996   -11.197024
 0.430000   30.740209   -12.646494
 0.435000   30.677531   -13.549272
 0.440000   30.604716   -16.944722
 0.445000   30.508084   -20.786540
 0.450000   30.396850   -23.409094
 0.455000   30.273993   -26.334534
 0.460000   30.133505   -29.939821
 0.465000   29.974595   -32.298341
 0.470000   29.810522   -33.364886
 0.475000   29.640946   -34.640896
 0.480000   29.464113   -34.340261
 0.485000   29.297543   -32.529537
 0.490000   29.138817   -31.175790
 0.495000   28.985786   -29.244285
 0.500000   28.846375   -26.019752
 0.505000   28.725588   -22.857223
 0.510000   28.617802   -20.792899
 0.515000   28.517659   -18.396464
 0.520000   28.433838   -15.495814
 0.525000   28.362701   -13.942733
 0.530000   28.294410   -12.289146
 0.535000   28.239809   -10.172336
 0.540000   28.192687   -9.238045
 0.545000   28.147429   -9.298255
 0.550000   28.099704   -8.940923
 0.555000   28.058020   -8.209803
 0.560000   28.017606   -9.012754
 0.565000   27.967892   -9.131478
 0.570000   27.926292   -8.111012
 0.575000   27.886782   -8.257575
 0.580000   27.843716   -8.853336
 0.585000   27.798249   -8.575294
 0.590000   27.757963   -8.214128
 0.595000   27.716107   -9.868915
 0.600000   27.659274   -11.391315
 0.605000   27.602194   -12.456466
 0.610000   27.534709   -15.223485
 0.615000   27.449959   -19.002783
 0.620000   27.344681   -22.579264
 0.625000   27.224167   -26.377958
 0.630000   27.080902   -32.280506
 0.635000   26.901362   -37.814911
 0.640000   26.702753   -42.420311
 0.645000   26.477159   -48.198214
 0.650000   26.220770   -54.044750
 0.655000   25.936711   -58.415561
 0.660000   25.636615   -61.970382
 0.665000   25.317007   -66.629697
 0.670000   24.970318   -70.362919
 0.675000   24.613378   -72.631088
 0.680000   24.244007   -75.463221
 0.685000   23.858746   -79.304862
 0.690000   23.450958   -82.888126
 0.695000   23.029865   -87.318981
 0.700000   22.577769   -93.129614
 0.705000   22.098568   -98.327467
 0.710000   21.594494   -103.171965
 0.715000   21.066849   -108.125237
 0.720000   20.513242   -114.064487
 0.725000   19.926204   -119.339044
 0.730000   19.319851   -121.197451
 0.735000   18.714229   -122.340097
 0.740000   18.096450   -124.304102
 0.745000   17.471188   -124.011449
 0.750000   16.856336   -121.814124
 0.755000   16.253047   -119.202082
 0.760000   15.664315   -114.472883
 0.765000   15.108318   -107.856462
 0.770000   14.585750   -101.215091
 0.775000   14.096167   -95.391202
 0.780000   13.631838   -88.838045
 0.785000   13.207787   -80.942529
 0.790000   12.822413   -75.454789
 0.795000   12.453239   -72.560849
 0.800000   12.096804   -69.753513
 0.805000   11.755704   -67.558607
 0.810000   11.421218   -66.830922
 0.815000   11.087395   -66.402490
 0.820000   10.757193   -66.592000
 0.825000   10.421475   -66.894261
 0.830000   10.088251   -66.452790
 0.835000   9.756947   -64.922101
 0.840000   9.439030   -62.395241
 0.845000   9.132994   -60.354875
 0.850000   8.835481   -59.585458
 0.855000   8.537140   -60.082685
 0.860000   8.234654   -62.128858
 0.865000   7.915851   -66.802133
 0.870000   7.566633   -74.007482
 0.875000   7.175776   -84.274089
 0.880000   6.723892   -97.242964
 0.885000   6.203347   -111.241833
 0.890000   5.611474   -126.446877
 0.895000   4.938878   -143.750447
 0.900000   4.173969   -161.917083
 0.905000   3.319707   -181.805070
 0.910000   2.355918   -201.707172
 0.915000   1.302636   -215.282552
 0.920000   0.203093   -225.131744
 0.925000   -0.948682   -232.400175
 0.930000   -2.120909   -232.422833
 0.935000   -3.272910   -228.812469
 0.940000   -4.409033   -226.824440
 0.945000   -5.541155   -211.722013
 0.950000   -6.526254   -190.315050
 0.955000   -7.444305   -187.179313
 0.960000   -8.398047   -218.816052
 0.965000   -9.632466   -268.581230
 0.970000   -11.083859   -315.140486
 0.975000   -12.783871   -298.119006
 0.980000   -14.065049   -124.169388
 0.985000   -14.025564   273.057709
 0.990000   -11.334472   830.741477
 0.995000   -5.718150   1250.940507
 1.000000   1.174933   1506.292577
201 psinorm ommvb() dommvb/dpsiN
 0.000000   -51.032041   21221.988746
 0.005000   39.462835   14975.961637
 0.010000   98.727575   11411.423195
 0.015000   153.577067   10101.216797
 0.020000   199.739743   8687.668334
 0.025000   240.453750   7559.250037
 0.030000   275.332243   6569.949642
 0.035000   306.153246   5697.774042
 0.040000   332.309984   4910.113445
 0.045000   355.254381   4316.721785
 0.050000   375.477202   3642.696733
 0.055000   391.681348   3179.683125
 0.060000   407.274033   2884.654825
 0.065000   420.527896   2485.619367
 0.070000   432.130227   2168.376008
 0.075000   442.211657   1877.960358
 0.080000   450.909830   1560.905818
 0.085000   457.820715   1260.227972
 0.090000   463.512110   920.960798
 0.095000   467.030323   668.037503
 0.100000   470.192485   522.784516
 0.105000   472.258168   305.610039
 0.110000   473.248585   108.200417
 0.115000   473.340172   -197.244581
 0.120000   471.276140   -388.715385
 0.125000   469.453018   -445.442596
 0.130000   466.821714   -600.762815
 0.135000   463.445390   -749.931930
 0.140000   459.322394   -895.004313
 0.145000   454.495347   -1021.756999
 0.150000   449.104824   -1131.072147
 0.155000   443.184625   -1234.050231
 0.160000   436.764322   -1327.194836
 0.165000   429.912677   -1405.173051
 0.170000   422.712591   -1470.560899
 0.175000   415.207068   -1509.881868
 0.180000   407.613773   -1530.981393
 0.185000   399.897254   -1576.484255
 0.190000   391.848930   -1620.065984
 0.195000   383.696594   -1635.451745
 0.200000   375.494413   -1637.487194
 0.205000   367.321722   -1674.768203
 0.210000   358.746731   -1787.840283
 0.215000   349.443320   -1724.980713
 0.220000   341.496924   -1593.233136
 0.225000   333.510988   -1574.977010
 0.230000   325.747154   -1521.848914
 0.235000   318.292499   -1461.390887
 0.240000   311.133245   -1404.553738
 0.245000   304.246962   -1411.310664
 0.250000   297.020138   -1495.310931
 0.255000   289.293852   -1362.126787
 0.260000   283.398870   -1147.622037
 0.265000   277.817632   -1086.482269
 0.270000   272.534047   -1021.775333
 0.275000   267.599879   -980.221985
 0.280000   262.731828   -1061.079828
 0.285000   256.989080   -964.025074
 0.290000   253.091577   -750.432562
 0.295000   249.484755   -696.058655
 0.300000   246.130990   -644.500498
 0.305000   243.039750   -728.790863
 0.310000   238.843082   -665.508310
 0.315000   236.384667   -460.266593
 0.320000   234.240416   -412.685873
 0.325000   232.257808   -398.024133
 0.330000   230.260174   -475.759330
 0.335000   227.500215   -399.053418
 0.340000   226.269640   -230.224476
 0.345000   225.197970   -200.992694
 0.350000   224.259713   -229.833040
 0.355000   222.899639   -229.815401
 0.360000   221.961559   -138.211354
 0.365000   221.517526   -81.431763
 0.370000   221.147242   -85.677489
 0.375000   220.660751   -117.023387
 0.380000   219.977008   -72.929062
 0.385000   219.931460   -1.180775
 0.390000   219.965200   11.213247
 0.395000   220.043593   -40.728774
 0.400000   219.557912   -31.477824
 0.405000   219.728815   36.176813
 0.410000   219.919680   39.744308
 0.415000   220.126258   -18.168218
 0.420000   219.737998   -12.648490
 0.425000   219.999773   52.318531
 0.430000   220.261184   51.084389
 0.435000   220.510617   -16.073428
 0.440000   220.100449   -20.486564
 0.445000   220.305751   38.862367
 0.450000   220.489073   30.071827
 0.455000   220.606469   -39.461206
 0.460000   220.094461   -43.926496
 0.465000   220.167204   11.749640
 0.470000   220.211957   -5.084772
 0.475000   220.116357   -72.949324
 0.480000   219.482464   -63.232123
 0.485000   219.484035   -0.519577
 0.490000   219.477268   -22.541317
 0.495000   219.258622   -78.369932
 0.500000   218.693569   -53.488289
 0.505000   218.723739   6.454499
 0.510000   218.758114   -22.231244
 0.515000   218.501427   -65.882515
 0.520000   218.099289   -35.583649
 0.525000   218.145590   10.021658
 0.530000   218.199505   -20.330562
 0.535000   217.942285   -45.720224
 0.540000   217.742303   1.327870
 0.545000   217.955564   43.145044
 0.550000   218.173754   6.151816
 0.555000   218.017082   -14.055525
 0.560000   218.033198   36.603519
 0.565000   218.383117   72.198674
 0.570000   218.755185   41.756905
 0.575000   218.800686   33.321628
 0.580000   219.088401   84.717041
 0.585000   219.647856   115.431287
 0.590000   220.242714   94.673721
 0.595000   220.594594   95.594206
 0.600000   221.198656   144.312254
 0.605000   222.037716   171.404809
 0.610000   222.912704   159.227929
 0.615000   223.629995   160.431789
 0.620000   224.517022   202.880159
 0.625000   225.658797   235.054586
 0.630000   226.867568   241.763462
 0.635000   228.076432   257.381099
 0.640000   229.441379   297.880941
 0.645000   231.055241   335.990798
 0.650000   232.801287   365.903827
 0.655000   234.714279   407.695789
 0.660000   236.878245   452.551384
 0.665000   239.239793   489.862588
 0.670000   241.776871   525.833323
 0.675000   244.498126   586.779945
 0.680000   247.644670   642.654934
 0.685000   250.924676   664.828639
 0.690000   254.292957   691.367630
 0.695000   257.838352   734.667252
 0.700000   261.639629   798.702041
 0.705000   265.825372   826.508174
 0.710000   269.904711   832.926018
 0.715000   274.154633   871.077964
 0.720000   278.615491   945.636915
 0.725000   283.611002   1029.704682
 0.730000   288.912537   1071.216302
 0.735000   294.323165   1115.102943
 0.740000   300.063567   1183.413702
 0.745000   306.157302   1286.519990
 0.750000   312.928767   1403.894564
 0.755000   320.196247   1459.097609
 0.760000   327.519743   1505.121803
 0.765000   335.247465   1588.900715
 0.770000   343.408750   1681.816200
 0.775000   352.065627   1818.952378
 0.780000   361.598274   1899.743386
 0.785000   371.063061   1941.402600
 0.790000   381.012300   2042.861614
 0.795000   391.491677   2152.508809
 0.800000   402.537388   2270.761418
 0.805000   414.199292   2411.153601
 0.810000   426.648924   2528.145574
 0.815000   439.480747   2633.315850
 0.820000   452.982082   2770.820847
 0.825000   467.188956   2916.194483
 0.830000   482.144027   3067.167593
 0.835000   497.860632   3201.476518
 0.840000   514.158792   3321.975772
 0.845000   531.080389   3473.784072
 0.850000   548.896633   3647.227534
 0.855000   567.552665   3823.956361
 0.860000   587.136197   4046.725466
 0.865000   608.019919   4361.482535
 0.870000   630.751022   4755.402514
 0.875000   655.573945   5180.861200
 0.880000   682.559634   5504.551757
 0.885000   710.619462   5955.310147
 0.890000   742.112736   6552.210124
 0.895000   776.141563   7117.520355
 0.900000   813.287939   7787.619837
 0.905000   854.017762   8599.959893
 0.910000   899.287538   9561.926659
 0.915000   949.637028   10641.638846
 0.920000   1005.703926   11957.673267
 0.925000   1069.213761   13917.967135
 0.930000   1144.883598   17179.809726
 0.935000   1241.011858   22379.186467
 0.940000   1368.675462   30326.344174
 0.945000   1544.275300   41673.490862
 0.950000   1785.410371   55674.640526
 0.955000   2101.021705   69270.812759
 0.960000   2478.118499   79174.559390
 0.965000   2892.767299   83776.002611
 0.970000   3315.878525   81298.815388
 0.975000   3705.755453   69868.843739
 0.980000   4014.566962   52786.908154
 0.985000   4233.624535   33573.644471
 0.990000   4350.303407   8711.616245
 0.995000   4320.740697   152160.709503
 1.000000   5871.910502   468307.212450
201 psinorm ommpp() dommpp/dpsiN
 0.000000   106.322257   -21110.452681
 0.005000   16.185184   -14944.376713
 0.010000   -43.121510   -11424.021323
 0.015000   -98.055030   -10120.221248
 0.020000   -144.323722   -8710.629810
 0.025000   -185.161328   -7586.220677
 0.030000   -220.185929   -6601.653852
 0.035000   -251.177866   -5734.091568
 0.040000   -277.526845   -4950.633412
 0.045000   -300.684200   -4361.143331
 0.050000   -321.138278   -3690.329294
 0.055000   -337.587493   -3229.474684
 0.060000   -353.433025   -2935.870134
 0.065000   -366.946195   -2537.690319
 0.070000   -378.809928   -2220.564438
 0.075000   -389.151839   -1930.026599
 0.080000   -398.110194   -1612.721641
 0.085000   -405.279055   -1311.490335
 0.090000   -411.225098   -972.084316
 0.095000   -414.999899   -719.161154
 0.100000   -418.416709   -573.696816
 0.105000   -420.736867   -356.402357
 0.110000   -421.980733   -158.940707
 0.115000   -422.326274   146.364080
 0.120000   -420.517092   337.199774
 0.125000   -418.954276   393.404984
 0.130000   -416.583042   548.978612
 0.135000   -413.464490   698.534540
 0.140000   -409.597697   844.091755
 0.145000   -405.023572   971.566685
 0.150000   -399.882030   1081.732046
 0.155000   -394.206252   1185.423222
 0.160000   -388.027798   1279.200179
 0.165000   -381.414250   1357.864525
 0.170000   -374.449152   1423.834955
 0.175000   -367.175901   1464.048621
 0.180000   -359.808666   1486.192847
 0.185000   -352.313972   1532.791047
 0.190000   -344.480756   1577.675867
 0.195000   -336.537213   1594.390857
 0.200000   -328.536847   1597.928464
 0.205000   -320.557929   1637.269028
 0.210000   -312.164157   1751.416072
 0.215000   -303.043768   1688.024708
 0.220000   -295.283910   1555.582060
 0.225000   -287.487947   1536.415166
 0.230000   -279.919758   1482.028514
 0.235000   -272.667662   1420.183611
 0.240000   -265.717922   1362.047297
 0.245000   -259.047189   1367.889686
 0.250000   -252.039025   1451.335476
 0.255000   -244.533835   1317.683199
 0.260000   -238.862193   1102.855128
 0.265000   -233.505283   1041.307936
 0.270000   -228.449114   976.616410
 0.275000   -223.739119   936.076702
 0.280000   -219.088347   1018.153429
 0.285000   -213.557585   922.321637
 0.290000   -209.865130   710.203357
 0.295000   -206.455551   657.356123
 0.300000   -203.291569   607.426295
 0.305000   -200.381288   693.184581
 0.310000   -196.359723   630.867776
 0.315000   -194.072611   426.311705
 0.320000   -192.096606   379.199794
 0.325000   -190.280613   365.009341
 0.330000   -188.446513   443.233119
 0.335000   -185.848281   366.103851
 0.340000   -184.785474   196.143474
 0.345000   -183.886847   165.730957
 0.350000   -183.128165   193.297278
 0.355000   -181.953874   192.035849
 0.360000   -181.207806   99.077851
 0.365000   -180.963095   40.920154
 0.370000   -180.798605   44.260864
 0.375000   -180.520487   75.123980
 0.380000   -180.047365   30.732603
 0.385000   -180.213161   -41.367323
 0.390000   -180.461038   -54.357893
 0.395000   -180.756740   -2.003201
 0.400000   -180.481070   -10.261038
 0.405000   -180.859350   -77.372134
 0.410000   -181.254792   -80.459003
 0.415000   -181.663940   -22.162028
 0.420000   -181.476412   -27.321714
 0.425000   -181.937157   -92.147820
 0.430000   -182.397890   -91.556062
 0.435000   -182.852718   -26.086845
 0.440000   -182.658758   -24.411487
 0.445000   -183.096833   -87.053412
 0.450000   -183.529293   -81.372008
 0.455000   -183.910553   -14.863350
 0.460000   -183.677926   -13.185534
 0.465000   -184.042408   -70.998210
 0.470000   -184.387908   -55.454962
 0.475000   -184.596958   12.343171
 0.480000   -184.264476   3.919647
 0.485000   -184.557761   -56.760087
 0.490000   -184.832077   -32.099811
 0.495000   -184.878759   27.118375
 0.500000   -184.560894   6.171471
 0.505000   -184.817045   -49.746714
 0.510000   -185.058361   -17.416299
 0.515000   -184.991208   29.529900
 0.520000   -184.763062   2.309133
 0.525000   -184.968116   -40.296283
 0.530000   -185.166025   -7.301622
 0.535000   -185.041133   20.106691
 0.540000   -184.964958   -25.372085
 0.545000   -185.294853   -66.200790
 0.550000   -185.626966   -28.687248
 0.555000   -185.581726   -8.035329
 0.560000   -185.707319   -58.351453
 0.565000   -186.165240   -93.587682
 0.570000   -186.643196   -62.687925
 0.575000   -186.792120   -53.800758
 0.580000   -187.181203   -104.912897
 0.585000   -187.841249   -135.435775
 0.590000   -188.535561   -114.700327
 0.595000   -188.988252   -116.192059
 0.600000   -189.697482   -166.248944
 0.605000   -190.650741   -195.417722
 0.610000   -191.651659   -185.774877
 0.615000   -192.508490   -190.287261
 0.620000   -193.554531   -236.953467
 0.625000   -194.878025   -273.934013
 0.630000   -196.293872   -285.985633
 0.635000   -197.737881   -307.393674
 0.640000   -199.367808   -353.908327
 0.645000   -201.276964   -398.004993
 0.650000   -203.347858   -433.430437
 0.655000   -205.611269   -480.167018
 0.660000   -208.149528   -529.512567
 0.665000   -210.906394   -570.912598
 0.670000   -213.858654   -610.466428
 0.675000   -217.011059   -674.519651
 0.680000   -220.603851   -733.351917
 0.685000   -224.344578   -758.636528
 0.690000   -228.190216   -789.027198
 0.695000   -232.234850   -837.861665
 0.700000   -236.568833   -907.489380
 0.705000   -241.309744   -940.271641
 0.710000   -245.971549   -952.346246
 0.715000   -250.833206   -996.177417
 0.720000   -255.933323   -1075.926760
 0.725000   -261.592474   -1165.422719
 0.730000   -267.587551   -1209.751952
 0.735000   -273.689993   -1254.304121
 0.740000   -280.130592   -1323.681241
 0.745000   -286.926806   -1426.455657
 0.750000   -294.395148   -1541.872016
 0.755000   -302.345526   -1593.220911
 0.760000   -310.327358   -1633.385940
 0.765000   -318.679385   -1710.302108
 0.770000   -327.430379   -1796.011677
 0.775000   -336.639502   -1925.641375
 0.780000   -346.686792   -1999.006867
 0.785000   -356.629571   -2032.681709
 0.790000   -367.013609   -2127.710706
 0.795000   -377.906678   -2233.488614
 0.800000   -389.348496   -2348.703632
 0.805000   -401.393714   -2487.032390
 0.810000   -414.218819   -2602.692915
 0.815000   -427.420643   -2706.970611
 0.820000   -441.288526   -2844.871864
 0.825000   -455.869362   -2990.664714
 0.830000   -471.195173   -3140.521080
 0.835000   -487.274573   -3272.937932
 0.840000   -503.924552   -3391.027590
 0.845000   -521.184849   -3540.454312
 0.850000   -539.329095   -3712.581192
 0.855000   -558.310660   -3889.759026
 0.860000   -578.226685   -4114.962692
 0.865000   -599.460287   -4434.520849
 0.870000   -622.571894   -4835.877596
 0.875000   -647.819063   -5272.431840
 0.880000   -675.296212   -5610.239315
 0.885000   -703.921457   -6075.835865
 0.890000   -736.054571   -6689.021950
 0.895000   -770.811676   -7273.129597
 0.900000   -808.785867   -7962.726387
 0.905000   -850.438940   -8796.156994
 0.910000   -896.747437   -9779.726731
 0.915000   -948.236207   -10874.404757
 0.920000   -1005.491484   -12200.191721
 0.925000   -1070.238124   -14167.098181
 0.930000   -1147.162466   -17429.354770
 0.935000   -1244.531672   -22625.457348
 0.940000   -1373.417040   -30565.818060
 0.945000   -1550.189853   -41893.931157
 0.950000   -1792.356351   -55876.104371
 0.955000   -2108.950896   -69470.714117
 0.960000   -2487.063492   -79393.418037
 0.965000   -2902.885077   -84043.488854
 0.970000   -3327.498381   -81627.232161
 0.975000   -3719.157398   -70180.907533
 0.980000   -4029.307456   -52910.041451
 0.985000   -4248.257813   -33280.418580
 0.990000   -4362.111642   -7840.268564
 0.995000   -4326.660499   -150851.687657
 1.000000   -5870.628519   -466735.520404
201 psinorm omevb() domevb/dpsiN
 0.000000   34.432620   113.031392
 0.005000   34.801950   34.700743
 0.010000   34.779627   -8.576377
 0.015000   34.716186   -14.791720
 0.020000   34.631710   -18.558560
 0.025000   34.530601   -22.378361
 0.030000   34.407927   -26.923410
 0.035000   34.261367   -31.349074
 0.040000   34.094436   -35.364750
 0.045000   33.907719   -39.080477
 0.050000   33.703631   -42.106573
 0.055000   33.486654   -44.081609
 0.060000   33.262815   -45.322376
 0.065000   33.033430   -45.996034
 0.070000   32.802855   -45.932548
 0.075000   32.574104   -45.630439
 0.080000   32.346550   -45.201163
 0.085000   32.122093   -44.469928
 0.090000   31.901851   -44.154413
 0.095000   31.680549   -43.979001
 0.100000   31.462061   -43.593247
 0.105000   31.244616   -43.300028
 0.110000   31.029061   -43.075944
 0.115000   30.813857   -43.045302
 0.120000   30.598608   -43.510780
 0.125000   30.378749   -43.864389
 0.130000   30.159964   -43.443844
 0.135000   29.944310   -42.891172
 0.140000   29.731052   -42.241773
 0.145000   29.521893   -41.356275
 0.150000   29.317489   -40.344134
 0.155000   29.118451   -39.470459
 0.160000   28.922785   -38.678884
 0.165000   28.731662   -37.834908
 0.170000   28.544436   -37.095874
 0.175000   28.360704   -36.048134
 0.180000   28.183954   -34.849814
 0.185000   28.012206   -33.602295
 0.190000   27.847931   -32.148479
 0.195000   27.690721   -30.669992
 0.200000   27.541231   -29.020058
 0.205000   27.400520   -26.814222
 0.210000   27.273089   -25.594485
 0.215000   27.144575   -25.983032
 0.220000   27.013259   -26.536388
 0.225000   26.879211   -27.306991
 0.230000   26.740189   -28.426941
 0.235000   26.594942   -29.676782
 0.240000   26.443421   -30.840496
 0.245000   26.286537   -31.621176
 0.250000   26.127209   -32.043400
 0.255000   25.966103   -32.380897
 0.260000   25.803400   -32.575208
 0.265000   25.640351   -32.855257
 0.270000   25.474848   -32.714117
 0.275000   25.313210   -31.576403
 0.280000   25.159084   -30.235107
 0.285000   25.010859   -28.891404
 0.290000   24.870170   -27.298113
 0.295000   24.737878   -25.654069
 0.300000   24.613629   -23.910063
 0.305000   24.498777   -22.328169
 0.310000   24.390347   -21.250157
 0.315000   24.286275   -20.453965
 0.320000   24.185808   -19.876331
 0.325000   24.087512   -19.297948
 0.330000   23.992828   -18.704005
 0.335000   23.900472   -19.023738
 0.340000   23.802591   -20.053296
 0.345000   23.699939   -21.133902
 0.350000   23.591252   -22.309549
 0.355000   23.476844   -23.456720
 0.360000   23.356685   -24.715812
 0.365000   23.229686   -26.000824
 0.370000   23.096676   -26.814513
 0.375000   22.961540   -27.207737
 0.380000   22.824599   -27.417003
 0.385000   22.687370   -27.682629
 0.390000   22.547773   -28.194941
 0.395000   22.405421   -27.699810
 0.400000   22.270775   -26.626016
 0.405000   22.139161   -26.003571
 0.410000   22.010739   -25.445822
 0.415000   21.884703   -24.986028
 0.420000   21.760879   -24.552419
 0.425000   21.639178   -24.339716
 0.430000   21.517481   -24.912090
 0.435000   21.390058   -26.532455
 0.440000   21.252157   -29.203773
 0.445000   21.098020   -32.432078
 0.450000   20.927836   -35.478297
 0.455000   20.743237   -38.441521
 0.460000   20.543421   -41.169609
 0.465000   20.331541   -43.248523
 0.470000   20.110936   -44.483820
 0.475000   19.886703   -44.496123
 0.480000   19.665974   -43.150080
 0.485000   19.455202   -41.066643
 0.490000   19.255308   -38.379222
 0.495000   19.071410   -34.942498
 0.500000   18.905883   -30.962328
 0.505000   18.761786   -26.894015
 0.510000   18.636943   -23.207341
 0.515000   18.529713   -19.872113
 0.520000   18.438222   -16.755406
 0.525000   18.362159   -13.718590
 0.530000   18.301036   -11.040892
 0.535000   18.251750   -8.988643
 0.540000   18.211149   -7.387372
 0.545000   18.177876   -6.368579
 0.550000   18.147464   -5.819554
 0.555000   18.119681   -5.347857
 0.560000   18.093985   -4.979394
 0.565000   18.069887   -4.596472
 0.570000   18.048020   -4.116013
 0.575000   18.028727   -3.643144
 0.580000   18.011589   -3.340351
 0.585000   17.995323   -3.130885
 0.590000   17.980280   -3.136282
 0.595000   17.963960   -3.692136
 0.600000   17.943359   -5.016850
 0.605000   17.913792   -7.080152
 0.610000   17.872557   -9.602394
 0.615000   17.817768   -12.900163
 0.620000   17.743556   -17.108181
 0.625000   17.646686   -21.905302
 0.630000   17.524503   -27.239728
 0.635000   17.374289   -33.022337
 0.640000   17.194279   -39.029690
 0.645000   16.983992   -45.009161
 0.650000   16.744188   -50.514109
 0.655000   16.478851   -55.450836
 0.660000   16.189679   -59.932134
 0.665000   15.879529   -64.011140
 0.670000   15.549568   -67.582787
 0.675000   15.203701   -70.675769
 0.680000   14.842810   -73.616623
 0.685000   14.467535   -76.707568
 0.690000   14.075734   -80.534883
 0.695000   13.662186   -86.039965
 0.700000   13.215335   -91.596562
 0.705000   12.746221   -96.528438
 0.710000   12.250050   -102.131449
 0.715000   11.724906   -107.745597
 0.720000   11.172594   -112.857465
 0.725000   10.596332   -118.191232
 0.730000   9.990682   -120.895682
 0.735000   9.387375   -121.426042
 0.740000   8.776422   -122.331468
 0.745000   8.164060   -121.808583
 0.750000   7.558336   -119.624347
 0.755000   6.967817   -115.503554
 0.760000   6.403300   -109.330765
 0.765000   5.874509   -102.100242
 0.770000   5.382298   -94.464364
 0.775000   4.929865   -86.456822
 0.780000   4.517730   -78.449338
 0.785000   4.145372   -69.791451
 0.790000   3.819815   -62.585014
 0.795000   3.519522   -57.824551
 0.800000   3.241570   -53.769049
 0.805000   2.981831   -50.549451
 0.810000   2.736075   -47.913344
 0.815000   2.502698   -45.559939
 0.820000   2.280476   -44.335848
 0.825000   2.059339   -42.978662
 0.830000   1.850689   -39.943232
 0.835000   1.659907   -36.019059
 0.840000   1.490499   -31.514507
 0.845000   1.344762   -27.056339
 0.850000   1.219935   -23.805603
 0.855000   1.106706   -22.646273
 0.860000   0.993472   -24.063182
 0.865000   0.866074   -28.813365
 0.870000   0.705339   -37.692911
 0.875000   0.489145   -52.455376
 0.880000   0.180785   -73.466668
 0.885000   -0.245522   -99.793461
 0.890000   -0.817150   -134.009492
 0.895000   -1.585617   -179.653485
 0.900000   -2.613684   -238.201511
 0.905000   -3.967632   -314.868238
 0.910000   -5.762367   -414.185898
 0.915000   -8.109491   -536.195964
 0.920000   -11.124326   -691.388253
 0.925000   -15.023373   -893.044223
 0.930000   -20.054769   -1151.571414
 0.935000   -26.539087   -1484.746114
 0.940000   -34.902230   -1907.346793
 0.945000   -45.612555   -2416.009192
 0.950000   -59.062322   -2994.480147
 0.955000   -75.557357   -3541.645307
 0.960000   -94.478775   -3766.608902
 0.965000   -113.223446   -3188.282165
 0.970000   -126.361596   -1386.094039
 0.975000   -127.084386   1406.177999
 0.980000   -112.299816   4010.583924
 0.985000   -86.978547   5273.836313
 0.990000   -59.561453   5153.035869
 0.995000   -35.448188   4283.229705
 1.000000   -16.729156   3204.383019
201 psinorm omepp() domepp/dpsiN
 0.000000   20.857596   -1.495327
 0.005000   20.846068   -3.115819
 0.010000   20.826438   -4.021751
 0.015000   20.805851   -4.212732
 0.020000   20.784310   -4.402916
 0.025000   20.761821   -4.592279
 0.030000   20.738388   -4.780799
 0.035000   20.714013   -4.968453
 0.040000   20.688703   -5.155217
 0.045000   20.662461   -5.341069
 0.050000   20.635292   -5.525987
 0.055000   20.607201   -5.709949
 0.060000   20.578193   -5.892934
 0.065000   20.548272   -6.074918
 0.070000   20.517444   -6.255881
 0.075000   20.485713   -6.435802
 0.080000   20.453086   -6.614660
 0.085000   20.419567   -6.792435
 0.090000   20.385161   -6.969105
 0.095000   20.349876   -7.144651
 0.100000   20.313715   -7.319053
 0.105000   20.276685   -7.492291
 0.110000   20.238792   -7.664346
 0.115000   20.200042   -7.835199
 0.120000   20.160440   -8.004831
 0.125000   20.119993   -8.173224
 0.130000   20.078708   -8.340359
 0.135000   20.036590   -8.506218
 0.140000   19.993646   -8.670784
 0.145000   19.949882   -8.834040
 0.150000   19.905305   -8.995968
 0.155000   19.859922   -9.156551
 0.160000   19.813740   -9.315773
 0.165000   19.766764   -9.473618
 0.170000   19.719004   -9.630070
 0.175000   19.670464   -9.785113
 0.180000   19.621152   -9.938732
 0.185000   19.571076   -10.090912
 0.190000   19.520243   -10.241639
 0.195000   19.468660   -10.390897
 0.200000   19.416334   -10.538673
 0.205000   19.363273   -10.684954
 0.210000   19.309485   -10.829725
 0.215000   19.254976   -10.972974
 0.220000   19.199755   -11.114687
 0.225000   19.143829   -11.254853
 0.230000   19.087206   -11.393459
 0.235000   19.029895   -11.530494
 0.240000   18.971902   -11.665945
 0.245000   18.913235   -11.799803
 0.250000   18.853904   -11.932055
 0.255000   18.793915   -12.062691
 0.260000   18.733277   -12.191702
 0.265000   18.671998   -12.319076
 0.270000   18.610086   -12.444806
 0.275000   18.547550   -12.568881
 0.280000   18.484397   -12.691293
 0.285000   18.420637   -12.812032
 0.290000   18.356277   -12.931092
 0.295000   18.291326   -13.048464
 0.300000   18.225792   -13.164140
 0.305000   18.159684   -13.278113
 0.310000   18.093011   -13.390376
 0.315000   18.025781   -13.500923
 0.320000   17.958002   -13.609748
 0.325000   17.889683   -13.716844
 0.330000   17.820833   -13.822206
 0.335000   17.751461   -13.925828
 0.340000   17.681575   -14.027707
 0.345000   17.611184   -14.127836
 0.350000   17.540297   -14.226212
 0.355000   17.468922   -14.322832
 0.360000   17.397068   -14.417690
 0.365000   17.324745   -14.510785
 0.370000   17.251960   -14.602112
 0.375000   17.178724   -14.691670
 0.380000   17.105044   -14.779456
 0.385000   17.030929   -14.865468
 0.390000   16.956389   -14.949705
 0.395000   16.881432   -15.032165
 0.400000   16.806067   -15.112846
 0.405000   16.730304   -15.191749
 0.410000   16.654150   -15.268873
 0.415000   16.577615   -15.344218
 0.420000   16.500708   -15.417784
 0.425000   16.423437   -15.489572
 0.430000   16.345812   -15.559583
 0.435000   16.267841   -15.627818
 0.440000   16.189534   -15.694278
 0.445000   16.110899   -15.758966
 0.450000   16.031944   -15.821884
 0.455000   15.952680   -15.883035
 0.460000   15.873114   -15.942421
 0.465000   15.793255   -16.000046
 0.470000   15.713113   -16.055914
 0.475000   15.632696   -16.110029
 0.480000   15.552013   -16.162396
 0.485000   15.471072   -16.213020
 0.490000   15.389883   -16.261905
 0.495000   15.308453   -16.309060
 0.500000   15.226792   -16.354489
 0.505000   15.144908   -16.398200
 0.510000   15.062810   -16.440202
 0.515000   14.980506   -16.480502
 0.520000   14.898005   -16.519110
 0.525000   14.815315   -16.556036
 0.530000   14.732445   -16.591292
 0.535000   14.649402   -16.624890
 0.540000   14.566196   -16.656843
 0.545000   14.482834   -16.687167
 0.550000   14.399324   -16.715879
 0.555000   14.315675   -16.742996
 0.560000   14.231894   -16.768541
 0.565000   14.147990   -16.792536
 0.570000   14.063969   -16.815008
 0.575000   13.979840   -16.835986
 0.580000   13.895609   -16.855505
 0.585000   13.811285   -16.873603
 0.590000   13.726873   -16.890323
 0.595000   13.642381   -16.905717
 0.600000   13.557816   -16.919841
 0.605000   13.473183   -16.932761
 0.610000   13.388488   -16.944554
 0.615000   13.303737   -16.955309
 0.620000   13.218935   -16.965127
 0.625000   13.134086   -16.974126
 0.630000   13.049194   -16.982443
 0.635000   12.964262   -16.990238
 0.640000   12.879292   -16.997697
 0.645000   12.794285   -17.005034
 0.650000   12.709241   -17.012502
 0.655000   12.624160   -17.020393
 0.660000   12.539037   -17.029050
 0.665000   12.453869   -17.038870
 0.670000   12.368649   -17.050318
 0.675000   12.283366   -17.063937
 0.680000   12.198009   -17.080360
 0.685000   12.112563   -17.100322
 0.690000   12.027006   -17.124684
 0.695000   11.941316   -17.154447
 0.700000   11.855462   -17.190777
 0.705000   11.769408   -17.235029
 0.710000   11.683111   -17.288779
 0.715000   11.596520   -17.353855
 0.720000   11.509573   -17.432380
 0.725000   11.422196   -17.526805
 0.730000   11.334305   -17.639968
 0.735000   11.245797   -17.775136
 0.740000   11.156553   -17.936071
 0.745000   11.066436   -18.127084
 0.750000   10.975283   -18.353105
 0.755000   10.882905   -18.619747
 0.760000   10.789085   -18.933372
 0.765000   10.693571   -19.301151
 0.770000   10.596074   -19.731113
 0.775000   10.496260   -20.232175
 0.780000   10.393752   -20.814143
 0.785000   10.288119   -21.487658
 0.790000   10.178875   -22.264077
 0.795000   10.065478   -23.155254
 0.800000   9.947323   -24.173165
 0.805000   9.823746   -25.329337
 0.810000   9.694029   -26.633997
 0.815000   9.557406   -28.094823
 0.820000   9.413081   -29.715169
 0.825000   9.260255   -31.491569
 0.830000   9.098165   -33.410255
 0.835000   8.926152   -35.442355
 0.840000   8.743742   -37.537311
 0.845000   8.550779   -39.613901
 0.850000   8.347603   -41.548056
 0.855000   8.135298   -43.156392
 0.860000   7.916039   -44.174045
 0.865000   7.693558   -44.224949
 0.870000   7.473789   -42.782171
 0.875000   7.265736   -39.115264
 0.880000   7.082637   -32.220891
 0.885000   6.943527   -20.732257
 0.890000   6.875314   -2.802334
 0.895000   6.915504   24.044242
 0.900000   7.115757   63.094961
 0.905000   7.546454   118.671138
 0.910000   8.302468   196.385826
 0.915000   9.510312   303.430053
 0.920000   11.336769   448.869799
 0.925000   13.999010   643.913177
 0.930000   17.775900   902.026370
 0.935000   23.019273   1238.475233
 0.940000   30.160653   1667.872907
 0.945000   39.698003   2195.568897
 0.950000   52.116342   2793.016302
 0.955000   67.628166   3341.743949
 0.960000   85.533781   3547.750254
 0.965000   103.105668   2920.795922
 0.970000   114.741740   1057.677266
 0.975000   113.682441   -1718.241792
 0.980000   97.559322   -4133.717222
 0.985000   72.345269   -4980.610422
 0.990000   47.753218   -4281.688188
 0.995000   29.528387   -2974.207860
 1.000000   18.011140   -1632.690973
201 psinorm kpol(km/s/T) dkpol/dpsiN
 0.000000   0.024951   157.159341
 0.005000   0.665003   98.861666
 0.010000   1.013567   66.954903
 0.015000   1.334552   63.332834
 0.020000   1.646896   61.937839
 0.025000   1.953931   60.258348
 0.030000   2.249479   57.609069
 0.035000   2.530021   54.838344
 0.040000   2.797863   52.242108
 0.045000   3.052442   49.704254
 0.050000   3.294905   47.578143
 0.055000   3.528224   46.223109
 0.060000   3.757136   45.421985
 0.065000   3.982444   44.886487
 0.070000   4.206001   44.567234
 0.075000   4.428116   44.003941
 0.080000   4.646041   43.095429
 0.085000   4.859070   41.916494
 0.090000   5.065206   40.204599
 0.095000   5.261116   38.114660
 0.100000   5.446352   35.585215
 0.105000   5.616968   32.753730
 0.110000   5.773889   29.855235
 0.115000   5.915521   26.701118
 0.120000   6.040901   23.738794
 0.125000   6.152909   21.252549
 0.130000   6.253426   19.203560
 0.135000   6.344944   17.369332
 0.140000   6.427119   15.714565
 0.145000   6.502090   14.274423
 0.150000   6.569864   12.863491
 0.155000   6.630725   11.149060
 0.160000   6.681354   9.166211
 0.165000   6.722387   7.086595
 0.170000   6.752220   4.709429
 0.175000   6.769481   2.280322
 0.180000   6.775023   -0.237379
 0.185000   6.767108   -2.783464
 0.190000   6.747189   -5.289024
 0.195000   6.714217   -7.835871
 0.200000   6.668830   -10.104498
 0.205000   6.613172   -12.300660
 0.210000   6.545823   -14.308746
 0.215000   6.470085   -16.041022
 0.220000   6.385413   -17.689166
 0.225000   6.293193   -19.313998
 0.230000   6.192273   -21.127233
 0.235000   6.081921   -22.913939
 0.240000   5.963134   -24.823027
 0.245000   5.833691   -26.922508
 0.250000   5.693909   -28.966334
 0.255000   5.544027   -31.124746
 0.260000   5.382661   -33.300317
 0.265000   5.211024   -35.281222
 0.270000   5.029849   -37.208967
 0.275000   4.838934   -38.913072
 0.280000   4.640718   -40.407481
 0.285000   4.434860   -41.850348
 0.290000   4.222215   -43.043397
 0.295000   4.004426   -44.114674
 0.300000   3.781068   -45.181578
 0.305000   3.552610   -46.183272
 0.310000   3.319235   -47.214053
 0.315000   3.080469   -48.263560
 0.320000   2.836600   -49.289476
 0.325000   2.587575   -50.431283
 0.330000   2.332287   -51.680842
 0.335000   2.070766   -52.836848
 0.340000   1.803919   -53.848760
 0.345000   1.532279   -54.694120
 0.350000   1.256977   -55.134224
 0.355000   0.980936   -55.217644
 0.360000   0.704801   -55.049784
 0.365000   0.430438   -54.664761
 0.370000   0.158153   -54.076997
 0.375000   -0.110331   -53.339524
 0.380000   -0.375242   -52.459740
 0.385000   -0.634929   -51.589010
 0.390000   -0.891132   -50.924775
 0.395000   -1.144177   -50.355940
 0.400000   -1.394691   -49.958958
 0.405000   -1.643766   -49.635892
 0.410000   -1.891050   -49.352333
 0.415000   -2.137290   -49.112833
 0.420000   -2.382179   -48.954247
 0.425000   -2.626832   -49.154665
 0.430000   -2.873725   -50.001180
 0.435000   -3.126844   -51.742477
 0.440000   -3.391150   -54.642864
 0.445000   -3.673272   -58.106531
 0.450000   -3.972215   -61.415167
 0.455000   -4.287424   -64.415187
 0.460000   -4.616367   -66.998918
 0.465000   -4.957413   -68.991545
 0.470000   -5.306283   -69.889502
 0.475000   -5.656308   -69.181148
 0.480000   -5.998094   -66.888136
 0.485000   -6.325190   -63.348673
 0.490000   -6.631581   -58.683519
 0.495000   -6.912025   -53.171728
 0.500000   -7.163298   -46.903353
 0.505000   -7.381058   -40.512006
 0.510000   -7.568418   -34.671568
 0.515000   -7.727774   -29.250518
 0.520000   -7.860923   -24.413486
 0.525000   -7.971909   -20.222517
 0.530000   -8.063149   -16.767852
 0.535000   -8.139587   -14.201439
 0.540000   -8.205163   -12.242443
 0.545000   -8.262012   -10.747639
 0.550000   -8.312639   -9.527269
 0.555000   -8.357285   -8.407474
 0.560000   -8.396714   -7.303506
 0.565000   -8.430320   -5.938953
 0.570000   -8.456104   -4.180416
 0.575000   -8.472124   -1.932516
 0.580000   -8.475429   0.628212
 0.585000   -8.465842   3.516264
 0.590000   -8.440266   6.782417
 0.595000   -8.398018   9.966664
 0.600000   -8.340600   12.838517
 0.605000   -8.269632   15.330889
 0.610000   -8.187291   17.229621
 0.615000   -8.097336   18.198403
 0.620000   -8.005307   18.372346
 0.625000   -7.913613   18.030952
 0.630000   -7.824997   17.200269
 0.635000   -7.741610   15.974572
 0.640000   -7.665251   14.556059
 0.645000   -7.596049   13.114178
 0.650000   -7.534110   11.826422
 0.655000   -7.477785   10.741678
 0.660000   -7.426693   9.883222
 0.665000   -7.378953   9.159914
 0.670000   -7.335094   8.389314
 0.675000   -7.295060   7.665639
 0.680000   -7.258437   6.848216
 0.685000   -7.226578   5.966007
 0.690000   -7.198777   5.070244
 0.695000   -7.175875   4.139289
 0.700000   -7.157384   3.142226
 0.705000   -7.144453   1.940684
 0.710000   -7.137978   0.419295
 0.715000   -7.140260   -1.673621
 0.720000   -7.154714   -4.492566
 0.725000   -7.185186   -8.179016
 0.730000   -7.236504   -12.853014
 0.735000   -7.313716   -18.466161
 0.740000   -7.421166   -24.707617
 0.745000   -7.560792   -31.208891
 0.750000   -7.733254   -37.570333
 0.755000   -7.936495   -43.341140
 0.760000   -8.166666   -47.833940
 0.765000   -8.414835   -50.558002
 0.770000   -8.672246   -51.629632
 0.775000   -8.931131   -51.258979
 0.780000   -9.184836   -49.763233
 0.785000   -9.428763   -47.622497
 0.790000   -9.661061   -45.480230
 0.795000   -9.883566   -44.656060
 0.800000   -10.107621   -45.549143
 0.805000   -10.339057   -47.539797
 0.810000   -10.583019   -50.316187
 0.815000   -10.842219   -53.486453
 0.820000   -11.117884   -56.522151
 0.825000   -11.407440   -57.731794
 0.830000   -11.695202   -56.247344
 0.835000   -11.969914   -52.440824
 0.840000   -12.219610   -46.287679
 0.845000   -12.432791   -38.080162
 0.850000   -12.600411   -28.483448
 0.855000   -12.717625   -17.863171
 0.860000   -12.779043   -6.398698
 0.865000   -12.781612   5.499714
 0.870000   -12.724046   17.405439
 0.875000   -12.607558   29.215015
 0.880000   -12.431896   40.813215
 0.885000   -12.199426   51.871522
 0.890000   -11.913181   62.245156
 0.895000   -11.576974   71.813003
 0.900000   -11.195051   80.434553
 0.905000   -10.772629   88.107218
 0.910000   -10.313978   94.381954
 0.915000   -9.828809   98.594894
 0.920000   -9.328030   100.961803
 0.925000   -8.819191   102.835451
 0.930000   -8.299675   103.956250
 0.935000   -7.779629   105.461591
 0.940000   -7.245059   109.793457
 0.945000   -6.681694   113.624049
 0.950000   -6.108819   107.865415
 0.955000   -5.603040   81.323514
 0.960000   -5.295583   21.827216
 0.965000   -5.384768   -80.266869
 0.970000   -6.098252   -198.562342
 0.975000   -7.370391   -229.568469
 0.980000   -8.393937   -6.508338
 0.985000   -7.435474   595.367619
 0.990000   -2.440261   1455.605877
 0.995000   7.120584   2079.291915
 1.000000   18.352658   2413.537726
201 psinorm omghb() domghb/dpsiN
 0.000000   -0.000045   0.090031
 0.005000   0.000292   0.044770
 0.010000   0.000402   0.062249
 0.015000   0.000914   0.111524
 0.020000   0.001518   0.136307
 0.025000   0.002277   0.164166
 0.030000   0.003159   0.195091
 0.035000   0.004228   0.231064
 0.040000   0.005470   0.260803
 0.045000   0.006836   0.270257
 0.050000   0.008172   0.262739
 0.055000   0.009463   0.243373
 0.060000   0.010606   0.222744
 0.065000   0.011691   0.203247
 0.070000   0.012639   0.187865
 0.075000   0.013570   0.181104
 0.080000   0.014450   0.178222
 0.085000   0.015352   0.173285
 0.090000   0.016182   0.167000
 0.095000   0.017022   0.143870
 0.100000   0.017621   0.166997
 0.105000   0.018692   0.220536
 0.110000   0.019827   0.213509
 0.115000   0.020827   0.207313
 0.120000   0.021900   0.201312
 0.125000   0.022840   0.179419
 0.130000   0.023694   0.170156
 0.135000   0.024542   0.158677
 0.140000   0.025281   0.118037
 0.145000   0.025722   0.099867
 0.150000   0.026279   0.085845
 0.155000   0.026580   0.091161
 0.160000   0.027191   0.096298
 0.165000   0.027543   0.081470
 0.170000   0.028006   0.073513
 0.175000   0.028278   0.056562
 0.180000   0.028571   0.042576
 0.185000   0.028704   -0.029102
 0.190000   0.028280   -0.105684
 0.195000   0.027647   -0.072001
 0.200000   0.027560   -0.016635
 0.205000   0.027481   -0.029023
 0.210000   0.027270   0.014444
 0.215000   0.027625   0.111964
 0.220000   0.028390   0.230557
 0.225000   0.029931   0.390490
 0.230000   0.032294   0.386929
 0.235000   0.033800   0.289405
 0.240000   0.035189   0.280495
 0.245000   0.036605   0.271819
 0.250000   0.037907   0.326668
 0.255000   0.039872   0.235753
 0.260000   0.040264   0.096203
 0.265000   0.040834   0.099115
 0.270000   0.041255   0.052669
 0.275000   0.041361   -0.006398
 0.280000   0.041191   -0.020901
 0.285000   0.041152   -0.183414
 0.290000   0.039357   -0.281286
 0.295000   0.038339   -0.179551
 0.300000   0.037562   -0.157399
 0.305000   0.036765   -0.138240
 0.310000   0.036179   -0.162645
 0.315000   0.035138   -0.074637
 0.320000   0.035433   0.063301
 0.325000   0.035771   0.080580
 0.330000   0.036239   0.125286
 0.335000   0.037024   0.177253
 0.340000   0.038011   0.139958
 0.345000   0.038424   0.404579
 0.350000   0.042057   0.588541
 0.355000   0.044309   0.425641
 0.360000   0.046314   0.349031
 0.365000   0.047800   0.267959
 0.370000   0.048993   0.309465
 0.375000   0.050894   0.307799
 0.380000   0.052071   0.166464
 0.385000   0.052559   0.092702
 0.390000   0.052998   0.047807
 0.395000   0.053037   0.005319
 0.400000   0.053051   0.037180
 0.405000   0.053409   -0.053857
 0.410000   0.052513   -0.145957
 0.415000   0.051949   -0.053835
 0.420000   0.051974   0.052499
 0.425000   0.052474   0.212478
 0.430000   0.054099   0.404790
 0.435000   0.056522   0.618913
 0.440000   0.060288   0.851468
 0.445000   0.065037   0.962530
 0.450000   0.069914   1.049465
 0.455000   0.075531   1.018279
 0.460000   0.080096   0.757747
 0.465000   0.083109   0.477551
 0.470000   0.084872   0.257444
 0.475000   0.085683   0.018519
 0.480000   0.085057   -0.296467
 0.485000   0.082719   -0.623838
 0.490000   0.078819   -0.864520
 0.495000   0.074073   -0.983216
 0.500000   0.068987   -1.007638
 0.505000   0.063997   -1.010890
 0.510000   0.058878   -1.028825
 0.515000   0.053709   -0.952377
 0.520000   0.049354   -0.832553
 0.525000   0.045383   -0.790096
 0.530000   0.041453   -0.665390
 0.535000   0.038729   -0.479565
 0.540000   0.036657   -0.325972
 0.545000   0.035470   -0.186047
 0.550000   0.034797   -0.142060
 0.555000   0.034049   -0.152761
 0.560000   0.033269   -0.063987
 0.565000   0.033409   -0.037391
 0.570000   0.032895   -0.112964
 0.575000   0.032279   -0.098650
 0.580000   0.031909   -0.069703
 0.585000   0.031582   0.016052
 0.590000   0.032069   0.127755
 0.595000   0.032860   0.276729
 0.600000   0.034837   0.541338
 0.605000   0.038273   0.807945
 0.610000   0.042916   1.043529
 0.615000   0.048709   1.249684
 0.620000   0.055413   1.436874
 0.625000   0.063077   1.708868
 0.630000   0.072502   1.970614
 0.635000   0.082784   2.007357
 0.640000   0.092575   1.983332
 0.645000   0.102617   1.976654
 0.650000   0.112342   1.892483
 0.655000   0.121542   1.712753
 0.660000   0.129469   1.478434
 0.665000   0.136326   1.260303
 0.670000   0.142072   1.147958
 0.675000   0.147806   1.255089
 0.680000   0.154623   1.260323
 0.685000   0.160409   1.255689
 0.690000   0.167180   1.487879
 0.695000   0.175288   1.771340
 0.700000   0.184893   2.018801
 0.705000   0.195476   2.485279
 0.710000   0.209746   2.337989
 0.715000   0.218856   1.616622
 0.720000   0.225912   1.483089
 0.725000   0.233686   1.471420
 0.730000   0.240627   1.147591
 0.735000   0.245162   0.875236
 0.740000   0.249379   0.251155
 0.745000   0.247674   -0.632788
 0.750000   0.243051   -1.049003
 0.755000   0.237184   -1.465642
 0.760000   0.228395   -1.953686
 0.765000   0.217647   -2.431627
 0.770000   0.204078   -2.843196
 0.775000   0.189215   -2.711852
 0.780000   0.176960   -2.425282
 0.785000   0.164962   -2.199192
 0.790000   0.154968   -1.825794
 0.795000   0.146704   -1.545042
 0.800000   0.139518   -1.140190
 0.805000   0.135302   -0.306473
 0.810000   0.136453   0.079248
 0.815000   0.136095   -0.039376
 0.820000   0.136059   -0.057042
 0.825000   0.135524   -0.174420
 0.830000   0.134315   -0.299276
 0.835000   0.132532   -0.691848
 0.840000   0.127396   -0.970792
 0.845000   0.122824   -0.696809
 0.850000   0.120428   -0.172516
 0.855000   0.121099   0.528909
 0.860000   0.125717   1.642718
 0.865000   0.137526   2.476795
 0.870000   0.150485   3.193783
 0.875000   0.169464   4.330147
 0.880000   0.193787   5.359008
 0.885000   0.223054   6.231150
 0.890000   0.256098   7.908080
 0.895000   0.302135   7.384773
 0.900000   0.329946   6.536172
 0.905000   0.367496   7.338256
 0.910000   0.403329   6.754586
 0.915000   0.435042   5.444200
 0.920000   0.457771   6.263232
 0.925000   0.497674   2.464784
 0.930000   0.482418   -2.895478
 0.935000   0.468720   -3.766581
 0.940000   0.444753   -5.561241
 0.945000   0.413107   -5.735787
 0.950000   0.387395   0.922342
 0.955000   0.422331   4.936941
 0.960000   0.436764   10.154481
 0.965000   0.523875   20.012267
 0.970000   0.636887   12.437719
 0.975000   0.648253   -30.507521
 0.980000   0.331812   -115.087907
 0.985000   -0.502626   -214.418394
 0.990000   -1.812372   -231.736803
 0.995000   -2.819994   -84.320844
 1.000000   -2.655581   150.086346
201 psinorm nz1(10^20/m^3) dnz1/dpsiN
 0.000000   0.014899   0.000009
 0.005000   0.014897   -0.000650
 0.010000   0.014892   -0.001322
 0.015000   0.014884   -0.002019
 0.020000   0.014872   -0.002737
 0.025000   0.014856   -0.003473
 0.030000   0.014837   -0.004223
 0.035000   0.014814   -0.004981
 0.040000   0.014787   -0.005740
 0.045000   0.014757   -0.006495
 0.050000   0.014722   -0.007241
 0.055000   0.014684   -0.007974
 0.060000   0.014643   -0.008689
 0.065000   0.014597   -0.009381
 0.070000   0.014549   -0.010041
 0.075000   0.014497   -0.010666
 0.080000   0.014442   -0.011259
 0.085000   0.014384   -0.011817
 0.090000   0.014324   -0.012337
 0.095000   0.014261   -0.012820
 0.100000   0.014196   -0.013258
 0.105000   0.014129   -0.013649
 0.110000   0.014059   -0.014002
 0.115000   0.013988   -0.014316
 0.120000   0.013916   -0.014591
 0.125000   0.013843   -0.014830
 0.130000   0.013768   -0.015032
 0.135000   0.013692   -0.015197
 0.140000   0.013616   -0.015334
 0.145000   0.013539   -0.015443
 0.150000   0.013461   -0.015525
 0.155000   0.013384   -0.015583
 0.160000   0.013306   -0.015621
 0.165000   0.013227   -0.015641
 0.170000   0.013149   -0.015637
 0.175000   0.013071   -0.015604
 0.180000   0.012993   -0.015541
 0.185000   0.012916   -0.015447
 0.190000   0.012839   -0.015321
 0.195000   0.012762   -0.015164
 0.200000   0.012687   -0.014971
 0.205000   0.012613   -0.014743
 0.210000   0.012540   -0.014483
 0.215000   0.012468   -0.014190
 0.220000   0.012398   -0.013866
 0.225000   0.012329   -0.013511
 0.230000   0.012263   -0.013130
 0.235000   0.012198   -0.012732
 0.240000   0.012135   -0.012320
 0.245000   0.012075   -0.011896
 0.250000   0.012016   -0.011463
 0.255000   0.011960   -0.011023
 0.260000   0.011906   -0.010576
 0.265000   0.011854   -0.010118
 0.270000   0.011805   -0.009647
 0.275000   0.011758   -0.009161
 0.280000   0.011713   -0.008662
 0.285000   0.011671   -0.008149
 0.290000   0.011632   -0.007622
 0.295000   0.011595   -0.007081
 0.300000   0.011561   -0.006531
 0.305000   0.011530   -0.005972
 0.310000   0.011501   -0.005408
 0.315000   0.011476   -0.004840
 0.320000   0.011453   -0.004270
 0.325000   0.011433   -0.003701
 0.330000   0.011416   -0.003136
 0.335000   0.011402   -0.002577
 0.340000   0.011390   -0.002026
 0.345000   0.011381   -0.001483
 0.350000   0.011375   -0.000952
 0.355000   0.011372   -0.000434
 0.360000   0.011371   0.000072
 0.365000   0.011373   0.000565
 0.370000   0.011377   0.001045
 0.375000   0.011383   0.001513
 0.380000   0.011392   0.001967
 0.385000   0.011403   0.002406
 0.390000   0.011416   0.002827
 0.395000   0.011431   0.003230
 0.400000   0.011448   0.003611
 0.405000   0.011467   0.003970
 0.410000   0.011488   0.004305
 0.415000   0.011510   0.004616
 0.420000   0.011534   0.004902
 0.425000   0.011559   0.005163
 0.430000   0.011586   0.005397
 0.435000   0.011613   0.005605
 0.440000   0.011642   0.005786
 0.445000   0.011671   0.005941
 0.450000   0.011701   0.006068
 0.455000   0.011732   0.006167
 0.460000   0.011763   0.006238
 0.465000   0.011794   0.006283
 0.470000   0.011826   0.006302
 0.475000   0.011857   0.006294
 0.480000   0.011888   0.006258
 0.485000   0.011920   0.006193
 0.490000   0.011950   0.006099
 0.495000   0.011981   0.005976
 0.500000   0.012010   0.005822
 0.505000   0.012039   0.005633
 0.510000   0.012066   0.005408
 0.515000   0.012093   0.005148
 0.520000   0.012118   0.004853
 0.525000   0.012141   0.004523
 0.530000   0.012163   0.004160
 0.535000   0.012183   0.003766
 0.540000   0.012201   0.003344
 0.545000   0.012217   0.002899
 0.550000   0.012230   0.002432
 0.555000   0.012241   0.001947
 0.560000   0.012249   0.001446
 0.565000   0.012255   0.000932
 0.570000   0.012259   0.000408
 0.575000   0.012259   -0.000127
 0.580000   0.012257   -0.000672
 0.585000   0.012253   -0.001227
 0.590000   0.012245   -0.001790
 0.595000   0.012235   -0.002362
 0.600000   0.012221   -0.002941
 0.605000   0.012205   -0.003524
 0.610000   0.012186   -0.004109
 0.615000   0.012164   -0.004692
 0.620000   0.012139   -0.005272
 0.625000   0.012112   -0.005844
 0.630000   0.012081   -0.006407
 0.635000   0.012047   -0.006958
 0.640000   0.012011   -0.007498
 0.645000   0.011972   -0.008031
 0.650000   0.011931   -0.008566
 0.655000   0.011887   -0.009111
 0.660000   0.011840   -0.009662
 0.665000   0.011790   -0.010216
 0.670000   0.011738   -0.010774
 0.675000   0.011682   -0.011330
 0.680000   0.011624   -0.011892
 0.685000   0.011564   -0.012450
 0.690000   0.011500   -0.013009
 0.695000   0.011433   -0.013605
 0.700000   0.011364   -0.014264
 0.705000   0.011291   -0.015000
 0.710000   0.011214   -0.015856
 0.715000   0.011132   -0.016802
 0.720000   0.011046   -0.017730
 0.725000   0.010955   -0.018608
 0.730000   0.010860   -0.019429
 0.735000   0.010761   -0.020163
 0.740000   0.010658   -0.020806
 0.745000   0.010553   -0.021298
 0.750000   0.010445   -0.021554
 0.755000   0.010337   -0.021580
 0.760000   0.010229   -0.021401
 0.765000   0.010123   -0.021022
 0.770000   0.010019   -0.020440
 0.775000   0.009919   -0.019654
 0.780000   0.009823   -0.018747
 0.785000   0.009731   -0.017789
 0.790000   0.009645   -0.016799
 0.795000   0.009563   -0.015803
 0.800000   0.009487   -0.014811
 0.805000   0.009415   -0.013841
 0.810000   0.009348   -0.012971
 0.815000   0.009285   -0.012228
 0.820000   0.009226   -0.011578
 0.825000   0.009170   -0.011024
 0.830000   0.009116   -0.010564
 0.835000   0.009064   -0.010185
 0.840000   0.009014   -0.009850
 0.845000   0.008965   -0.009527
 0.850000   0.008919   -0.009213
 0.855000   0.008873   -0.008912
 0.860000   0.008829   -0.008627
 0.865000   0.008787   -0.008361
 0.870000   0.008746   -0.008143
 0.875000   0.008706   -0.008010
 0.880000   0.008666   -0.007970
 0.885000   0.008626   -0.008030
 0.890000   0.008585   -0.008197
 0.895000   0.008544   -0.008517
 0.900000   0.008500   -0.008997
 0.905000   0.008454   -0.009643
 0.910000   0.008404   -0.010529
 0.915000   0.008349   -0.011710
 0.920000   0.008287   -0.013263
 0.925000   0.008216   -0.015513
 0.930000   0.008132   -0.018571
 0.935000   0.008030   -0.022451
 0.940000   0.007907   -0.027495
 0.945000   0.007755   -0.034034
 0.950000   0.007567   -0.042390
 0.955000   0.007331   -0.053352
 0.960000   0.007033   -0.066579
 0.965000   0.006666   -0.080877
 0.970000   0.006225   -0.095398
 0.975000   0.005712   -0.108522
 0.980000   0.005139   -0.118205
 0.985000   0.004530   -0.123126
 0.990000   0.003908   -0.121829
 0.995000   0.003311   -0.113939
 1.000000   0.002769   -0.103155
201 psinorm vtor1(km/s) dvtor1/dpsiN
 0.000000   96.324133   492.801655
 0.005000   98.235130   271.597155
 0.010000   99.040104   141.516019
 0.015000   99.650290   111.304744
 0.020000   100.153152   93.415774
 0.025000   100.584448   81.375998
 0.030000   100.966912   72.410747
 0.035000   101.308555   64.365505
 0.040000   101.610567   57.150436
 0.045000   101.880060   50.845943
 0.050000   102.119026   44.786651
 0.055000   102.327926   38.811542
 0.060000   102.507142   33.154041
 0.065000   102.659466   27.885440
 0.070000   102.785996   22.779318
 0.075000   102.887260   17.894350
 0.080000   102.964940   13.280664
 0.085000   103.020066   8.880993
 0.090000   103.053749   4.608954
 0.095000   103.066156   0.579639
 0.100000   103.059546   -3.067681
 0.105000   103.035479   -6.652236
 0.110000   102.993023   -10.336018
 0.115000   102.932119   -13.993701
 0.120000   102.853086   -17.617210
 0.125000   102.755947   -21.261844
 0.130000   102.640468   -24.871550
 0.135000   102.507231   -28.487064
 0.140000   102.355597   -32.217395
 0.145000   102.185057   -36.012271
 0.150000   101.995475   -39.791563
 0.155000   101.787142   -43.502422
 0.160000   101.560450   -47.144924
 0.165000   101.315692   -50.676799
 0.170000   101.053682   -54.082989
 0.175000   100.774863   -57.400110
 0.180000   100.479681   -60.617585
 0.185000   100.168687   -63.674900
 0.190000   99.842932   -66.493712
 0.195000   99.503750   -69.035676
 0.200000   99.152576   -71.328187
 0.205000   98.790468   -73.386649
 0.210000   98.418709   -75.208198
 0.215000   98.038386   -76.838154
 0.220000   97.650328   -78.263840
 0.225000   97.255747   -79.490234
 0.230000   96.855425   -80.634221
 0.235000   96.449405   -81.653568
 0.240000   96.038890   -82.399901
 0.245000   95.625406   -82.832237
 0.250000   95.210567   -82.935342
 0.255000   94.796053   -82.606856
 0.260000   94.384499   -81.995526
 0.265000   93.976097   -81.270189
 0.270000   93.571797   -80.369246
 0.275000   93.172405   -79.313486
 0.280000   92.778662   -78.125128
 0.285000   92.391154   -76.741353
 0.290000   92.011248   -75.264834
 0.295000   91.638505   -73.786199
 0.300000   91.273386   -72.235964
 0.305000   90.916146   -70.651155
 0.310000   90.566875   -69.054326
 0.315000   90.225602   -67.429828
 0.320000   89.892577   -65.856071
 0.325000   89.567042   -64.320975
 0.330000   89.249367   -62.698402
 0.335000   88.940058   -60.979148
 0.340000   88.639575   -59.169332
 0.345000   88.348364   -57.219751
 0.350000   88.067378   -55.191994
 0.355000   87.796444   -53.182887
 0.360000   87.535549   -51.174914
 0.365000   87.284695   -49.158043
 0.370000   87.043968   -47.141010
 0.375000   86.813285   -45.142581
 0.380000   86.592543   -43.195374
 0.385000   86.381331   -41.305065
 0.390000   86.179492   -39.443964
 0.395000   85.986892   -37.604241
 0.400000   85.803450   -35.765131
 0.405000   85.629241   -33.904869
 0.410000   85.464401   -32.029722
 0.415000   85.308943   -30.153085
 0.420000   85.162870   -28.270639
 0.425000   85.026237   -26.390178
 0.430000   84.898968   -24.540227
 0.435000   84.780835   -22.751535
 0.440000   84.671453   -21.073734
 0.445000   84.570097   -19.525198
 0.450000   84.476201   -18.074714
 0.455000   84.389350   -16.690733
 0.460000   84.309294   -15.355705
 0.465000   84.235793   -14.091959
 0.470000   84.168374   -12.871699
 0.475000   84.107076   -11.604417
 0.480000   84.052330   -10.286100
 0.485000   84.004215   -8.941469
 0.490000   83.962915   -7.569242
 0.495000   83.928523   -6.197059
 0.500000   83.900945   -4.833503
 0.505000   83.880188   -3.456674
 0.510000   83.866378   -2.095501
 0.515000   83.859233   -0.799137
 0.520000   83.858386   0.407823
 0.525000   83.863311   1.501544
 0.530000   83.873402   2.464112
 0.535000   83.887952   3.231872
 0.540000   83.905721   3.747192
 0.545000   83.925424   4.001448
 0.550000   83.945735   3.972488
 0.555000   83.965149   3.625361
 0.560000   83.981989   2.876821
 0.565000   83.993917   1.703627
 0.570000   83.999025   0.072835
 0.575000   83.994645   -2.148980
 0.580000   83.977535   -5.086054
 0.585000   83.943785   -8.878968
 0.590000   83.888746   -13.803925
 0.595000   83.805746   -19.867896
 0.600000   83.690067   -27.028273
 0.605000   83.535463   -35.459798
 0.610000   83.335469   -45.149532
 0.615000   83.083968   -55.985103
 0.620000   82.775618   -67.753979
 0.625000   82.406428   -80.039302
 0.630000   81.975225   -92.586289
 0.635000   81.480565   -105.294221
 0.640000   80.922282   -117.895862
 0.645000   80.301606   -130.114911
 0.650000   79.621133   -141.365828
 0.655000   78.887948   -151.542358
 0.660000   78.105710   -160.868063
 0.665000   77.279267   -169.163553
 0.670000   76.414074   -176.422057
 0.675000   75.515047   -182.801836
 0.680000   74.586056   -188.395173
 0.685000   73.631095   -193.977751
 0.690000   72.646278   -200.199391
 0.695000   71.629101   -206.890035
 0.700000   70.577378   -214.053471
 0.705000   69.488566   -221.724291
 0.710000   68.360135   -230.199574
 0.715000   67.186571   -238.883178
 0.720000   65.971303   -246.308304
 0.725000   64.723488   -251.917553
 0.730000   63.452128   -255.593690
 0.735000   62.167551   -257.115814
 0.740000   60.880970   -256.368563
 0.745000   59.603865   -253.080294
 0.750000   58.350167   -247.176930
 0.755000   57.132096   -239.067662
 0.760000   55.959490   -229.238989
 0.765000   54.839706   -218.218959
 0.770000   53.777300   -206.608822
 0.775000   52.773618   -195.080351
 0.780000   51.826497   -183.856309
 0.785000   50.935055   -172.751197
 0.790000   50.098985   -161.704754
 0.795000   49.318007   -150.721192
 0.800000   48.591773   -139.932298
 0.805000   47.918684   -129.383433
 0.810000   47.297939   -118.806418
 0.815000   46.730620   -108.541460
 0.820000   46.212524   -99.409259
 0.825000   45.736527   -91.977147
 0.830000   45.292753   -86.795973
 0.835000   44.868568   -84.359124
 0.840000   44.449161   -84.951402
 0.845000   44.019054   -88.861637
 0.850000   43.560545   -96.417660
 0.855000   43.054877   -107.816876
 0.860000   42.482376   -123.300564
 0.865000   41.821871   -143.493501
 0.870000   41.047441   -168.529044
 0.875000   40.136581   -198.175999
 0.880000   39.065681   -232.430333
 0.885000   37.812278   -270.886169
 0.890000   36.356819   -312.750469
 0.895000   34.684773   -357.807177
 0.900000   32.778748   -402.438968
 0.905000   30.660383   -442.429473
 0.910000   28.354453   -475.914651
 0.915000   25.901237   -499.784024
 0.920000   23.356613   -511.073808
 0.925000   20.790499   -507.850907
 0.930000   18.278104   -487.602774
 0.935000   15.914471   -449.584327
 0.940000   13.782260   -396.209303
 0.945000   11.952378   -330.586751
 0.950000   10.476393   -257.248608
 0.955000   9.379892   -181.528898
 0.960000   8.661104   -109.716250
 0.965000   8.282729   -47.468284
 0.970000   8.186421   1.869938
 0.975000   8.301429   36.616948
 0.980000   8.552591   56.635701
 0.985000   8.867786   62.912306
 0.990000   9.181714   57.724675
 0.995000   9.445032   43.928726
 1.000000   9.621001   26.458668
201 psinorm vpol1(km/s) dvpol1/dpsiN
 0.000000   0.000141   6.390625
 0.005000   0.035141   7.609375
 0.010000   0.076234   8.796875
 0.015000   0.123109   9.898437
 0.020000   0.175219   10.876562
 0.025000   0.231875   11.667188
 0.030000   0.291891   12.214063
 0.035000   0.354016   12.570312
 0.040000   0.417594   12.821875
 0.045000   0.482234   13.004688
 0.050000   0.547641   13.154688
 0.055000   0.613781   13.351563
 0.060000   0.681156   13.612500
 0.065000   0.749906   13.909375
 0.070000   0.820250   14.196875
 0.075000   0.891875   14.409375
 0.080000   0.964344   14.550000
 0.085000   1.037375   14.592187
 0.090000   1.110266   14.478125
 0.095000   1.182156   14.243750
 0.100000   1.252703   13.871875
 0.105000   1.320875   13.384375
 0.110000   1.386547   12.818750
 0.115000   1.449062   12.159375
 0.120000   1.508141   11.496875
 0.125000   1.564031   10.912500
 0.130000   1.617266   10.404687
 0.135000   1.668078   9.934375
 0.140000   1.716609   9.489063
 0.145000   1.762969   9.078125
 0.150000   1.807391   8.664062
 0.155000   1.849609   8.145312
 0.160000   1.888844   7.539062
 0.165000   1.925000   6.873437
 0.170000   1.957578   6.120313
 0.175000   1.986203   5.312500
 0.180000   2.010703   4.468750
 0.185000   2.030891   3.581250
 0.190000   2.046516   2.684375
 0.195000   2.057734   1.776562
 0.200000   2.064281   0.910938
 0.205000   2.066844   0.082812
 0.210000   2.065109   -0.728125
 0.215000   2.059563   -1.459375
 0.220000   2.050516   -2.154688
 0.225000   2.038016   -2.873437
 0.230000   2.021781   -3.628125
 0.235000   2.001734   -4.418750
 0.240000   1.977594   -5.256250
 0.245000   1.949172   -6.129687
 0.250000   1.916297   -7.031250
 0.255000   1.878859   -7.959375
 0.260000   1.836703   -8.903125
 0.265000   1.789828   -9.806250
 0.270000   1.738641   -10.664062
 0.275000   1.683188   -11.478125
 0.280000   1.623859   -12.226562
 0.285000   1.560922   -12.923438
 0.290000   1.494625   -13.568750
 0.295000   1.425234   -14.165625
 0.300000   1.352969   -14.734375
 0.305000   1.277891   -15.307812
 0.310000   1.199891   -15.882812
 0.315000   1.119063   -16.448437
 0.320000   1.035406   -17.025000
 0.325000   0.948813   -17.634375
 0.330000   0.859063   -18.273437
 0.335000   0.766078   -18.892187
 0.340000   0.670141   -19.450000
 0.345000   0.571578   -19.937500
 0.350000   0.470766   -20.279688
 0.355000   0.368781   -20.479688
 0.360000   0.265969   -20.575000
 0.365000   0.163031   -20.585937
 0.370000   0.060109   -20.510937
 0.375000   -0.042078   -20.370312
 0.380000   -0.143594   -20.165625
 0.385000   -0.243734   -19.956250
 0.390000   -0.343156   -19.823437
 0.395000   -0.441969   -19.712500
 0.400000   -0.540281   -19.660937
 0.405000   -0.638578   -19.643750
 0.410000   -0.736719   -19.626562
 0.415000   -0.834844   -19.617188
 0.420000   -0.932891   -19.648438
 0.425000   -1.031328   -19.810937
 0.430000   -1.131000   -20.214063
 0.435000   -1.233469   -20.981250
 0.440000   -1.340812   -22.214062
 0.445000   -1.455609   -23.653125
 0.450000   -1.577344   -25.042187
 0.455000   -1.706031   -26.335938
 0.460000   -1.840703   -27.434375
 0.465000   -1.980375   -28.295312
 0.470000   -2.123656   -28.753125
 0.475000   -2.267906   -28.542188
 0.480000   -2.409078   -27.671875
 0.485000   -2.544625   -26.317187
 0.490000   -2.672250   -24.504688
 0.495000   -2.789672   -22.303125
 0.500000   -2.895281   -19.793750
 0.505000   -2.987609   -17.257812
 0.510000   -3.067859   -14.890625
 0.515000   -3.136516   -12.675000
 0.520000   -3.194609   -10.729688
 0.525000   -3.243813   -9.025000
 0.530000   -3.284859   -7.585938
 0.535000   -3.319672   -6.525000
 0.540000   -3.350109   -5.735937
 0.545000   -3.377031   -5.087500
 0.550000   -3.400984   -4.548437
 0.555000   -3.422516   -4.095312
 0.560000   -3.441937   -3.625000
 0.565000   -3.458766   -3.025000
 0.570000   -3.472187   -2.284375
 0.575000   -3.481609   -1.360937
 0.580000   -3.485797   -0.267187
 0.585000   -3.484281   0.962500
 0.590000   -3.476172   2.310937
 0.595000   -3.461172   3.646875
 0.600000   -3.439703   4.873437
 0.605000   -3.412438   5.926562
 0.610000   -3.380438   6.718750
 0.615000   -3.345250   7.157812
 0.620000   -3.308859   7.268750
 0.625000   -3.272563   7.135937
 0.630000   -3.237500   6.810938
 0.635000   -3.204453   6.335938
 0.640000   -3.174141   5.768750
 0.645000   -3.146766   5.176563
 0.650000   -3.122375   4.665625
 0.655000   -3.100109   4.240625
 0.660000   -3.079969   3.890625
 0.665000   -3.061203   3.598437
 0.670000   -3.043984   3.298437
 0.675000   -3.028219   3.012500
 0.680000   -3.013859   2.675000
 0.685000   -3.001469   2.320312
 0.690000   -2.990656   1.964062
 0.695000   -2.981828   1.582813
 0.700000   -2.974828   1.170313
 0.705000   -2.970125   0.684375
 0.710000   -2.967984   0.064063
 0.715000   -2.969484   -0.806250
 0.720000   -2.976047   -1.973438
 0.725000   -2.989219   -3.495312
 0.730000   -3.011000   -5.434375
 0.735000   -3.043563   -7.771875
 0.740000   -3.088719   -10.360937
 0.745000   -3.147172   -13.056250
 0.750000   -3.219281   -15.704687
 0.755000   -3.304219   -18.107812
 0.760000   -3.400359   -19.965625
 0.765000   -3.503875   -21.089063
 0.770000   -3.611250   -21.537500
 0.775000   -3.719250   -21.375000
 0.780000   -3.825000   -20.732812
 0.785000   -3.926578   -19.831250
 0.790000   -4.023313   -18.939062
 0.795000   -4.115969   -18.573438
 0.800000   -4.209047   -18.917187
 0.805000   -4.305141   -19.739062
 0.810000   -4.406438   -20.887500
 0.815000   -4.514016   -22.168750
 0.820000   -4.628125   -23.396875
 0.825000   -4.747984   -23.893750
 0.830000   -4.867063   -23.248438
 0.835000   -4.980469   -21.610156
 0.840000   -5.083164   -19.015625
 0.845000   -5.170625   -15.593750
 0.850000   -5.239102   -11.552344
 0.855000   -5.286148   -7.072656
 0.860000   -5.309828   -2.289844
 0.865000   -5.309047   2.655469
 0.870000   -5.283273   7.662500
 0.875000   -5.232422   12.620313
 0.880000   -5.157070   17.418750
 0.885000   -5.058234   21.989844
 0.890000   -4.937172   26.277344
 0.895000   -4.795461   30.221094
 0.900000   -4.634961   33.760156
 0.905000   -4.457859   36.806250
 0.910000   -4.266898   39.217969
 0.915000   -4.065680   40.884375
 0.920000   -3.858055   41.853125
 0.925000   -3.647148   42.282812
 0.930000   -3.435227   42.398438
 0.935000   -3.223164   43.057812
 0.940000   -3.004648   44.886719
 0.945000   -2.774297   46.197656
 0.950000   -2.542672   43.644531
 0.955000   -2.337852   32.773438
 0.960000   -2.214938   8.067188
 0.965000   -2.257180   -34.590625
 0.970000   -2.560844   -84.339844
 0.975000   -3.100578   -97.659375
 0.980000   -3.537438   -3.363281
 0.985000   -3.134211   250.998437
 0.990000   -1.027453   612.886719
 0.995000   2.994656   873.711328
 1.000000   7.709660   1012.290234
3 N Z A of ION SPECIES
 6.000000   6.000000   12.010700
 1.000000   1.000000   2.000000
 1.000000   1.000000   2.000000
