201 psinorm ne(10^20/m^3) dne/dpsiN
 0.000000   0.509958   -0.503652
 0.005000   0.507451   -0.499092
 0.010000   0.504967   -0.494554
 0.015000   0.502505   -0.490058
 0.020000   0.500066   -0.485604
 0.025000   0.497649   -0.481192
 0.030000   0.495254   -0.476821
 0.035000   0.492881   -0.472490
 0.040000   0.490530   -0.468201
 0.045000   0.488199   -0.463950
 0.050000   0.485890   -0.459740
 0.055000   0.483602   -0.455568
 0.060000   0.481334   -0.451434
 0.065000   0.479087   -0.447339
 0.070000   0.476861   -0.443281
 0.075000   0.474655   -0.439260
 0.080000   0.472468   -0.435276
 0.085000   0.470302   -0.431329
 0.090000   0.468155   -0.427417
 0.095000   0.466028   -0.423541
 0.100000   0.463920   -0.419700
 0.105000   0.461831   -0.415894
 0.110000   0.459761   -0.412122
 0.115000   0.457710   -0.408384
 0.120000   0.455677   -0.404679
 0.125000   0.453663   -0.401008
 0.130000   0.451667   -0.397369
 0.135000   0.449689   -0.393763
 0.140000   0.447729   -0.390189
 0.145000   0.445787   -0.386647
 0.150000   0.443863   -0.383136
 0.155000   0.441956   -0.379655
 0.160000   0.440066   -0.376206
 0.165000   0.438194   -0.372787
 0.170000   0.436338   -0.369398
 0.175000   0.434500   -0.366038
 0.180000   0.432678   -0.362708
 0.185000   0.430873   -0.359407
 0.190000   0.429084   -0.356134
 0.195000   0.427311   -0.352889
 0.200000   0.425555   -0.349673
 0.205000   0.423815   -0.346484
 0.210000   0.422090   -0.343323
 0.215000   0.420381   -0.340188
 0.220000   0.418688   -0.337081
 0.225000   0.417011   -0.334000
 0.230000   0.415348   -0.330945
 0.235000   0.413701   -0.327916
 0.240000   0.412069   -0.324912
 0.245000   0.410452   -0.321934
 0.250000   0.408850   -0.318980
 0.255000   0.407262   -0.316052
 0.260000   0.405689   -0.313147
 0.265000   0.404131   -0.310267
 0.270000   0.402587   -0.307411
 0.275000   0.401057   -0.304579
 0.280000   0.399541   -0.301769
 0.285000   0.398039   -0.298983
 0.290000   0.396551   -0.296220
 0.295000   0.395077   -0.293479
 0.300000   0.393616   -0.290761
 0.305000   0.392169   -0.288065
 0.310000   0.390735   -0.285390
 0.315000   0.389315   -0.282737
 0.320000   0.387908   -0.280106
 0.325000   0.386514   -0.277495
 0.330000   0.385133   -0.274905
 0.335000   0.383765   -0.272336
 0.340000   0.382410   -0.269788
 0.345000   0.381067   -0.267259
 0.350000   0.379737   -0.264751
 0.355000   0.378420   -0.262262
 0.360000   0.377115   -0.259792
 0.365000   0.375822   -0.257342
 0.370000   0.374541   -0.254911
 0.375000   0.373273   -0.252499
 0.380000   0.372016   -0.250105
 0.385000   0.370772   -0.247730
 0.390000   0.369539   -0.245372
 0.395000   0.368318   -0.243033
 0.400000   0.367109   -0.240712
 0.405000   0.365911   -0.238408
 0.410000   0.364724   -0.236122
 0.415000   0.363550   -0.233852
 0.420000   0.362386   -0.231600
 0.425000   0.361234   -0.229365
 0.430000   0.360092   -0.227146
 0.435000   0.358962   -0.224943
 0.440000   0.357843   -0.222757
 0.445000   0.356735   -0.220586
 0.450000   0.355637   -0.218432
 0.455000   0.354550   -0.216293
 0.460000   0.353474   -0.214170
 0.465000   0.352409   -0.212062
 0.470000   0.351353   -0.209969
 0.475000   0.350309   -0.207891
 0.480000   0.349275   -0.205828
 0.485000   0.348251   -0.203779
 0.490000   0.347237   -0.201745
 0.495000   0.346233   -0.199725
 0.500000   0.345240   -0.197719
 0.505000   0.344256   -0.195727
 0.510000   0.343282   -0.193749
 0.515000   0.342318   -0.191785
 0.520000   0.341364   -0.189834
 0.525000   0.340420   -0.187896
 0.530000   0.339485   -0.185971
 0.535000   0.338560   -0.184060
 0.540000   0.337645   -0.182161
 0.545000   0.336739   -0.180274
 0.550000   0.335842   -0.178401
 0.555000   0.334955   -0.176539
 0.560000   0.334077   -0.174690
 0.565000   0.333208   -0.172853
 0.570000   0.332348   -0.171028
 0.575000   0.331498   -0.169215
 0.580000   0.330656   -0.167413
 0.585000   0.329823   -0.165623
 0.590000   0.329000   -0.163844
 0.595000   0.328185   -0.162076
 0.600000   0.327379   -0.160319
 0.605000   0.326582   -0.158574
 0.610000   0.325793   -0.156839
 0.615000   0.325013   -0.155115
 0.620000   0.324242   -0.153401
 0.625000   0.323479   -0.151697
 0.630000   0.322725   -0.150004
 0.635000   0.321979   -0.148321
 0.640000   0.321242   -0.146648
 0.645000   0.320513   -0.144985
 0.650000   0.319792   -0.143331
 0.655000   0.319080   -0.141686
 0.660000   0.318375   -0.140051
 0.665000   0.317679   -0.138425
 0.670000   0.316991   -0.136808
 0.675000   0.316311   -0.135200
 0.680000   0.315639   -0.133600
 0.685000   0.314975   -0.132008
 0.690000   0.314319   -0.130423
 0.695000   0.313671   -0.128846
 0.700000   0.313030   -0.127276
 0.705000   0.312398   -0.125712
 0.710000   0.311773   -0.124153
 0.715000   0.311156   -0.122599
 0.720000   0.310547   -0.121048
 0.725000   0.309946   -0.119499
 0.730000   0.309352   -0.117950
 0.735000   0.308766   -0.116398
 0.740000   0.308188   -0.114842
 0.745000   0.307618   -0.113276
 0.750000   0.307056   -0.111698
 0.755000   0.306501   -0.110100
 0.760000   0.305955   -0.108475
 0.765000   0.305416   -0.106814
 0.770000   0.304886   -0.105106
 0.775000   0.304365   -0.103334
 0.780000   0.303853   -0.101482
 0.785000   0.303350   -0.099524
 0.790000   0.302858   -0.097431
 0.795000   0.302376   -0.095166
 0.800000   0.301906   -0.092682
 0.805000   0.301449   -0.089921
 0.810000   0.301007   -0.086811
 0.815000   0.300581   -0.083264
 0.820000   0.300174   -0.079168
 0.825000   0.299790   -0.074391
 0.830000   0.299430   -0.068770
 0.835000   0.299102   -0.062109
 0.840000   0.298809   -0.054176
 0.845000   0.298560   -0.044699
 0.850000   0.298362   -0.033368
 0.855000   0.298226   -0.019837
 0.860000   0.298164   -0.003736
 0.865000   0.298189   0.015302
 0.870000   0.298317   0.037592
 0.875000   0.298565   0.063320
 0.880000   0.298950   0.092408
 0.885000   0.299489   0.124300
 0.890000   0.300193   0.157634
 0.895000   0.301065   0.189745
 0.900000   0.302091   0.215943
 0.905000   0.303225   0.228526
 0.910000   0.304376   0.215545
 0.915000   0.305380   0.159495
 0.920000   0.305971   0.036515
 0.925000   0.305745   -0.182759
 0.930000   0.304143   -0.528733
 0.935000   0.300458   -1.022652
 0.940000   0.293917   -1.660296
 0.945000   0.283855   -2.394579
 0.950000   0.269971   -3.129336
 0.955000   0.252562   -3.738042
 0.960000   0.232591   -4.107674
 0.965000   0.211485   -4.184967
 0.970000   0.190741   -3.994104
 0.975000   0.171544   -3.615676
 0.980000   0.154584   -3.146192
 0.985000   0.140082   -2.665212
 0.990000   0.127932   -2.222375
 0.995000   0.117858   -1.840144
 1.000000   0.109531   -1.490943
201 psinorm te(KeV) dte/dpsiN
 0.000000   4.176068   -4.331191
 0.005000   4.154413   -4.331090
 0.010000   4.132757   -4.330872
 0.015000   4.111104   -4.330422
 0.020000   4.089453   -4.329740
 0.025000   4.067806   -4.328829
 0.030000   4.046165   -4.327688
 0.035000   4.024530   -4.326320
 0.040000   4.002902   -4.324726
 0.045000   3.981282   -4.322908
 0.050000   3.959673   -4.320866
 0.055000   3.938074   -4.318602
 0.060000   3.916487   -4.316117
 0.065000   3.894912   -4.313413
 0.070000   3.873352   -4.310491
 0.075000   3.851808   -4.307353
 0.080000   3.830279   -4.304000
 0.085000   3.808768   -4.300434
 0.090000   3.787275   -4.296656
 0.095000   3.765801   -4.292667
 0.100000   3.744348   -4.288470
 0.105000   3.722916   -4.284065
 0.110000   3.701507   -4.279454
 0.115000   3.680122   -4.274639
 0.120000   3.658761   -4.269622
 0.125000   3.637426   -4.264403
 0.130000   3.616117   -4.258984
 0.135000   3.594836   -4.253368
 0.140000   3.573583   -4.247556
 0.145000   3.552360   -4.241548
 0.150000   3.531168   -4.235348
 0.155000   3.510007   -4.228957
 0.160000   3.488878   -4.222375
 0.165000   3.467783   -4.215606
 0.170000   3.446722   -4.208650
 0.175000   3.425696   -4.201510
 0.180000   3.404707   -4.194187
 0.185000   3.383754   -4.186682
 0.190000   3.362840   -4.178998
 0.195000   3.341965   -4.171136
 0.200000   3.321129   -4.163098
 0.205000   3.300334   -4.154886
 0.210000   3.279580   -4.146501
 0.215000   3.258869   -4.137946
 0.220000   3.238200   -4.129221
 0.225000   3.217576   -4.120330
 0.230000   3.196997   -4.111273
 0.235000   3.176464   -4.102052
 0.240000   3.155977   -4.092669
 0.245000   3.135537   -4.083126
 0.250000   3.115145   -4.073425
 0.255000   3.094803   -4.063568
 0.260000   3.074510   -4.053556
 0.265000   3.054267   -4.043391
 0.270000   3.034076   -4.033075
 0.275000   3.013936   -4.022610
 0.280000   2.993850   -4.011998
 0.285000   2.973816   -4.001241
 0.290000   2.953837   -3.990339
 0.295000   2.933913   -3.979296
 0.300000   2.914044   -3.968113
 0.305000   2.894232   -3.956792
 0.310000   2.874476   -3.945335
 0.315000   2.854778   -3.933744
 0.320000   2.835139   -3.922020
 0.325000   2.815558   -3.910165
 0.330000   2.796037   -3.898181
 0.335000   2.776576   -3.886071
 0.340000   2.757177   -3.873836
 0.345000   2.737838   -3.861477
 0.350000   2.718562   -3.848997
 0.355000   2.699348   -3.836398
 0.360000   2.680198   -3.823681
 0.365000   2.661111   -3.810848
 0.370000   2.642089   -3.797902
 0.375000   2.623132   -3.784843
 0.380000   2.604241   -3.771674
 0.385000   2.585416   -3.758397
 0.390000   2.566657   -3.745014
 0.395000   2.547965   -3.731526
 0.400000   2.529342   -3.717935
 0.405000   2.510786   -3.704243
 0.410000   2.492299   -3.690453
 0.415000   2.473882   -3.676565
 0.420000   2.455534   -3.662581
 0.425000   2.437256   -3.648505
 0.430000   2.419049   -3.634336
 0.435000   2.400912   -3.620078
 0.440000   2.382848   -3.605732
 0.445000   2.364855   -3.591299
 0.450000   2.346935   -3.576782
 0.455000   2.329087   -3.562183
 0.460000   2.311313   -3.547503
 0.465000   2.293612   -3.532744
 0.470000   2.275985   -3.517907
 0.475000   2.258433   -3.502996
 0.480000   2.240956   -3.488011
 0.485000   2.223553   -3.472954
 0.490000   2.206226   -3.457826
 0.495000   2.188975   -3.442631
 0.500000   2.171800   -3.427369
 0.505000   2.154701   -3.412043
 0.510000   2.137679   -3.396653
 0.515000   2.120735   -3.381202
 0.520000   2.103867   -3.365692
 0.525000   2.087078   -3.350124
 0.530000   2.070366   -3.334500
 0.535000   2.053733   -3.318821
 0.540000   2.037178   -3.303090
 0.545000   2.020702   -3.287308
 0.550000   2.004305   -3.271477
 0.555000   1.987987   -3.255598
 0.560000   1.971749   -3.239673
 0.565000   1.955590   -3.223704
 0.570000   1.939512   -3.207692
 0.575000   1.923513   -3.191639
 0.580000   1.907595   -3.175547
 0.585000   1.891758   -3.159418
 0.590000   1.876001   -3.143252
 0.595000   1.860325   -3.127051
 0.600000   1.844731   -3.110818
 0.605000   1.829217   -3.094554
 0.610000   1.813785   -3.078260
 0.615000   1.798435   -3.061937
 0.620000   1.783166   -3.045588
 0.625000   1.767979   -3.029214
 0.630000   1.752874   -3.012817
 0.635000   1.737850   -2.996398
 0.640000   1.722910   -2.979958
 0.645000   1.708051   -2.963499
 0.650000   1.693275   -2.947023
 0.655000   1.678581   -2.930530
 0.660000   1.663969   -2.914023
 0.665000   1.649440   -2.897504
 0.670000   1.634994   -2.880972
 0.675000   1.620631   -2.864430
 0.680000   1.606350   -2.847880
 0.685000   1.592152   -2.831322
 0.690000   1.578037   -2.814759
 0.695000   1.564004   -2.798191
 0.700000   1.550055   -2.781619
 0.705000   1.536188   -2.765046
 0.710000   1.522404   -2.748472
 0.715000   1.508703   -2.731900
 0.720000   1.495085   -2.715329
 0.725000   1.481550   -2.698762
 0.730000   1.468098   -2.682200
 0.735000   1.454728   -2.665644
 0.740000   1.441441   -2.649095
 0.745000   1.428237   -2.632554
 0.750000   1.415116   -2.616024
 0.755000   1.402077   -2.599504
 0.760000   1.389121   -2.582996
 0.765000   1.376247   -2.566500
 0.770000   1.363456   -2.550019
 0.775000   1.350747   -2.533552
 0.780000   1.338120   -2.517099
 0.785000   1.325576   -2.500662
 0.790000   1.313114   -2.484240
 0.795000   1.300733   -2.467832
 0.800000   1.288435   -2.451437
 0.805000   1.276219   -2.435053
 0.810000   1.264085   -2.418677
 0.815000   1.252032   -2.402302
 0.820000   1.240062   -2.385923
 0.825000   1.228173   -2.369528
 0.830000   1.216366   -2.353106
 0.835000   1.204642   -2.336638
 0.840000   1.193000   -2.320103
 0.845000   1.181441   -2.303474
 0.850000   1.169965   -2.286720
 0.855000   1.158574   -2.269809
 0.860000   1.147267   -2.252714
 0.865000   1.136047   -2.235426
 0.870000   1.124913   -2.217977
 0.875000   1.113867   -2.200486
 0.880000   1.102908   -2.183234
 0.885000   1.092034   -2.166797
 0.890000   1.081240   -2.152271
 0.895000   1.070512   -2.141643
 0.900000   1.059824   -2.138409
 0.905000   1.049128   -2.148576
 0.910000   1.038338   -2.182273
 0.915000   1.027305   -2.256310
 0.920000   1.015775   -2.398123
 0.925000   1.003324   -2.651662
 0.930000   0.989258   -3.085606
 0.935000   0.972468   -3.803415
 0.940000   0.951224   -4.951972
 0.945000   0.922948   -6.718845
 0.950000   0.884036   -9.295572
 0.955000   0.829992   -12.769745
 0.960000   0.756338   -16.918547
 0.965000   0.660807   -20.972345
 0.970000   0.546615   -23.621726
 0.975000   0.424589   -23.605192
 0.980000   0.310563   -20.671990
 0.985000   0.217870   -15.934405
 0.990000   0.151219   -11.054461
 0.995000   0.107325   -7.148946
 1.000000   0.079729   -3.889347
201 psinorm ni(10^20/m^3) dni/dpsiN
 0.000000   0.316301   -0.620947
 0.005000   0.313474   -0.510071
 0.010000   0.311201   -0.418883
 0.015000   0.309285   -0.353694
 0.020000   0.307664   -0.299361
 0.025000   0.306291   -0.252221
 0.030000   0.305141   -0.211419
 0.035000   0.304177   -0.177310
 0.040000   0.303368   -0.148157
 0.045000   0.302696   -0.122999
 0.050000   0.302138   -0.102373
 0.055000   0.301672   -0.085421
 0.060000   0.301284   -0.071187
 0.065000   0.300960   -0.059788
 0.070000   0.300686   -0.050914
 0.075000   0.300451   -0.044138
 0.080000   0.300245   -0.039253
 0.085000   0.300058   -0.036123
 0.090000   0.299884   -0.034790
 0.095000   0.299710   -0.034797
 0.100000   0.299536   -0.035660
 0.105000   0.299354   -0.037508
 0.110000   0.299161   -0.040224
 0.115000   0.298952   -0.044116
 0.120000   0.298719   -0.048629
 0.125000   0.298465   -0.053270
 0.130000   0.298187   -0.058318
 0.135000   0.297882   -0.063714
 0.140000   0.297550   -0.069378
 0.145000   0.297188   -0.075207
 0.150000   0.296798   -0.081152
 0.155000   0.296377   -0.087158
 0.160000   0.295926   -0.093149
 0.165000   0.295445   -0.099085
 0.170000   0.294935   -0.104946
 0.175000   0.294396   -0.110696
 0.180000   0.293828   -0.116306
 0.185000   0.293233   -0.121751
 0.190000   0.292611   -0.127009
 0.195000   0.291963   -0.132073
 0.200000   0.291290   -0.137077
 0.205000   0.290592   -0.142208
 0.210000   0.289868   -0.146995
 0.215000   0.289122   -0.151229
 0.220000   0.288356   -0.155217
 0.225000   0.287570   -0.158948
 0.230000   0.286766   -0.162433
 0.235000   0.285945   -0.165711
 0.240000   0.285109   -0.168926
 0.245000   0.284256   -0.172332
 0.250000   0.283386   -0.175374
 0.255000   0.282502   -0.177798
 0.260000   0.281608   -0.180050
 0.265000   0.280702   -0.182152
 0.270000   0.279786   -0.184193
 0.275000   0.278860   -0.186538
 0.280000   0.277921   -0.188644
 0.285000   0.276974   -0.190164
 0.290000   0.276019   -0.191585
 0.295000   0.275058   -0.192924
 0.300000   0.274090   -0.194513
 0.305000   0.273113   -0.196035
 0.310000   0.272129   -0.197095
 0.315000   0.271142   -0.198016
 0.320000   0.270149   -0.198863
 0.325000   0.269153   -0.199923
 0.330000   0.268150   -0.200839
 0.335000   0.267145   -0.201345
 0.340000   0.266137   -0.201832
 0.345000   0.265126   -0.202396
 0.350000   0.264113   -0.203067
 0.355000   0.263096   -0.203593
 0.360000   0.262077   -0.203948
 0.365000   0.261056   -0.204298
 0.370000   0.260034   -0.204815
 0.375000   0.259008   -0.205287
 0.380000   0.257981   -0.205519
 0.385000   0.256953   -0.205700
 0.390000   0.255924   -0.205956
 0.395000   0.254893   -0.206170
 0.400000   0.253862   -0.206147
 0.405000   0.252832   -0.205969
 0.410000   0.251803   -0.205750
 0.415000   0.250774   -0.205472
 0.420000   0.249748   -0.204999
 0.425000   0.248724   -0.204352
 0.430000   0.247704   -0.203650
 0.435000   0.246688   -0.202888
 0.440000   0.245675   -0.201958
 0.445000   0.244668   -0.200893
 0.450000   0.243666   -0.199810
 0.455000   0.242670   -0.198707
 0.460000   0.241679   -0.197475
 0.465000   0.240695   -0.196106
 0.470000   0.239718   -0.194685
 0.475000   0.238749   -0.193194
 0.480000   0.237786   -0.191516
 0.485000   0.236833   -0.189634
 0.490000   0.235890   -0.187636
 0.495000   0.234957   -0.185530
 0.500000   0.234035   -0.183222
 0.505000   0.233125   -0.180701
 0.510000   0.232228   -0.178052
 0.515000   0.231344   -0.175289
 0.520000   0.230475   -0.172336
 0.525000   0.229621   -0.169185
 0.530000   0.228783   -0.165915
 0.535000   0.227962   -0.162548
 0.540000   0.227158   -0.159014
 0.545000   0.226372   -0.155290
 0.550000   0.225605   -0.151428
 0.555000   0.224857   -0.147441
 0.560000   0.224130   -0.143276
 0.565000   0.223425   -0.138909
 0.570000   0.222741   -0.134382
 0.575000   0.222081   -0.129722
 0.580000   0.221444   -0.124903
 0.585000   0.220832   -0.119920
 0.590000   0.220245   -0.114823
 0.595000   0.219683   -0.109644
 0.600000   0.219148   -0.104386
 0.605000   0.218640   -0.099036
 0.610000   0.218158   -0.093604
 0.615000   0.217704   -0.088095
 0.620000   0.217277   -0.082490
 0.625000   0.216879   -0.076797
 0.630000   0.216509   -0.071044
 0.635000   0.216168   -0.065231
 0.640000   0.215857   -0.059363
 0.645000   0.215575   -0.053471
 0.650000   0.215322   -0.047570
 0.655000   0.215099   -0.041703
 0.660000   0.214905   -0.035914
 0.665000   0.214740   -0.030211
 0.670000   0.214603   -0.024561
 0.675000   0.214494   -0.018814
 0.680000   0.214415   -0.012554
 0.685000   0.214369   -0.005521
 0.690000   0.214359   0.002070
 0.695000   0.214389   0.010088
 0.700000   0.214460   0.018503
 0.705000   0.214574   0.027190
 0.710000   0.214732   0.036313
 0.715000   0.214937   0.045477
 0.720000   0.215187   0.053898
 0.725000   0.215476   0.061463
 0.730000   0.215802   0.068088
 0.735000   0.216157   0.073559
 0.740000   0.216537   0.077643
 0.745000   0.216934   0.079883
 0.750000   0.217336   0.080068
 0.755000   0.217734   0.078459
 0.760000   0.218121   0.075350
 0.765000   0.218488   0.071024
 0.770000   0.218831   0.065610
 0.775000   0.219144   0.059421
 0.780000   0.219425   0.053275
 0.785000   0.219677   0.047542
 0.790000   0.219901   0.042200
 0.795000   0.220099   0.037415
 0.800000   0.220275   0.033274
 0.805000   0.220432   0.029964
 0.810000   0.220574   0.027687
 0.815000   0.220708   0.026270
 0.820000   0.220837   0.025509
 0.825000   0.220963   0.025437
 0.830000   0.221091   0.026202
 0.835000   0.221226   0.028041
 0.840000   0.221372   0.031256
 0.845000   0.221538   0.036166
 0.850000   0.221733   0.043091
 0.855000   0.221969   0.052406
 0.860000   0.222258   0.064524
 0.865000   0.222614   0.079922
 0.870000   0.223057   0.099028
 0.875000   0.223604   0.121992
 0.880000   0.224277   0.148659
 0.885000   0.225091   0.178481
 0.890000   0.226061   0.210155
 0.895000   0.227193   0.241256
 0.900000   0.228474   0.267345
 0.905000   0.229866   0.281175
 0.910000   0.231286   0.271818
 0.915000   0.232584   0.223488
 0.920000   0.233521   0.115239
 0.925000   0.233737   -0.076009
 0.930000   0.232761   -0.373045
 0.935000   0.230006   -0.788347
 0.940000   0.224877   -1.306932
 0.945000   0.216937   -1.874355
 0.950000   0.206134   -2.396738
 0.955000   0.192970   -2.759770
 0.960000   0.178536   -2.899068
 0.965000   0.163979   -2.826795
 0.970000   0.150268   -2.602920
 0.975000   0.137950   -2.311512
 0.980000   0.127153   -2.018162
 0.985000   0.117768   -1.753407
 0.990000   0.109619   -1.523121
 0.995000   0.102537   -1.319590
 1.000000   0.096423   -1.126016
201 psinorm ti(KeV) dti/dpsiN
 0.000000   5.711372   0.003637
 0.005000   5.710491   -0.355872
 0.010000   5.707813   -0.720617
 0.015000   5.703285   -1.095287
 0.020000   5.696860   -1.478692
 0.025000   5.688498   -1.869446
 0.030000   5.678166   -2.265967
 0.035000   5.665838   -2.666530
 0.040000   5.651500   -3.068704
 0.045000   5.635151   -3.470807
 0.050000   5.616792   -3.871616
 0.055000   5.596435   -4.269211
 0.060000   5.574100   -4.662127
 0.065000   5.549814   -5.049353
 0.070000   5.523606   -5.429629
 0.075000   5.495517   -5.803359
 0.080000   5.465573   -6.170785
 0.085000   5.433810   -6.530346
 0.090000   5.400269   -6.881237
 0.095000   5.364997   -7.222897
 0.100000   5.328040   -7.554362
 0.105000   5.289454   -7.874995
 0.110000   5.249291   -8.184590
 0.115000   5.207608   -8.482822
 0.120000   5.164462   -8.769425
 0.125000   5.119913   -9.043703
 0.130000   5.074025   -9.303948
 0.135000   5.026874   -9.547609
 0.140000   4.978549   -9.773276
 0.145000   4.929141   -9.980503
 0.150000   4.878744   -10.168488
 0.155000   4.827456   -10.336387
 0.160000   4.775380   -10.482204
 0.165000   4.722634   -10.604579
 0.170000   4.669334   -10.705682
 0.175000   4.615577   -10.786712
 0.180000   4.561467   -10.847251
 0.185000   4.507105   -10.888094
 0.190000   4.452586   -10.909209
 0.195000   4.398013   -10.912935
 0.200000   4.343457   -10.906313
 0.205000   4.288950   -10.892307
 0.210000   4.234534   -10.870357
 0.215000   4.180246   -10.841673
 0.220000   4.126117   -10.808077
 0.225000   4.072165   -10.773112
 0.230000   4.018386   -10.734642
 0.235000   3.964819   -10.689061
 0.240000   3.911496   -10.636063
 0.245000   3.858458   -10.573237
 0.250000   3.805763   -10.498430
 0.255000   3.753474   -10.410403
 0.260000   3.701659   -10.302956
 0.265000   3.650444   -10.174258
 0.270000   3.599917   -10.028355
 0.275000   3.550161   -9.865548
 0.280000   3.501261   -9.686235
 0.285000   3.453299   -9.488200
 0.290000   3.406379   -9.272447
 0.295000   3.360574   -9.042040
 0.300000   3.315959   -8.798720
 0.305000   3.272587   -8.547303
 0.310000   3.230486   -8.293804
 0.315000   3.189649   -8.042298
 0.320000   3.150063   -7.801507
 0.325000   3.111634   -7.574628
 0.330000   3.074316   -7.356800
 0.335000   3.038066   -7.147714
 0.340000   3.002839   -6.946904
 0.345000   2.968597   -6.758227
 0.350000   2.935257   -6.578362
 0.355000   2.902813   -6.400259
 0.360000   2.871254   -6.224229
 0.365000   2.840571   -6.049246
 0.370000   2.810762   -5.873307
 0.375000   2.781838   -5.696076
 0.380000   2.753801   -5.508153
 0.385000   2.726756   -5.303202
 0.390000   2.700769   -5.087321
 0.395000   2.675883   -4.863995
 0.400000   2.652129   -4.635797
 0.405000   2.629525   -4.402619
 0.410000   2.608103   -4.168526
 0.415000   2.587840   -3.941630
 0.420000   2.568687   -3.724032
 0.425000   2.550600   -3.515885
 0.430000   2.533528   -3.318348
 0.435000   2.517416   -3.129777
 0.440000   2.502230   -2.952161
 0.445000   2.487894   -2.790993
 0.450000   2.474320   -2.645567
 0.455000   2.461439   -2.513803
 0.460000   2.449182   -2.395603
 0.465000   2.437483   -2.290369
 0.470000   2.426278   -2.198976
 0.475000   2.415493   -2.122150
 0.480000   2.405057   -2.057317
 0.485000   2.394920   -2.001625
 0.490000   2.385041   -1.953322
 0.495000   2.375387   -1.910905
 0.500000   2.365932   -1.873448
 0.505000   2.356652   -1.841859
 0.510000   2.347513   -1.817378
 0.515000   2.338478   -1.800165
 0.520000   2.329511   -1.790244
 0.525000   2.320576   -1.787489
 0.530000   2.311636   -1.791889
 0.535000   2.302657   -1.803453
 0.540000   2.293602   -1.821850
 0.545000   2.284438   -1.846711
 0.550000   2.275135   -1.877801
 0.555000   2.265660   -1.914958
 0.560000   2.255985   -1.958441
 0.565000   2.246076   -2.007348
 0.570000   2.235912   -2.060689
 0.575000   2.225469   -2.118485
 0.580000   2.214727   -2.180401
 0.585000   2.203665   -2.246283
 0.590000   2.192264   -2.317464
 0.595000   2.180491   -2.392937
 0.600000   2.168335   -2.470955
 0.605000   2.155781   -2.551768
 0.610000   2.142817   -2.634639
 0.615000   2.129435   -2.718742
 0.620000   2.115630   -2.804753
 0.625000   2.101387   -2.889767
 0.630000   2.086732   -2.970788
 0.635000   2.071679   -3.048392
 0.640000   2.056248   -3.121591
 0.645000   2.040463   -3.189346
 0.650000   2.024355   -3.251072
 0.655000   2.007953   -3.306602
 0.660000   1.991289   -3.356793
 0.665000   1.974385   -3.402589
 0.670000   1.957263   -3.443833
 0.675000   1.939946   -3.480106
 0.680000   1.922462   -3.511349
 0.685000   1.904833   -3.534788
 0.690000   1.887114   -3.547377
 0.695000   1.869359   -3.549727
 0.700000   1.851616   -3.542901
 0.705000   1.833930   -3.527675
 0.710000   1.816340   -3.504496
 0.715000   1.798885   -3.473693
 0.720000   1.781603   -3.435791
 0.725000   1.764527   -3.391157
 0.730000   1.747691   -3.340124
 0.735000   1.731126   -3.283193
 0.740000   1.714859   -3.221135
 0.745000   1.698915   -3.156243
 0.750000   1.683297   -3.090897
 0.755000   1.668006   -3.025407
 0.760000   1.653043   -2.958934
 0.765000   1.638416   -2.890170
 0.770000   1.624141   -2.817884
 0.775000   1.610237   -2.740305
 0.780000   1.596738   -2.656632
 0.785000   1.583671   -2.568609
 0.790000   1.571052   -2.478139
 0.795000   1.558890   -2.386542
 0.800000   1.547186   -2.294890
 0.805000   1.535941   -2.205093
 0.810000   1.525136   -2.121265
 0.815000   1.514728   -2.045567
 0.820000   1.504680   -1.977871
 0.825000   1.494949   -1.918682
 0.830000   1.485493   -1.868451
 0.835000   1.476265   -1.827453
 0.840000   1.467219   -1.795837
 0.845000   1.458307   -1.775520
 0.850000   1.449463   -1.769460
 0.855000   1.440612   -1.779767
 0.860000   1.431666   -1.808678
 0.865000   1.422525   -1.861645
 0.870000   1.413049   -1.936537
 0.875000   1.403160   -2.031671
 0.880000   1.392733   -2.154627
 0.885000   1.381614   -2.312163
 0.890000   1.369611   -2.513327
 0.895000   1.356480   -2.785605
 0.900000   1.341755   -3.129407
 0.905000   1.325186   -3.541332
 0.910000   1.306342   -4.047163
 0.915000   1.284715   -4.660658
 0.920000   1.259735   -5.392216
 0.925000   1.230792   -6.291442
 0.930000   1.196821   -7.316650
 0.935000   1.157626   -8.391308
 0.940000   1.112907   -9.502546
 0.945000   1.062600   -10.591863
 0.950000   1.006989   -11.585146
 0.955000   0.946749   -12.449708
 0.960000   0.882492   -13.091522
 0.965000   0.815834   -13.406091
 0.970000   0.748431   -13.381644
 0.975000   0.682017   -13.010526
 0.980000   0.618326   -12.310894
 0.985000   0.558908   -11.342480
 0.990000   0.504901   -10.160428
 0.995000   0.457304   -8.843712
 1.000000   0.416464   -7.492470
201 psinorm nb(10^20/m^3) dnb/dpsiN
 0.000000   0.099760   0.117288
 0.005000   0.100083   0.011795
 0.010000   0.099878   -0.074022
 0.015000   0.099343   -0.133868
 0.020000   0.098540   -0.182885
 0.025000   0.097514   -0.224738
 0.030000   0.096292   -0.260285
 0.035000   0.094911   -0.289174
 0.040000   0.093400   -0.313146
 0.045000   0.091780   -0.333165
 0.050000   0.090069   -0.348695
 0.055000   0.088293   -0.360595
 0.060000   0.086463   -0.369828
 0.065000   0.084594   -0.376275
 0.070000   0.082700   -0.380256
 0.075000   0.080792   -0.382194
 0.080000   0.078878   -0.382295
 0.085000   0.076969   -0.380695
 0.090000   0.075071   -0.377354
 0.095000   0.073195   -0.372729
 0.100000   0.071344   -0.367306
 0.105000   0.069522   -0.360953
 0.110000   0.067734   -0.353787
 0.115000   0.065984   -0.345503
 0.120000   0.064279   -0.336658
 0.125000   0.062618   -0.327746
 0.130000   0.061002   -0.318488
 0.135000   0.059433   -0.308940
 0.140000   0.057912   -0.299184
 0.145000   0.056441   -0.289322
 0.150000   0.055019   -0.279407
 0.155000   0.053647   -0.269494
 0.160000   0.052324   -0.259659
 0.165000   0.051050   -0.249942
 0.170000   0.049825   -0.240367
 0.175000   0.048647   -0.230976
 0.180000   0.047515   -0.221799
 0.185000   0.046429   -0.212865
 0.190000   0.045386   -0.204201
 0.195000   0.044387   -0.195817
 0.200000   0.043428   -0.187582
 0.205000   0.042511   -0.179309
 0.210000   0.041635   -0.171466
 0.215000   0.040796   -0.164259
 0.220000   0.039993   -0.157375
 0.225000   0.039223   -0.150820
 0.230000   0.038484   -0.144583
 0.235000   0.037777   -0.138632
 0.240000   0.037098   -0.132823
 0.245000   0.036448   -0.126907
 0.250000   0.035829   -0.121439
 0.255000   0.035234   -0.116672
 0.260000   0.034662   -0.112172
 0.265000   0.034112   -0.107922
 0.270000   0.033583   -0.103830
 0.275000   0.033074   -0.099533
 0.280000   0.032588   -0.095574
 0.285000   0.032118   -0.092301
 0.290000   0.031665   -0.089229
 0.295000   0.031226   -0.086335
 0.300000   0.030801   -0.083279
 0.305000   0.030393   -0.080370
 0.310000   0.029998   -0.078000
 0.315000   0.029613   -0.075837
 0.320000   0.029239   -0.073804
 0.325000   0.028875   -0.071604
 0.330000   0.028523   -0.069593
 0.335000   0.028179   -0.068039
 0.340000   0.027843   -0.066553
 0.345000   0.027514   -0.065044
 0.350000   0.027192   -0.063489
 0.355000   0.026879   -0.062144
 0.360000   0.026571   -0.061030
 0.365000   0.026269   -0.059977
 0.370000   0.025971   -0.058801
 0.375000   0.025681   -0.057702
 0.380000   0.025394   -0.056859
 0.385000   0.025112   -0.056059
 0.390000   0.024834   -0.055163
 0.395000   0.024560   -0.054273
 0.400000   0.024291   -0.053566
 0.405000   0.024025   -0.052938
 0.410000   0.023762   -0.052259
 0.415000   0.023502   -0.051552
 0.420000   0.023246   -0.050947
 0.425000   0.022993   -0.050415
 0.430000   0.022742   -0.049838
 0.435000   0.022494   -0.049212
 0.440000   0.022250   -0.048661
 0.445000   0.022008   -0.048185
 0.450000   0.021768   -0.047671
 0.455000   0.021531   -0.047111
 0.460000   0.021297   -0.046618
 0.465000   0.021065   -0.046193
 0.470000   0.020835   -0.045735
 0.475000   0.020607   -0.045234
 0.480000   0.020383   -0.044790
 0.485000   0.020160   -0.044415
 0.490000   0.019938   -0.044014
 0.495000   0.019719   -0.043576
 0.500000   0.019503   -0.043188
 0.505000   0.019287   -0.042862
 0.510000   0.019074   -0.042515
 0.515000   0.018862   -0.042133
 0.520000   0.018653   -0.041796
 0.525000   0.018444   -0.041518
 0.530000   0.018237   -0.041227
 0.535000   0.018032   -0.040907
 0.540000   0.017828   -0.040621
 0.545000   0.017626   -0.040388
 0.550000   0.017425   -0.040150
 0.555000   0.017224   -0.039894
 0.560000   0.017026   -0.039668
 0.565000   0.016828   -0.039490
 0.570000   0.016631   -0.039318
 0.575000   0.016435   -0.039133
 0.580000   0.016239   -0.038973
 0.585000   0.016045   -0.038856
 0.590000   0.015851   -0.038750
 0.595000   0.015657   -0.038643
 0.600000   0.015464   -0.038549
 0.605000   0.015272   -0.038487
 0.610000   0.015079   -0.038447
 0.615000   0.014887   -0.038426
 0.620000   0.014695   -0.038427
 0.625000   0.014503   -0.038451
 0.630000   0.014311   -0.038489
 0.635000   0.014118   -0.038546
 0.640000   0.013925   -0.038634
 0.645000   0.013732   -0.038739
 0.650000   0.013538   -0.038846
 0.655000   0.013343   -0.038964
 0.660000   0.013148   -0.039112
 0.665000   0.012952   -0.039280
 0.670000   0.012755   -0.039435
 0.675000   0.012558   -0.039590
 0.680000   0.012360   -0.039756
 0.685000   0.012160   -0.039958
 0.690000   0.011960   -0.040165
 0.695000   0.011759   -0.040349
 0.700000   0.011556   -0.040538
 0.705000   0.011353   -0.040740
 0.710000   0.011149   -0.040975
 0.715000   0.010944   -0.041208
 0.720000   0.010737   -0.041417
 0.725000   0.010529   -0.041627
 0.730000   0.010321   -0.041841
 0.735000   0.010111   -0.042087
 0.740000   0.009900   -0.042332
 0.745000   0.009688   -0.042539
 0.750000   0.009474   -0.042739
 0.755000   0.009260   -0.042929
 0.760000   0.009045   -0.043119
 0.765000   0.008829   -0.043301
 0.770000   0.008612   -0.043456
 0.775000   0.008395   -0.043587
 0.780000   0.008176   -0.043706
 0.785000   0.007957   -0.043811
 0.790000   0.007738   -0.043905
 0.795000   0.007518   -0.043981
 0.800000   0.007298   -0.044027
 0.805000   0.007078   -0.044047
 0.810000   0.006858   -0.044043
 0.815000   0.006638   -0.044013
 0.820000   0.006418   -0.043954
 0.825000   0.006198   -0.043853
 0.830000   0.005979   -0.043712
 0.835000   0.005761   -0.043543
 0.840000   0.005544   -0.043338
 0.845000   0.005328   -0.043096
 0.850000   0.005113   -0.042815
 0.855000   0.004900   -0.042495
 0.860000   0.004688   -0.042139
 0.865000   0.004478   -0.041766
 0.870000   0.004270   -0.041437
 0.875000   0.004064   -0.041168
 0.880000   0.003859   -0.040919
 0.885000   0.003655   -0.040675
 0.890000   0.003452   -0.040420
 0.895000   0.003250   -0.040138
 0.900000   0.003050   -0.039807
 0.905000   0.002852   -0.039404
 0.910000   0.002656   -0.038904
 0.915000   0.002463   -0.038263
 0.920000   0.002274   -0.037435
 0.925000   0.002089   -0.036439
 0.930000   0.001909   -0.035366
 0.935000   0.001735   -0.034356
 0.940000   0.001566   -0.033607
 0.945000   0.001399   -0.033249
 0.950000   0.001233   -0.033144
 0.955000   0.001068   -0.032742
 0.960000   0.000906   -0.031365
 0.965000   0.000754   -0.028715
 0.970000   0.000619   -0.025002
 0.975000   0.000504   -0.020943
 0.980000   0.000409   -0.017453
 0.985000   0.000330   -0.015047
 0.990000   0.000259   -0.013476
 0.995000   0.000195   -0.012890
 1.000000   0.000130   -0.013043
201 psinorm pb(KPa) dpb/dpsiN
 0.000000   41.191286   16.892635
 0.005000   41.173746   -23.908619
 0.010000   40.952199   -56.702920
 0.015000   40.606717   -78.738934
 0.020000   40.164810   -96.309927
 0.025000   39.643617   -111.126891
 0.030000   39.053541   -123.451880
 0.035000   38.409098   -133.251972
 0.040000   37.721022   -141.256837
 0.045000   36.996530   -147.786661
 0.050000   36.243155   -152.683447
 0.055000   35.469696   -156.252892
 0.060000   34.680626   -158.817764
 0.065000   33.881518   -160.365351
 0.070000   33.076972   -161.029064
 0.075000   32.271227   -160.949535
 0.080000   31.467477   -160.216894
 0.085000   30.669058   -158.892250
 0.090000   29.878555   -156.915157
 0.095000   29.099907   -154.486927
 0.100000   28.333685   -151.803820
 0.105000   27.581869   -148.783672
 0.110000   26.845849   -145.488316
 0.115000   26.126985   -141.796032
 0.120000   25.427888   -137.926415
 0.125000   24.747721   -134.066003
 0.130000   24.087228   -130.097111
 0.135000   23.446750   -126.052223
 0.140000   22.826706   -121.955583
 0.145000   22.227194   -117.839919
 0.150000   21.648307   -113.714406
 0.155000   21.090050   -109.604894
 0.160000   20.552258   -105.542730
 0.165000   20.034623   -101.543637
 0.170000   19.536822   -97.616072
 0.175000   19.058462   -93.771654
 0.180000   18.599105   -90.017117
 0.185000   18.158291   -86.368658
 0.190000   17.735418   -82.847540
 0.195000   17.329816   -79.453824
 0.200000   16.940880   -76.128626
 0.205000   16.568529   -72.799117
 0.210000   16.212889   -69.646774
 0.215000   15.872062   -66.750362
 0.220000   15.545385   -63.988209
 0.225000   15.232180   -61.362707
 0.230000   14.931758   -58.867402
 0.235000   14.643506   -56.487196
 0.240000   14.366886   -54.167490
 0.245000   14.101831   -51.813763
 0.250000   13.848749   -49.637737
 0.255000   13.605453   -47.734614
 0.260000   13.371403   -45.937564
 0.265000   13.146078   -44.241120
 0.270000   12.928991   -42.609396
 0.275000   12.719984   -40.895989
 0.280000   12.520032   -39.313024
 0.285000   12.326854   -38.001167
 0.290000   12.140020   -36.769641
 0.295000   11.959157   -35.608413
 0.300000   11.783936   -34.389149
 0.305000   11.615266   -33.227793
 0.310000   11.451658   -32.271053
 0.315000   11.292555   -31.396813
 0.320000   11.137690   -30.573431
 0.325000   10.986821   -29.691499
 0.330000   10.840775   -28.893264
 0.335000   10.697888   -28.269346
 0.340000   10.558081   -27.662955
 0.345000   10.421259   -27.047056
 0.350000   10.287611   -26.416628
 0.355000   10.157092   -25.865752
 0.360000   10.028953   -25.402206
 0.365000   9.903070   -24.962535
 0.370000   9.779328   -24.479990
 0.375000   9.658270   -24.027761
 0.380000   9.539050   -23.670359
 0.385000   9.421567   -23.329599
 0.390000   9.305754   -22.949087
 0.395000   9.192076   -22.571846
 0.400000   9.080036   -22.269001
 0.405000   8.969386   -21.996953
 0.410000   8.860066   -21.708965
 0.415000   8.752296   -21.411874
 0.420000   8.645947   -21.151182
 0.425000   8.540784   -20.916318
 0.430000   8.436784   -20.666102
 0.435000   8.334123   -20.399068
 0.440000   8.232794   -20.158484
 0.445000   8.132539   -19.945405
 0.450000   8.033340   -19.719508
 0.455000   7.935343   -19.480072
 0.460000   7.838539   -19.264767
 0.465000   7.742696   -19.073922
 0.470000   7.647800   -18.872889
 0.475000   7.553967   -18.659143
 0.480000   7.461208   -18.466430
 0.485000   7.369303   -18.297685
 0.490000   7.278231   -18.122219
 0.495000   7.188080   -17.936703
 0.500000   7.098864   -17.768690
 0.505000   7.010394   -17.620853
 0.510000   6.922656   -17.466553
 0.515000   6.835728   -17.302109
 0.520000   6.749635   -17.153693
 0.525000   6.664191   -17.025574
 0.530000   6.579379   -16.894899
 0.535000   6.495242   -16.752447
 0.540000   6.411854   -16.618843
 0.545000   6.329054   -16.502845
 0.550000   6.246826   -16.385368
 0.555000   6.165200   -16.259696
 0.560000   6.084229   -16.143101
 0.565000   6.003769   -16.042324
 0.570000   5.923806   -15.942726
 0.575000   5.844342   -15.838630
 0.580000   5.765419   -15.743162
 0.585000   5.686910   -15.661621
 0.590000   5.608803   -15.582042
 0.595000   5.531090   -15.500755
 0.600000   5.453796   -15.421346
 0.605000   5.376876   -15.351818
 0.610000   5.300278   -15.291658
 0.615000   5.223960   -15.237423
 0.620000   5.147903   -15.191328
 0.625000   5.072046   -15.153615
 0.630000   4.996367   -15.120503
 0.635000   4.920841   -15.094436
 0.640000   4.845423   -15.078602
 0.645000   4.770055   -15.068125
 0.650000   4.694742   -15.058984
 0.655000   4.619465   -15.052850
 0.660000   4.544213   -15.056136
 0.665000   4.468904   -15.064698
 0.670000   4.393566   -15.068079
 0.675000   4.318223   -15.070139
 0.680000   4.242865   -15.076023
 0.685000   4.167463   -15.091792
 0.690000   4.091947   -15.108088
 0.695000   4.016382   -15.117825
 0.700000   3.940769   -15.128671
 0.705000   3.865095   -15.144649
 0.710000   3.789322   -15.171287
 0.715000   3.713383   -15.198240
 0.720000   3.637340   -15.219016
 0.725000   3.561192   -15.240379
 0.730000   3.484936   -15.263560
 0.735000   3.408557   -15.297943
 0.740000   3.331956   -15.331605
 0.745000   3.255241   -15.352974
 0.750000   3.178427   -15.370815
 0.755000   3.101533   -15.384671
 0.760000   3.024580   -15.396876
 0.765000   2.947564   -15.404649
 0.770000   2.870533   -15.402494
 0.775000   2.793539   -15.393292
 0.780000   2.716601   -15.380013
 0.785000   2.639739   -15.362543
 0.790000   2.562975   -15.341059
 0.795000   2.486328   -15.313220
 0.800000   2.409843   -15.275948
 0.805000   2.333569   -15.229706
 0.810000   2.257546   -15.174927
 0.815000   2.181820   -15.110660
 0.820000   2.106439   -15.036277
 0.825000   2.031457   -14.945844
 0.830000   1.956981   -14.841344
 0.835000   1.883043   -14.728031
 0.840000   1.809701   -14.602959
 0.845000   1.737014   -14.465640
 0.850000   1.665044   -14.315807
 0.855000   1.593856   -14.153101
 0.860000   1.523513   -13.978503
 0.865000   1.454071   -13.790804
 0.870000   1.385605   -13.607082
 0.875000   1.318000   -13.436069
 0.880000   1.251244   -13.264875
 0.885000   1.185351   -13.089090
 0.890000   1.120353   -12.904369
 0.895000   1.056307   -12.705804
 0.900000   0.993295   -12.486938
 0.905000   0.931438   -12.240329
 0.910000   0.870892   -11.958695
 0.915000   0.811851   -11.630470
 0.920000   0.754587   -11.244988
 0.925000   0.699401   -10.808876
 0.930000   0.646499   -10.353694
 0.935000   0.595864   -9.928225
 0.940000   0.547216   -9.630189
 0.945000   0.499562   -9.568232
 0.950000   0.451534   -9.778733
 0.955000   0.401775   -10.174329
 0.960000   0.349791   -10.542801
 0.965000   0.296347   -10.641703
 0.970000   0.243374   -10.302106
 0.975000   0.193326   -9.485446
 0.980000   0.148519   -8.289822
 0.985000   0.110428   -6.865684
 0.990000   0.079863   -5.336365
 0.995000   0.057064   -4.154032
 1.000000   0.038322   -3.342706
201 psinorm ptot(KPa) dptot/dpsiN
 0.000000   105.687104   -109.006031
 0.005000   105.062356   -140.893108
 0.010000   104.278173   -166.590057
 0.015000   103.396455   -183.939388
 0.020000   102.438779   -197.850012
 0.025000   101.417955   -209.696724
 0.030000   100.341812   -219.659983
 0.035000   99.221356   -227.733195
 0.040000   98.064480   -234.477591
 0.045000   96.876580   -240.118905
 0.050000   95.663291   -244.541703
 0.055000   94.431163   -247.964050
 0.060000   93.183650   -250.614156
 0.065000   91.925021   -252.483616
 0.070000   90.658814   -253.669595
 0.075000   89.388325   -254.274965
 0.080000   88.116064   -254.370302
 0.085000   86.844622   -253.994429
 0.090000   85.576120   -253.083323
 0.095000   84.313789   -251.792987
 0.100000   83.058190   -250.270277
 0.105000   81.811086   -248.438936
 0.110000   80.573801   -246.347209
 0.115000   79.347614   -243.894646
 0.120000   78.134854   -241.250614
 0.125000   76.935108   -238.555192
 0.130000   75.749302   -235.704067
 0.135000   74.578067   -232.710692
 0.140000   73.422196   -229.584357
 0.145000   72.282224   -226.346565
 0.150000   71.158730   -222.997810
 0.155000   70.052245   -219.555092
 0.160000   68.963179   -216.033929
 0.165000   67.891906   -212.440497
 0.170000   66.838774   -208.793048
 0.175000   65.803976   -205.107092
 0.180000   64.787703   -201.386029
 0.185000   63.790115   -197.649252
 0.190000   62.811211   -193.917440
 0.195000   61.850941   -190.203011
 0.200000   60.909180   -186.492196
 0.205000   59.986019   -182.740201
 0.210000   59.081778   -179.094203
 0.215000   58.195077   -175.626200
 0.220000   57.325516   -172.246163
 0.225000   56.472615   -168.973981
 0.230000   55.635777   -165.794682
 0.235000   54.814669   -162.679262
 0.240000   54.008984   -159.581787
 0.245000   53.218851   -156.412343
 0.250000   52.444861   -153.339167
 0.255000   51.685459   -150.437932
 0.260000   50.940481   -147.541675
 0.265000   50.210042   -144.639280
 0.270000   49.494088   -141.720906
 0.275000   48.792833   -138.663505
 0.280000   48.107453   -135.651451
 0.285000   47.436319   -132.797405
 0.290000   46.779479   -129.944903
 0.295000   46.136870   -127.100552
 0.300000   45.508474   -124.162943
 0.305000   44.895240   -121.254281
 0.310000   44.295931   -118.529080
 0.315000   43.709949   -115.901930
 0.320000   43.136912   -113.384610
 0.325000   42.576103   -110.896030
 0.330000   42.027951   -108.537875
 0.335000   41.490725   -106.386034
 0.340000   40.964091   -104.300764
 0.345000   40.447717   -102.276286
 0.350000   39.941328   -100.293330
 0.355000   39.444784   -98.402097
 0.360000   38.957307   -96.610698
 0.365000   38.478677   -94.858962
 0.370000   38.008718   -93.079037
 0.375000   37.547886   -91.333210
 0.380000   37.095386   -89.636589
 0.385000   36.651520   -87.892923
 0.390000   36.216456   -86.078864
 0.395000   35.790732   -84.248210
 0.400000   35.373974   -82.475481
 0.405000   34.965977   -80.720787
 0.410000   34.566766   -78.959969
 0.415000   34.176377   -77.233695
 0.420000   33.794429   -75.590273
 0.425000   33.420475   -74.020197
 0.430000   33.054227   -72.491426
 0.435000   32.695560   -70.994766
 0.440000   32.344280   -69.576691
 0.445000   31.999793   -68.261474
 0.450000   31.661665   -67.009463
 0.455000   31.329699   -65.810268
 0.460000   31.003562   -64.695932
 0.465000   30.682739   -63.663194
 0.470000   30.366930   -62.683574
 0.475000   30.055904   -61.756094
 0.480000   29.749369   -60.898758
 0.485000   29.446916   -60.101706
 0.490000   29.148352   -59.330122
 0.495000   28.853615   -58.574504
 0.500000   28.562607   -57.854882
 0.505000   28.275066   -57.176838
 0.510000   27.990839   -56.521569
 0.515000   27.709850   -55.886133
 0.520000   27.431978   -55.293563
 0.525000   27.156915   -54.746973
 0.530000   26.884508   -54.225993
 0.535000   26.614655   -53.721887
 0.540000   26.347289   -53.251182
 0.545000   26.082143   -52.820119
 0.550000   25.819088   -52.410404
 0.555000   25.558039   -52.014986
 0.560000   25.298938   -51.650045
 0.565000   25.041539   -51.317937
 0.570000   24.785759   -51.001691
 0.575000   24.531522   -50.696592
 0.580000   24.278793   -50.413465
 0.585000   24.027387   -50.156811
 0.590000   23.777225   -49.921389
 0.595000   23.528173   -49.700802
 0.600000   23.280217   -49.492064
 0.605000   23.033252   -49.303756
 0.610000   22.787179   -49.133116
 0.615000   22.541921   -48.973912
 0.620000   22.297440   -48.830554
 0.625000   22.053616   -48.692893
 0.630000   21.810511   -48.547098
 0.635000   21.568145   -48.398121
 0.640000   21.326530   -48.245801
 0.645000   21.085687   -48.082698
 0.650000   20.845703   -47.903366
 0.655000   20.606653   -47.710213
 0.660000   20.368601   -47.514125
 0.665000   20.131512   -47.314761
 0.670000   19.895453   -47.100497
 0.675000   19.660507   -46.869835
 0.680000   19.426755   -46.617245
 0.685000   19.194334   -46.332407
 0.690000   18.963431   -46.001182
 0.695000   18.734323   -45.622754
 0.700000   18.507203   -45.209665
 0.705000   18.282226   -44.772120
 0.710000   18.059482   -44.313447
 0.715000   17.839091   -43.834263
 0.720000   17.621139   -43.348542
 0.725000   17.405606   -42.866041
 0.730000   17.192479   -42.390066
 0.735000   16.981705   -41.935505
 0.740000   16.773124   -41.497410
 0.745000   16.566731   -41.081687
 0.750000   16.362307   -40.708693
 0.755000   16.159644   -40.371448
 0.760000   15.958592   -40.061065
 0.765000   15.759034   -39.762418
 0.770000   15.560968   -39.461531
 0.775000   15.364418   -39.146943
 0.780000   15.169499   -38.800349
 0.785000   14.976415   -38.419881
 0.790000   14.785300   -38.013056
 0.795000   14.596284   -37.578626
 0.800000   14.409514   -37.115232
 0.805000   14.225132   -36.625940
 0.810000   14.043254   -36.121512
 0.815000   13.863917   -35.611287
 0.820000   13.687142   -35.096575
 0.825000   13.512951   -34.570343
 0.830000   13.341438   -34.030398
 0.835000   13.172647   -33.474836
 0.840000   13.006690   -32.891347
 0.845000   12.843734   -32.275811
 0.850000   12.683932   -31.627801
 0.855000   12.527456   -30.942345
 0.860000   12.374508   -30.215762
 0.865000   12.225298   -29.454012
 0.870000   12.079968   -28.655947
 0.875000   11.938739   -27.823358
 0.880000   11.801734   -26.984463
 0.885000   11.668894   -26.192562
 0.890000   11.539809   -25.543274
 0.895000   11.413461   -25.253734
 0.900000   11.287272   -25.518100
 0.905000   11.158280   -26.629506
 0.910000   11.020976   -29.144672
 0.915000   10.866834   -33.760985
 0.920000   10.683367   -41.360956
 0.925000   10.453224   -53.104550
 0.930000   10.152321   -69.763677
 0.935000   9.755587   -91.548356
 0.940000   9.236838   -117.938575
 0.945000   8.576201   -146.744012
 0.950000   7.769397   -174.084357
 0.955000   6.835358   -195.152549
 0.960000   5.817872   -205.472372
 0.965000   4.780634   -202.250025
 0.970000   3.795372   -185.269448
 0.975000   2.927940   -157.340138
 0.980000   2.221970   -124.114577
 0.985000   1.686794   -92.106386
 0.990000   1.300906   -65.732782
 0.995000   1.029466   -46.485762
 1.000000   0.836049   -30.881143
201 psinorm omeg(kRad/s) domeg/dpsiN
 0.000000   58.144046   0.028154
 0.005000   58.143650   -0.186469
 0.010000   58.142181   -0.448500
 0.015000   58.139165   -0.815736
 0.020000   58.134024   -1.306481
 0.025000   58.126100   -1.934691
 0.030000   58.114677   -2.709439
 0.035000   58.099006   -3.633102
 0.040000   58.078346   -4.691118
 0.045000   58.052095   -5.865650
 0.050000   58.019689   -7.139684
 0.055000   57.980698   -8.485255
 0.060000   57.934837   -9.873274
 0.065000   57.881965   -11.277461
 0.070000   57.822062   -12.643216
 0.075000   57.755533   -13.977712
 0.080000   57.682285   -15.318830
 0.085000   57.602345   -16.649202
 0.090000   57.515793   -17.967932
 0.095000   57.422665   -19.285264
 0.100000   57.322940   -20.583983
 0.105000   57.216825   -21.881867
 0.110000   57.104122   -23.214143
 0.115000   56.984684   -24.571398
 0.120000   56.858408   -25.954207
 0.125000   56.725142   -27.368001
 0.130000   56.584728   -28.793977
 0.135000   56.437202   -30.224354
 0.140000   56.282484   -31.678451
 0.145000   56.120418   -33.157404
 0.150000   55.950910   -34.652784
 0.155000   55.773890   -36.157143
 0.160000   55.589339   -37.648317
 0.165000   55.397407   -39.104197
 0.170000   55.198297   -40.528018
 0.175000   54.992126   -41.921935
 0.180000   54.779077   -43.279088
 0.185000   54.559336   -44.597831
 0.190000   54.333099   -45.863991
 0.195000   54.100696   -47.037202
 0.200000   53.862727   -48.093185
 0.205000   53.619764   -49.018225
 0.210000   53.372545   -49.792638
 0.215000   53.121837   -50.413304
 0.220000   52.868412   -50.859008
 0.225000   52.613247   -51.097087
 0.230000   52.357441   -51.225571
 0.235000   52.100992   -51.306570
 0.240000   51.844375   -51.293139
 0.245000   51.588060   -51.185056
 0.250000   51.332525   -50.962978
 0.255000   51.078430   -50.580947
 0.260000   50.826715   -50.160978
 0.265000   50.576821   -49.793240
 0.270000   50.328783   -49.429867
 0.275000   50.082522   -49.093309
 0.280000   49.837850   -48.803617
 0.285000   49.594486   -48.587492
 0.290000   49.351975   -48.469816
 0.295000   49.109788   -48.398555
 0.300000   48.867989   -48.298479
 0.305000   48.626803   -48.144155
 0.310000   48.386548   -47.923522
 0.315000   48.147568   -47.625912
 0.320000   47.910289   -47.256913
 0.325000   47.674999   -46.829492
 0.330000   47.441994   -46.344450
 0.335000   47.211554   -45.805357
 0.340000   46.983940   -45.216488
 0.345000   46.759389   -44.566695
 0.350000   46.538273   -43.875949
 0.355000   46.320630   -43.170393
 0.360000   46.106569   -42.443166
 0.365000   45.896198   -41.696122
 0.370000   45.689608   -40.930919
 0.375000   45.486889   -40.130598
 0.380000   45.288302   -39.290639
 0.385000   45.093982   -38.423362
 0.390000   44.904068   -37.528424
 0.395000   44.718698   -36.614518
 0.400000   44.537923   -35.704769
 0.405000   44.361651   -34.861574
 0.410000   44.189307   -34.205280
 0.415000   44.019598   -33.774812
 0.420000   43.851559   -33.522514
 0.425000   43.684373   -33.419426
 0.430000   43.517365   -33.433486
 0.435000   43.350038   -33.606248
 0.440000   43.181303   -33.878651
 0.445000   43.011251   -34.050396
 0.450000   42.840799   -34.080772
 0.455000   42.670444   -33.997533
 0.460000   42.500823   -33.775811
 0.465000   42.332685   -33.437948
 0.470000   42.166444   -32.947171
 0.475000   42.003214   -32.194971
 0.480000   41.844494   -31.208925
 0.485000   41.691124   -30.066295
 0.490000   41.543831   -28.792539
 0.495000   41.403199   -27.408903
 0.500000   41.269742   -25.937861
 0.505000   41.143820   -24.485062
 0.510000   41.024892   -23.162201
 0.515000   40.912198   -22.000227
 0.520000   40.804889   -21.012675
 0.525000   40.702072   -20.208382
 0.530000   40.602805   -19.608467
 0.535000   40.505987   -19.206115
 0.540000   40.410744   -18.987175
 0.545000   40.316115   -18.967210
 0.550000   40.221072   -19.161757
 0.555000   40.124498   -19.598549
 0.560000   40.025087   -20.340161
 0.565000   39.921096   -21.366318
 0.570000   39.811424   -22.665688
 0.575000   39.694439   -24.304721
 0.580000   39.568376   -26.307526
 0.585000   39.431364   -28.691699
 0.590000   39.281459   -31.489915
 0.595000   39.116465   -34.625307
 0.600000   38.935206   -38.031604
 0.605000   38.736149   -41.719952
 0.610000   38.518007   -45.632700
 0.615000   38.279822   -49.697691
 0.620000   38.021030   -53.753705
 0.625000   37.742285   -57.722638
 0.630000   37.443803   -61.595760
 0.635000   37.126327   -65.283453
 0.640000   36.790969   -68.720462
 0.645000   36.439122   -71.859657
 0.650000   36.072372   -74.527840
 0.655000   35.693844   -76.963519
 0.660000   35.302737   -79.538538
 0.665000   34.898459   -82.250668
 0.670000   34.480230   -85.160919
 0.675000   34.046850   -88.341188
 0.680000   33.596819   -91.901401
 0.685000   33.127836   -95.658331
 0.690000   32.640235   -99.192343
 0.695000   32.135912   -102.351836
 0.700000   31.616717   -105.131139
 0.705000   31.084601   -107.517363
 0.710000   30.541543   -109.518893
 0.715000   29.989412   -111.072908
 0.720000   29.430814   -112.095653
 0.725000   28.868455   -112.583292
 0.730000   28.304981   -112.534198
 0.735000   27.743113   -111.945155
 0.740000   27.185530   -110.872371
 0.745000   26.634390   -109.570285
 0.750000   26.089827   -108.297217
 0.755000   25.551417   -107.069441
 0.760000   25.019132   -105.756552
 0.765000   24.493852   -104.157100
 0.770000   23.977561   -102.155072
 0.775000   23.472301   -99.551134
 0.780000   22.982050   -95.987718
 0.785000   22.512424   -91.487363
 0.790000   22.067176   -86.289218
 0.795000   21.649532   -80.524832
 0.800000   21.261928   -74.393524
 0.805000   20.905597   -68.146483
 0.810000   20.580463   -62.006821
 0.815000   20.285528   -56.202856
 0.820000   20.018435   -50.955038
 0.825000   19.775978   -46.433861
 0.830000   19.554096   -42.818968
 0.835000   19.347788   -40.267805
 0.840000   19.151418   -38.897151
 0.845000   18.958817   -38.902258
 0.850000   18.762396   -40.504364
 0.855000   18.553773   -43.854919
 0.860000   18.323846   -49.109546
 0.865000   18.062678   -56.546352
 0.870000   17.758383   -66.187103
 0.875000   17.400807   -77.956541
 0.880000   16.978817   -91.923615
 0.885000   16.481570   -107.965012
 0.890000   15.899167   -125.817789
 0.895000   15.223393   -145.521758
 0.900000   14.443950   -165.895598
 0.905000   13.564437   -185.424063
 0.910000   12.589709   -203.347998
 0.915000   11.530957   -218.320897
 0.920000   10.406500   -228.893741
 0.925000   9.242019   -233.814688
 0.930000   8.068353   -231.178320
 0.935000   6.930236   -220.198698
 0.940000   5.866366   -202.047093
 0.945000   4.909765   -178.183931
 0.950000   4.084527   -150.621165
 0.955000   3.403553   -121.393040
 0.960000   2.870597   -93.062096
 0.965000   2.472932   -67.852689
 0.970000   2.192070   -46.686932
 0.975000   2.006063   -30.047636
 0.980000   1.891593   -17.990226
 0.985000   1.826161   -10.173177
 0.990000   1.789862   -6.044324
 0.995000   1.765718   -4.892364
 1.000000   1.740938   -5.019541
201 psinorm omegp(kRad/s) domegp/dpsiN
 0.000000   -0.005409   127.377648
 0.005000   0.501353   75.327242
 0.010000   0.747863   45.904786
 0.015000   0.960401   41.065991
 0.020000   1.158523   38.509009
 0.025000   1.345491   36.164476
 0.030000   1.520168   33.639578
 0.035000   1.681887   31.393727
 0.040000   1.834105   29.544479
 0.045000   1.977332   27.954473
 0.050000   2.113650   26.884359
 0.055000   2.246175   26.438029
 0.060000   2.378030   26.563313
 0.065000   2.511808   26.928427
 0.070000   2.647314   27.219106
 0.075000   2.783999   27.395235
 0.080000   2.921267   27.265058
 0.085000   3.056650   26.693022
 0.090000   3.188197   25.784201
 0.095000   3.314492   24.568909
 0.100000   3.433886   23.256420
 0.105000   3.547056   21.971708
 0.110000   3.653603   20.776307
 0.115000   3.754819   19.686950
 0.120000   3.850473   18.812900
 0.125000   3.942948   18.240811
 0.130000   4.032881   17.813429
 0.135000   4.121083   17.409233
 0.140000   4.206973   16.967080
 0.145000   4.290753   16.317939
 0.150000   4.370153   15.420339
 0.155000   4.444957   14.237315
 0.160000   4.512526   12.850955
 0.165000   4.573466   11.306515
 0.170000   4.625591   9.573686
 0.175000   4.669203   7.674731
 0.180000   4.702338   5.685171
 0.185000   4.726055   3.919314
 0.190000   4.741531   2.247933
 0.195000   4.748534   0.788161
 0.200000   4.749413   -0.445063
 0.205000   4.744084   -1.550030
 0.210000   4.733913   -2.347271
 0.215000   4.720611   -3.024679
 0.220000   4.703666   -3.628143
 0.225000   4.684329   -4.212828
 0.230000   4.661538   -4.925059
 0.235000   4.635079   -5.589013
 0.240000   4.605647   -6.365510
 0.245000   4.571424   -7.274739
 0.250000   4.532900   -8.169653
 0.255000   4.489727   -9.202814
 0.260000   4.440872   -10.245970
 0.265000   4.387267   -11.258430
 0.270000   4.328288   -12.389653
 0.275000   4.263371   -13.467844
 0.280000   4.193609   -14.558536
 0.285000   4.117786   -15.775247
 0.290000   4.035857   -16.912062
 0.295000   3.948665   -18.100396
 0.300000   3.854853   -19.402226
 0.305000   3.754643   -20.610796
 0.310000   3.648745   -21.848816
 0.315000   3.536155   -23.158073
 0.320000   3.417164   -24.364722
 0.325000   3.292507   -25.502496
 0.330000   3.162139   -26.562729
 0.335000   3.026880   -27.356940
 0.340000   2.888570   -27.956480
 0.345000   2.747315   -28.456212
 0.350000   2.604008   -28.675090
 0.355000   2.460564   -28.819675
 0.360000   2.315811   -29.121521
 0.365000   2.169349   -29.452113
 0.370000   2.021290   -29.893030
 0.375000   1.870419   -30.530310
 0.380000   1.715987   -31.363577
 0.385000   1.556783   -32.352796
 0.390000   1.392459   -33.350187
 0.395000   1.223281   -34.299525
 0.400000   1.049463   -35.346471
 0.405000   0.869816   -36.826543
 0.410000   0.681198   -39.783835
 0.415000   0.471978   -44.534348
 0.420000   0.235854   -50.612762
 0.425000   -0.034150   -58.016354
 0.430000   -0.344309   -66.573027
 0.435000   -0.699880   -76.210447
 0.440000   -1.106414   -87.000749
 0.445000   -1.569887   -97.184218
 0.450000   -2.078256   -105.410527
 0.455000   -2.623993   -111.817759
 0.460000   -3.196433   -115.853539
 0.465000   -3.782528   -116.918894
 0.470000   -4.365622   -114.015433
 0.475000   -4.922682   -107.437633
 0.480000   -5.439999   -98.569186
 0.485000   -5.908374   -88.051478
 0.490000   -6.320513   -76.557347
 0.495000   -6.673948   -64.458825
 0.500000   -6.965102   -52.715527
 0.505000   -7.201103   -43.107436
 0.510000   -7.396176   -35.854763
 0.515000   -7.559650   -30.599905
 0.520000   -7.702175   -27.152868
 0.525000   -7.831179   -25.186411
 0.530000   -7.954039   -24.444193
 0.535000   -8.075621   -24.255571
 0.540000   -8.196595   -24.128699
 0.545000   -8.316908   -23.995655
 0.550000   -8.436551   -23.895069
 0.555000   -8.555859   -23.725101
 0.560000   -8.673802   -23.131305
 0.565000   -8.787172   -22.012448
 0.570000   -8.893927   -20.474615
 0.575000   -8.991918   -18.466798
 0.580000   -9.078595   -16.053166
 0.585000   -9.152450   -13.435064
 0.590000   -9.212946   -10.625197
 0.595000   -9.258702   -7.714714
 0.600000   -9.290093   -4.970932
 0.605000   -9.308411   -2.504142
 0.610000   -9.315134   -0.274166
 0.615000   -9.311153   1.706516
 0.620000   -9.298069   3.277656
 0.625000   -9.278376   4.539565
 0.630000   -9.252673   5.651563
 0.635000   -9.221860   6.605830
 0.640000   -9.186615   7.412831
 0.645000   -9.147732   8.197136
 0.650000   -9.104644   9.015068
 0.655000   -9.057581   9.759793
 0.660000   -9.007046   10.443411
 0.665000   -8.953147   11.127100
 0.670000   -8.895775   11.829445
 0.675000   -8.834853   12.648558
 0.680000   -8.769289   13.807073
 0.685000   -8.696782   15.431825
 0.690000   -8.614971   17.522083
 0.695000   -8.521561   20.054705
 0.700000   -8.414424   23.172056
 0.705000   -8.289841   26.757911
 0.710000   -8.146845   30.205036
 0.715000   -7.987790   33.197849
 0.720000   -7.814866   35.605305
 0.725000   -7.631737   37.138163
 0.730000   -7.443485   37.518935
 0.735000   -7.256548   36.505221
 0.740000   -7.078432   34.200545
 0.745000   -6.914542   30.980549
 0.750000   -6.768627   27.175900
 0.755000   -6.642783   23.131182
 0.760000   -6.537315   19.074019
 0.765000   -6.452043   15.528296
 0.770000   -6.382032   12.847378
 0.775000   -6.323570   10.766696
 0.780000   -6.274365   8.994155
 0.785000   -6.233628   7.191767
 0.790000   -6.202447   5.003680
 0.795000   -6.183591   1.939579
 0.800000   -6.183052   -2.302594
 0.805000   -6.206617   -7.659549
 0.810000   -6.259647   -13.830981
 0.815000   -6.344927   -20.310016
 0.820000   -6.462747   -26.460415
 0.825000   -6.609531   -31.446033
 0.830000   -6.777208   -34.721420
 0.835000   -6.956745   -36.230311
 0.840000   -7.139511   -36.173965
 0.845000   -7.318485   -34.765944
 0.850000   -7.487170   -32.176298
 0.855000   -7.640248   -29.160903
 0.860000   -7.778779   -26.373255
 0.865000   -7.903980   -23.745853
 0.870000   -8.016238   -21.258592
 0.875000   -8.116566   -19.034932
 0.880000   -8.206587   -17.301928
 0.885000   -8.289586   -15.609342
 0.890000   -8.362681   -13.438513
 0.895000   -8.423971   -10.867814
 0.900000   -8.471359   -7.899515
 0.905000   -8.502966   -4.622312
 0.910000   -8.517582   -1.129180
 0.915000   -8.514258   2.890577
 0.920000   -8.488676   7.739877
 0.925000   -8.436859   12.731732
 0.930000   -8.361359   18.195085
 0.935000   -8.254908   27.162098
 0.940000   -8.089738   40.587687
 0.945000   -7.849031   56.871481
 0.950000   -7.521023   76.626436
 0.955000   -7.082767   100.977087
 0.960000   -6.511252   129.338419
 0.965000   -5.789383   162.127997
 0.970000   -4.889972   196.989948
 0.975000   -3.819483   229.831001
 0.980000   -2.591662   259.854411
 0.985000   -1.220939   282.679201
 0.990000   0.235130   289.858165
 0.995000   1.677643   274.310731
 1.000000   2.978237   245.927168
201 psinorm omgvb(kRad/s) domgvb/dpsiN
 0.000000   58.138637   127.405802
 0.005000   58.645003   75.140773
 0.010000   58.890044   45.456285
 0.015000   59.099566   40.250256
 0.020000   59.292547   37.202528
 0.025000   59.471591   34.229785
 0.030000   59.634845   30.930139
 0.035000   59.780893   27.760624
 0.040000   59.912451   24.853361
 0.045000   60.029426   22.088822
 0.050000   60.133339   19.744675
 0.055000   60.226873   17.952774
 0.060000   60.312867   16.690039
 0.065000   60.393773   15.650966
 0.070000   60.469377   14.575890
 0.075000   60.539532   13.417523
 0.080000   60.603552   11.946228
 0.085000   60.658995   10.043820
 0.090000   60.703990   7.816269
 0.095000   60.737157   5.283645
 0.100000   60.756827   2.672437
 0.105000   60.763882   0.089841
 0.110000   60.757725   -2.437837
 0.115000   60.739503   -4.884448
 0.120000   60.708880   -7.141307
 0.125000   60.668090   -9.127190
 0.130000   60.617609   -10.980548
 0.135000   60.558285   -12.815121
 0.140000   60.489457   -14.711371
 0.145000   60.411171   -16.839465
 0.150000   60.321063   -19.232445
 0.155000   60.218847   -21.919828
 0.160000   60.101864   -24.797362
 0.165000   59.970873   -27.797682
 0.170000   59.823888   -30.954332
 0.175000   59.661330   -34.247204
 0.180000   59.481416   -37.593918
 0.185000   59.285390   -40.678517
 0.190000   59.074630   -43.616057
 0.195000   58.849230   -46.249041
 0.200000   58.612140   -48.538248
 0.205000   58.363847   -50.568255
 0.210000   58.106457   -52.139908
 0.215000   57.842448   -53.437983
 0.220000   57.572078   -54.487151
 0.225000   57.297577   -55.309915
 0.230000   57.018978   -56.150630
 0.235000   56.736070   -56.895582
 0.240000   56.450023   -57.658649
 0.245000   56.159484   -58.459796
 0.250000   55.865425   -59.132630
 0.255000   55.568158   -59.783761
 0.260000   55.267587   -60.406947
 0.265000   54.964088   -61.051670
 0.270000   54.657070   -61.819520
 0.275000   54.345893   -62.561153
 0.280000   54.031459   -63.362152
 0.285000   53.712271   -64.362739
 0.290000   53.387831   -65.381878
 0.295000   53.058453   -66.498951
 0.300000   52.722842   -67.700706
 0.305000   52.381446   -68.754951
 0.310000   52.035292   -69.772338
 0.315000   51.683722   -70.783985
 0.320000   51.327453   -71.621635
 0.325000   50.967506   -72.331988
 0.330000   50.604133   -72.907180
 0.335000   50.238434   -73.162298
 0.340000   49.872510   -73.172968
 0.345000   49.506704   -73.022907
 0.350000   49.142281   -72.551040
 0.355000   48.781194   -71.990068
 0.360000   48.422380   -71.564687
 0.365000   48.065547   -71.148235
 0.370000   47.710898   -70.823949
 0.375000   47.357308   -70.660908
 0.380000   47.004289   -70.654216
 0.385000   46.650766   -70.776158
 0.390000   46.296527   -70.878611
 0.395000   45.941979   -70.914043
 0.400000   45.587387   -71.051240
 0.405000   45.231467   -71.688117
 0.410000   44.870505   -73.989115
 0.415000   44.491576   -78.309160
 0.420000   44.087414   -84.135275
 0.425000   43.650223   -91.435780
 0.430000   43.173056   -100.006513
 0.435000   42.650158   -109.816695
 0.440000   42.074889   -120.879400
 0.445000   41.441364   -131.234614
 0.450000   40.762543   -139.491298
 0.455000   40.046451   -145.815291
 0.460000   39.304390   -149.629350
 0.465000   38.550157   -150.356841
 0.470000   37.800822   -146.962604
 0.475000   37.080531   -139.632604
 0.480000   36.404496   -129.778110
 0.485000   35.782750   -118.117773
 0.490000   35.223318   -105.349886
 0.495000   34.729251   -91.867727
 0.500000   34.304641   -78.653387
 0.505000   33.942718   -67.592498
 0.510000   33.628716   -59.016964
 0.515000   33.352548   -52.600132
 0.520000   33.102714   -48.165543
 0.525000   32.870893   -45.394793
 0.530000   32.648766   -44.052660
 0.535000   32.430366   -43.461686
 0.540000   32.214149   -43.115874
 0.545000   31.999207   -42.962865
 0.550000   31.784521   -43.056826
 0.555000   31.568639   -43.323650
 0.560000   31.351284   -43.471467
 0.565000   31.133924   -43.378766
 0.570000   30.917497   -43.140303
 0.575000   30.702521   -42.771520
 0.580000   30.489781   -42.360692
 0.585000   30.278914   -42.126763
 0.590000   30.068514   -42.115112
 0.595000   29.857763   -42.340021
 0.600000   29.645114   -43.002536
 0.605000   29.427738   -44.224095
 0.610000   29.202873   -45.906866
 0.615000   28.968669   -47.991176
 0.620000   28.722961   -50.476049
 0.625000   28.463909   -53.183073
 0.630000   28.191130   -55.944196
 0.635000   27.904467   -58.677623
 0.640000   27.604354   -61.307631
 0.645000   27.291390   -63.662521
 0.650000   26.967729   -65.512772
 0.655000   26.636263   -67.203726
 0.660000   26.295691   -69.095127
 0.665000   25.945311   -71.123568
 0.670000   25.584456   -73.331474
 0.675000   25.211997   -75.692630
 0.680000   24.827529   -78.094328
 0.685000   24.431053   -80.226506
 0.690000   24.025264   -81.670260
 0.695000   23.614351   -82.297131
 0.700000   23.202293   -81.959083
 0.705000   22.794760   -80.759452
 0.710000   22.394699   -79.313858
 0.715000   22.001621   -77.875059
 0.720000   21.615948   -76.490347
 0.725000   21.236718   -75.445129
 0.730000   20.861497   -75.015263
 0.735000   20.486565   -75.439935
 0.740000   20.107097   -76.671826
 0.745000   19.719847   -78.589736
 0.750000   19.321200   -81.121316
 0.755000   18.908634   -83.938259
 0.760000   18.481817   -86.682533
 0.765000   18.041809   -88.628804
 0.770000   17.595529   -89.307694
 0.775000   17.148732   -88.784438
 0.780000   16.707685   -86.993563
 0.785000   16.278796   -84.295596
 0.790000   15.864729   -81.285538
 0.795000   15.465941   -78.585254
 0.800000   15.078876   -76.696119
 0.805000   14.698979   -75.806032
 0.810000   14.320816   -75.837802
 0.815000   13.940601   -76.512873
 0.820000   13.555687   -77.415454
 0.825000   13.166447   -77.879894
 0.830000   12.776889   -77.540389
 0.835000   12.391043   -76.498116
 0.840000   12.011907   -75.071116
 0.845000   11.640332   -73.668202
 0.850000   11.275225   -72.680662
 0.855000   10.913525   -73.015822
 0.860000   10.545067   -75.482801
 0.865000   10.158697   -80.292205
 0.870000   9.742145   -87.445695
 0.875000   9.284240   -96.991474
 0.880000   8.772230   -109.225542
 0.885000   8.191985   -123.574353
 0.890000   7.536487   -139.256302
 0.895000   6.799422   -156.389572
 0.900000   5.972591   -173.795113
 0.905000   5.061471   -190.046375
 0.910000   4.072127   -204.477178
 0.915000   3.016699   -215.430320
 0.920000   1.917824   -221.153864
 0.925000   0.805160   -221.082956
 0.930000   -0.293005   -212.983235
 0.935000   -1.324672   -193.036600
 0.940000   -2.223371   -161.459407
 0.945000   -2.939266   -121.312450
 0.950000   -3.436496   -73.994729
 0.955000   -3.679213   -20.415953
 0.960000   -3.640655   36.276324
 0.965000   -3.316450   94.275308
 0.970000   -2.697902   150.303016
 0.975000   -1.813420   199.783365
 0.980000   -0.700069   241.864185
 0.985000   0.605222   272.506025
 0.990000   2.024991   283.813841
 0.995000   3.443360   269.418367
 1.000000   4.719175   240.907626
201 psinorm omgpp(kRad/s) domgpp/dpsiN
 0.000000   -0.053746   -26.760897
 0.005000   -0.217462   -38.725446
 0.010000   -0.441001   -45.296448
 0.015000   -0.670426   -46.401647
 0.020000   -0.905017   -47.339857
 0.025000   -1.143825   -48.073313
 0.030000   -1.385750   -48.609407
 0.035000   -1.629919   -48.940878
 0.040000   -1.875159   -49.040511
 0.045000   -2.120324   -48.913231
 0.050000   -2.364291   -48.516670
 0.055000   -2.605491   -47.853825
 0.060000   -2.842830   -47.179799
 0.065000   -3.077289   -46.490818
 0.070000   -3.307738   -45.646870
 0.075000   -3.533758   -44.715454
 0.080000   -3.754892   -43.658975
 0.085000   -3.970347   -42.484358
 0.090000   -4.179736   -41.379207
 0.095000   -4.384139   -40.239734
 0.100000   -4.582133   -38.907324
 0.105000   -4.773213   -37.480549
 0.110000   -4.956939   -35.978540
 0.115000   -5.132998   -34.497004
 0.120000   -5.301909   -33.029999
 0.125000   -5.463298   -31.363764
 0.130000   -5.615546   -29.454328
 0.135000   -5.757841   -27.395246
 0.140000   -5.889499   -25.216884
 0.145000   -6.010010   -22.818578
 0.150000   -6.117685   -20.375291
 0.155000   -6.213763   -17.952719
 0.160000   -6.297212   -15.404678
 0.165000   -6.367810   -12.827994
 0.170000   -6.425492   -10.252047
 0.175000   -6.470330   -7.375670
 0.180000   -6.499248   -4.835997
 0.185000   -6.518690   -2.789460
 0.190000   -6.527143   -0.693140
 0.195000   -6.525622   1.165364
 0.200000   -6.515489   2.740655
 0.205000   -6.498215   4.010459
 0.210000   -6.475385   4.828644
 0.215000   -6.449929   5.493275
 0.220000   -6.420452   6.282195
 0.225000   -6.387107   7.041776
 0.230000   -6.350034   7.792160
 0.235000   -6.309185   8.124801
 0.240000   -6.268786   8.956295
 0.245000   -6.219622   10.897830
 0.250000   -6.159808   12.942813
 0.255000   -6.090194   14.939971
 0.260000   -6.010408   16.982758
 0.265000   -5.920367   18.987586
 0.270000   -5.820532   21.231542
 0.275000   -5.708051   23.565951
 0.280000   -5.584873   25.578054
 0.285000   -5.452271   27.432501
 0.290000   -5.310548   29.227009
 0.295000   -5.160000   31.319667
 0.300000   -4.997351   33.144293
 0.305000   -4.828558   33.425289
 0.310000   -4.663098   32.795224
 0.315000   -4.500605   32.077532
 0.320000   -4.342323   31.170649
 0.325000   -4.188899   30.106276
 0.330000   -4.041260   28.753220
 0.335000   -3.901367   27.527410
 0.340000   -3.765986   26.698796
 0.345000   -3.634379   26.010475
 0.350000   -3.505881   25.456612
 0.355000   -3.379813   24.819391
 0.360000   -3.257687   24.042563
 0.365000   -3.139387   24.198041
 0.370000   -3.015707   25.049273
 0.375000   -2.888894   25.793635
 0.380000   -2.757771   26.695459
 0.385000   -2.621940   27.603827
 0.390000   -2.481732   28.604526
 0.395000   -2.335894   29.334911
 0.400000   -2.188383   29.358617
 0.405000   -2.042308   28.888901
 0.410000   -1.899494   28.085076
 0.415000   -1.761457   27.068501
 0.420000   -1.628809   26.216067
 0.425000   -1.499297   24.694583
 0.430000   -1.381863   22.666339
 0.435000   -1.272633   21.009882
 0.440000   -1.171765   19.329964
 0.445000   -1.079334   17.646114
 0.450000   -0.995303   16.222177
 0.455000   -0.917112   14.416136
 0.460000   -0.851142   12.334915
 0.465000   -0.793763   10.611588
 0.470000   -0.745026   8.891251
 0.475000   -0.704850   7.197915
 0.480000   -0.673047   5.577598
 0.485000   -0.649074   4.233379
 0.490000   -0.630713   3.170121
 0.495000   -0.617373   2.152525
 0.500000   -0.609188   1.102528
 0.505000   -0.606348   0.005930
 0.510000   -0.609129   -1.125919
 0.515000   -0.617607   -2.322090
 0.520000   -0.632350   -3.523832
 0.525000   -0.652845   -4.650377
 0.530000   -0.678853   -5.740157
 0.535000   -0.710247   -6.805665
 0.540000   -0.746910   -7.872052
 0.545000   -0.788967   -8.932446
 0.550000   -0.836235   -9.949039
 0.555000   -0.888458   -10.930298
 0.560000   -0.945538   -11.882826
 0.565000   -1.007286   -12.791946
 0.570000   -1.073457   -13.700925
 0.575000   -1.144295   -14.532162
 0.580000   -1.218779   -15.210950
 0.585000   -1.296405   -15.850512
 0.590000   -1.377284   -16.465920
 0.595000   -1.461064   -17.003412
 0.600000   -1.547318   -17.545719
 0.605000   -1.636521   -18.021143
 0.610000   -1.727529   -18.217394
 0.615000   -1.818695   -18.279660
 0.620000   -1.910326   -18.312324
 0.625000   -2.001818   -18.218845
 0.630000   -2.092514   -18.061383
 0.635000   -2.182432   -17.747163
 0.640000   -2.269986   -17.050623
 0.645000   -2.352938   -16.204104
 0.650000   -2.432027   -15.413471
 0.655000   -2.507073   -14.598054
 0.660000   -2.578008   -13.807644
 0.665000   -2.645150   -13.165716
 0.670000   -2.709665   -12.772497
 0.675000   -2.772875   -12.763672
 0.680000   -2.837301   -13.040344
 0.685000   -2.903278   -13.326936
 0.690000   -2.970571   -13.689072
 0.695000   -3.040169   -14.611817
 0.700000   -3.116689   -14.436227
 0.705000   -3.184531   -13.193347
 0.710000   -3.248622   -12.270361
 0.715000   -3.307235   -10.968789
 0.720000   -3.358310   -9.304166
 0.725000   -3.400276   -7.602513
 0.730000   -3.434335   -4.182469
 0.735000   -3.442101   0.330072
 0.740000   -3.431035   4.197233
 0.745000   -3.400129   8.205301
 0.750000   -3.348982   12.217419
 0.755000   -3.277954   16.713024
 0.760000   -3.181851   20.547602
 0.765000   -3.072478   23.063259
 0.770000   -2.951219   25.120417
 0.775000   -2.821274   26.521715
 0.780000   -2.686002   27.260783
 0.785000   -2.548666   28.046964
 0.790000   -2.405532   27.443804
 0.795000   -2.274228   25.502699
 0.800000   -2.150505   23.931367
 0.805000   -2.034915   22.247722
 0.810000   -1.928028   20.526728
 0.815000   -1.829647   19.027462
 0.820000   -1.737753   17.785467
 0.825000   -1.651793   16.656687
 0.830000   -1.571186   15.551248
 0.835000   -1.496280   14.327818
 0.840000   -1.427908   12.909806
 0.845000   -1.367182   11.051554
 0.850000   -1.317393   8.673494
 0.855000   -1.280447   6.113430
 0.860000   -1.256258   3.407944
 0.865000   -1.246368   0.448609
 0.870000   -1.251772   -2.717101
 0.875000   -1.273539   -6.673727
 0.880000   -1.318510   -11.383679
 0.885000   -1.387376   -16.380525
 0.890000   -1.482315   -22.537551
 0.895000   -1.612751   -30.435761
 0.900000   -1.786672   -40.228337
 0.905000   -2.015034   -54.633586
 0.910000   -2.333008   -74.832044
 0.915000   -2.763355   -97.591893
 0.920000   -3.308927   -126.563749
 0.925000   -4.028992   -166.987610
 0.930000   -4.978803   -219.288839
 0.935000   -6.221881   -289.056069
 0.940000   -7.869364   -375.199473
 0.945000   -9.973876   -449.564024
 0.950000   -12.365004   -500.906393
 0.955000   -14.982939   -521.060351
 0.960000   -17.575608   -478.452360
 0.965000   -19.767463   -360.890222
 0.970000   -21.184510   -171.552988
 0.975000   -21.482993   76.106468
 0.980000   -20.423445   312.091300
 0.985000   -18.362080   471.919840
 0.990000   -15.704247   543.298853
 0.995000   -12.929091   525.655155
 1.000000   -10.447695   466.903290
201 psinorm omgeb(kRad/s) domgeb/dpsiN
 0.000000   58.084891   100.644905
 0.005000   58.427541   36.415327
 0.010000   58.449044   0.159837
 0.015000   58.429139   -6.151391
 0.020000   58.387530   -10.137328
 0.025000   58.327766   -13.843528
 0.030000   58.249095   -17.679268
 0.035000   58.150974   -21.180254
 0.040000   58.037292   -24.187151
 0.045000   57.909102   -26.824409
 0.050000   57.769048   -28.771995
 0.055000   57.621382   -29.901051
 0.060000   57.470037   -30.489760
 0.065000   57.316484   -30.839851
 0.070000   57.161639   -31.070980
 0.075000   57.005775   -31.297931
 0.080000   56.848660   -31.712746
 0.085000   56.688647   -32.440538
 0.090000   56.524254   -33.562938
 0.095000   56.353018   -34.956090
 0.100000   56.174693   -36.234887
 0.105000   55.990669   -37.390708
 0.110000   55.800786   -38.416377
 0.115000   55.606505   -39.381452
 0.120000   55.406972   -40.171306
 0.125000   55.204792   -40.490954
 0.130000   55.002062   -40.434876
 0.135000   54.800443   -40.210366
 0.140000   54.599959   -39.928255
 0.145000   54.401161   -39.658043
 0.150000   54.203378   -39.607736
 0.155000   54.005083   -39.872547
 0.160000   53.804653   -40.202040
 0.165000   53.603063   -40.625677
 0.170000   53.398396   -41.206379
 0.175000   53.190999   -41.622874
 0.180000   52.982167   -42.429915
 0.185000   52.766700   -43.467977
 0.190000   52.547487   -44.309198
 0.195000   52.323608   -45.083676
 0.200000   52.096651   -45.797593
 0.205000   51.865632   -46.557796
 0.210000   51.631073   -47.311265
 0.215000   51.392520   -47.944708
 0.220000   51.151626   -48.204956
 0.225000   50.910470   -48.268140
 0.230000   50.668944   -48.358470
 0.235000   50.426885   -48.770781
 0.240000   50.181236   -48.702354
 0.245000   49.939862   -47.561966
 0.250000   49.705617   -46.189818
 0.255000   49.477964   -44.843790
 0.260000   49.257179   -43.424190
 0.265000   49.043722   -42.064084
 0.270000   48.836538   -40.587978
 0.275000   48.637842   -38.995202
 0.280000   48.446586   -37.784099
 0.285000   48.260001   -36.930237
 0.290000   48.077284   -36.154869
 0.295000   47.898452   -35.179284
 0.300000   47.725491   -34.556413
 0.305000   47.552888   -35.329662
 0.310000   47.372194   -36.977113
 0.315000   47.183117   -38.706454
 0.320000   46.985130   -40.450986
 0.325000   46.778607   -42.225712
 0.330000   46.562872   -44.153960
 0.335000   46.337068   -45.634888
 0.340000   46.106524   -46.474172
 0.345000   45.872326   -47.012431
 0.350000   45.636399   -47.094427
 0.355000   45.401382   -47.170676
 0.360000   45.164693   -47.522124
 0.365000   44.926160   -46.950194
 0.370000   44.695191   -45.774675
 0.375000   44.468414   -44.867274
 0.380000   44.246518   -43.958757
 0.385000   44.028826   -43.172331
 0.390000   43.814795   -42.274085
 0.395000   43.606085   -41.579131
 0.400000   43.399003   -41.692623
 0.405000   43.189159   -42.799215
 0.410000   42.971011   -45.904038
 0.415000   42.730118   -51.240659
 0.420000   42.458604   -57.919209
 0.425000   42.150926   -66.741197
 0.430000   41.791193   -77.340174
 0.435000   41.377525   -88.806813
 0.440000   40.903124   -101.549436
 0.445000   40.362030   -113.588500
 0.450000   39.767239   -123.269121
 0.455000   39.129339   -131.399156
 0.460000   38.453248   -137.294435
 0.465000   37.756395   -139.745254
 0.470000   37.055795   -138.071353
 0.475000   36.375681   -132.434688
 0.480000   35.731448   -124.200512
 0.485000   35.133676   -113.884393
 0.490000   34.592604   -102.179764
 0.495000   34.111878   -89.715202
 0.500000   33.695452   -77.550859
 0.505000   33.336370   -67.586568
 0.510000   33.019587   -60.142883
 0.515000   32.734941   -54.922222
 0.520000   32.470365   -51.689375
 0.525000   32.218047   -50.045170
 0.530000   31.969913   -49.792818
 0.535000   31.720119   -50.267351
 0.540000   31.467239   -50.987925
 0.545000   31.210240   -51.895311
 0.550000   30.948286   -53.005865
 0.555000   30.680181   -54.253948
 0.560000   30.405747   -55.354292
 0.565000   30.126638   -56.170712
 0.570000   29.844040   -56.841228
 0.575000   29.558226   -57.303682
 0.580000   29.271003   -57.571642
 0.585000   28.982510   -57.977275
 0.590000   28.691230   -58.581032
 0.595000   28.396699   -59.343433
 0.600000   28.097796   -60.548255
 0.605000   27.791217   -62.245237
 0.610000   27.475343   -64.124260
 0.615000   27.149974   -66.270835
 0.620000   26.812635   -68.788373
 0.625000   26.462090   -71.401917
 0.630000   26.098616   -74.005580
 0.635000   25.722035   -76.424787
 0.640000   25.334368   -78.358254
 0.645000   24.938452   -79.866625
 0.650000   24.535702   -80.926243
 0.655000   24.129190   -81.801780
 0.660000   23.717684   -82.902771
 0.665000   23.300162   -84.289284
 0.670000   22.874791   -86.103971
 0.675000   22.439122   -88.456303
 0.680000   21.990228   -91.134672
 0.685000   21.527775   -93.553442
 0.690000   21.054694   -95.359332
 0.695000   20.574182   -96.908948
 0.700000   20.085604   -96.395309
 0.705000   19.610229   -93.952799
 0.710000   19.146076   -91.584219
 0.715000   18.694387   -88.843848
 0.720000   18.257638   -85.794514
 0.725000   17.836442   -83.047642
 0.730000   17.427161   -79.197732
 0.735000   17.044464   -75.109862
 0.740000   16.676063   -72.474593
 0.745000   16.319718   -70.384435
 0.750000   15.972218   -68.903898
 0.755000   15.630679   -67.225235
 0.760000   15.299966   -66.134931
 0.765000   14.969330   -65.565545
 0.770000   14.644310   -64.187277
 0.775000   14.327457   -62.262723
 0.780000   14.021683   -59.732781
 0.785000   13.730130   -56.248632
 0.790000   13.459197   -53.841733
 0.795000   13.191712   -53.082555
 0.800000   12.928371   -52.764752
 0.805000   12.664065   -53.558310
 0.810000   12.392788   -55.311074
 0.815000   12.110954   -57.485410
 0.820000   11.817934   -59.629987
 0.825000   11.514654   -61.223207
 0.830000   11.205702   -61.989141
 0.835000   10.894763   -62.170298
 0.840000   10.583999   -62.161310
 0.845000   10.273150   -62.616648
 0.850000   9.957833   -64.007169
 0.855000   9.633078   -66.902392
 0.860000   9.288809   -72.074857
 0.865000   8.912329   -79.843596
 0.870000   8.490373   -90.162796
 0.875000   8.010701   -103.665200
 0.880000   7.453721   -120.609221
 0.885000   6.804609   -139.954878
 0.890000   6.054172   -161.793853
 0.895000   5.186671   -186.825332
 0.900000   4.185919   -214.023450
 0.905000   3.046436   -244.679961
 0.910000   1.739119   -279.309222
 0.915000   0.253344   -313.022213
 0.920000   -1.391103   -347.717613
 0.925000   -3.223832   -388.070566
 0.930000   -5.271809   -432.272074
 0.935000   -7.546553   -482.092669
 0.940000   -10.092735   -536.658880
 0.945000   -12.913142   -570.876474
 0.950000   -15.801500   -574.901122
 0.955000   -18.662153   -541.476304
 0.960000   -21.216263   -442.176036
 0.965000   -23.083913   -266.614914
 0.970000   -23.882412   -21.249972
 0.975000   -23.296413   275.889833
 0.980000   -21.123514   553.955485
 0.985000   -17.756858   744.425865
 0.990000   -13.679255   827.112693
 0.995000   -9.485731   795.073523
 1.000000   -5.728520   707.810917
201 psinorm er(kV/m) der/dpsiN
 0.000000   1.358594   902.840912
 0.005000   5.126825   604.451397
 0.010000   7.403108   403.413272
 0.015000   9.160958   322.079014
 0.020000   10.623898   275.749396
 0.025000   11.918452   246.112960
 0.030000   13.085028   222.949765
 0.035000   14.147949   204.240575
 0.040000   15.127434   189.095262
 0.045000   16.038902   175.700334
 0.050000   16.884437   165.176533
 0.055000   17.690667   157.164867
 0.060000   18.456086   148.475317
 0.065000   19.175420   138.465114
 0.070000   19.840737   133.557317
 0.075000   20.510994   129.372846
 0.080000   21.134465   119.902844
 0.085000   21.710022   116.642630
 0.090000   22.300892   111.594182
 0.095000   22.825964   105.640429
 0.100000   23.357296   102.331730
 0.105000   23.849281   95.732417
 0.110000   24.314620   93.221360
 0.115000   24.781495   87.716496
 0.120000   25.191785   84.895209
 0.125000   25.630447   80.804952
 0.130000   25.999834   77.796409
 0.135000   26.408411   75.192486
 0.140000   26.751759   71.642982
 0.145000   27.124841   70.296264
 0.150000   27.454722   65.926967
 0.155000   27.784110   65.289500
 0.160000   28.107617   60.218357
 0.165000   28.386294   60.081725
 0.170000   28.708434   54.706805
 0.175000   28.933362   53.199451
 0.180000   29.240429   51.735770
 0.185000   29.450720   46.168438
 0.190000   29.702113   48.252783
 0.195000   29.933248   41.080439
 0.200000   30.112918   41.852117
 0.205000   30.351769   37.608580
 0.210000   30.489003   33.378677
 0.215000   30.685556   37.042386
 0.220000   30.859427   29.341680
 0.225000   30.978972   29.979412
 0.230000   31.159221   28.881792
 0.235000   31.267790   23.432107
 0.240000   31.393542   27.920472
 0.245000   31.546995   21.313781
 0.250000   31.606680   20.092749
 0.255000   31.747922   26.256576
 0.260000   31.869246   19.303324
 0.265000   31.940956   20.304699
 0.270000   32.072293   23.110322
 0.275000   32.172059   18.088986
 0.280000   32.253183   20.431507
 0.285000   32.376374   20.491726
 0.290000   32.458100   16.353294
 0.295000   32.539907   19.368994
 0.300000   32.651790   17.925747
 0.305000   32.719164   13.671806
 0.310000   32.788508   15.059280
 0.315000   32.869757   11.554907
 0.320000   32.904057   7.093274
 0.325000   32.940690   8.043523
 0.330000   32.984492   4.641853
 0.335000   32.987108   0.521769
 0.340000   32.989710   1.526340
 0.345000   33.002372   -0.179611
 0.350000   32.987914   -3.297437
 0.355000   32.969397   -2.463862
 0.360000   32.963275   -3.099483
 0.365000   32.938403   -5.776101
 0.370000   32.905514   -4.757290
 0.375000   32.890830   -3.597703
 0.380000   32.869537   -5.920006
 0.385000   32.831630   -5.781995
 0.390000   32.811717   -3.976824
 0.395000   32.791861   -6.255966
 0.400000   32.749158   -7.314543
 0.405000   32.718716   -6.902200
 0.410000   32.680136   -11.249964
 0.415000   32.606216   -16.696584
 0.420000   32.513170   -21.332130
 0.425000   32.392895   -28.961100
 0.430000   32.223559   -38.808096
 0.435000   32.004814   -48.179926
 0.440000   31.741760   -58.262654
 0.445000   31.422188   -69.327562
 0.450000   31.048484   -77.947121
 0.455000   30.642716   -84.464760
 0.460000   30.203836   -90.494645
 0.465000   29.737770   -93.749795
 0.470000   29.266338   -92.893888
 0.475000   28.808831   -89.171204
 0.480000   28.374626   -83.984380
 0.485000   27.968987   -76.598561
 0.490000   27.608641   -67.475669
 0.495000   27.294231   -58.558252
 0.500000   27.023058   -49.612354
 0.505000   26.798107   -41.705254
 0.510000   26.606006   -36.220195
 0.515000   26.435905   -32.818953
 0.520000   26.277816   -30.549424
 0.525000   26.130411   -29.262533
 0.530000   25.985191   -29.828192
 0.535000   25.832129   -30.732178
 0.540000   25.677869   -31.248648
 0.545000   25.519642   -32.456762
 0.550000   25.353301   -34.061570
 0.555000   25.179027   -35.264398
 0.560000   25.000657   -36.171659
 0.565000   24.817310   -37.663903
 0.570000   24.624018   -38.647233
 0.575000   24.430838   -38.805761
 0.580000   24.235961   -39.506042
 0.585000   24.035777   -40.558956
 0.590000   23.830371   -41.127464
 0.595000   23.624503   -41.586705
 0.600000   23.414504   -43.561530
 0.605000   23.188887   -45.382178
 0.610000   22.960682   -46.483673
 0.615000   22.724051   -48.714271
 0.620000   22.473540   -51.660719
 0.625000   22.207443   -53.897788
 0.630000   21.934562   -55.737525
 0.635000   21.650068   -58.693403
 0.640000   21.347628   -60.846840
 0.645000   21.041600   -61.671306
 0.650000   20.730915   -62.701529
 0.655000   20.414585   -64.495233
 0.660000   20.085962   -65.564889
 0.665000   19.758936   -66.140928
 0.670000   19.424553   -68.387436
 0.675000   19.075061   -71.130647
 0.680000   18.713247   -73.132760
 0.685000   18.343734   -74.887158
 0.690000   17.964375   -77.586043
 0.695000   17.567873   -79.283271
 0.700000   17.171542   -78.097629
 0.705000   16.786897   -76.299576
 0.710000   16.408547   -75.358913
 0.715000   16.033308   -72.984967
 0.720000   15.678697   -69.655052
 0.725000   15.336757   -68.068076
 0.730000   14.998016   -65.466509
 0.735000   14.682092   -61.486275
 0.740000   14.383153   -58.819529
 0.745000   14.093897   -58.129073
 0.750000   13.801863   -57.175070
 0.755000   13.522146   -54.906606
 0.760000   13.252797   -54.080584
 0.765000   12.981340   -54.620419
 0.770000   12.706592   -53.437556
 0.775000   12.446965   -51.035595
 0.780000   12.196236   -49.324992
 0.785000   11.953715   -46.943135
 0.790000   11.726805   -44.661367
 0.795000   11.507101   -43.644274
 0.800000   11.290362   -43.936945
 0.805000   11.067732   -45.006888
 0.810000   10.840294   -46.259168
 0.815000   10.605140   -48.070969
 0.820000   10.359584   -50.561777
 0.825000   10.099522   -52.197928
 0.830000   9.837605   -52.571948
 0.835000   9.573803   -52.853934
 0.840000   9.309065   -53.349785
 0.845000   9.040305   -53.913751
 0.850000   8.769928   -54.951938
 0.855000   8.490786   -57.690208
 0.860000   8.193026   -62.656403
 0.865000   7.864222   -69.652609
 0.870000   7.496500   -78.681461
 0.875000   7.077407   -90.830301
 0.880000   6.588197   -106.150217
 0.885000   6.015905   -123.364573
 0.890000   5.354551   -142.661259
 0.895000   4.589292   -164.966482
 0.900000   3.704886   -189.146033
 0.905000   2.697832   -216.296991
 0.910000   1.541916   -247.030428
 0.915000   0.227528   -277.297174
 0.920000   -1.231056   -308.152554
 0.925000   -2.853998   -343.952075
 0.930000   -4.670576   -384.649293
 0.935000   -6.700491   -434.910650
 0.940000   -9.019683   -484.835757
 0.945000   -11.548848   -511.907396
 0.950000   -14.138757   -525.036773
 0.955000   -16.799216   -519.305396
 0.960000   -19.331811   -427.022520
 0.965000   -21.069441   -250.069195
 0.970000   -21.832503   -34.633599
 0.975000   -21.415777   227.932825
 0.980000   -19.553175   496.161017
 0.985000   -16.454167   686.009978
 0.990000   -12.693075   765.668448
 0.995000   -8.797483   738.332505
 1.000000   -5.309750   656.760675
201 psinorm ommvb() dommvb/dpsiN
 0.000000   21.348641   24610.345725
 0.005000   121.232947   15343.376793
 0.010000   174.782409   9745.938040
 0.015000   218.692328   8167.454184
 0.020000   256.456951   7013.980870
 0.025000   288.832136   6053.674741
 0.030000   316.993698   5275.192757
 0.035000   341.584064   4626.688270
 0.040000   363.260581   4140.775257
 0.045000   382.991816   3650.792202
 0.050000   399.768503   3131.313897
 0.055000   414.304955   2851.401467
 0.060000   428.282518   2516.357692
 0.065000   439.468532   2164.762260
 0.070000   449.930140   1928.893310
 0.075000   458.757465   1653.945628
 0.080000   466.469596   1388.276130
 0.085000   472.640227   1151.098209
 0.090000   477.980579   974.192618
 0.095000   482.382153   718.013496
 0.100000   485.160713   450.013988
 0.105000   486.882293   305.722191
 0.110000   488.217935   183.712493
 0.115000   488.719418   19.324460
 0.120000   488.411180   -152.097996
 0.125000   487.198438   -309.638150
 0.130000   485.314798   -455.889464
 0.135000   482.639543   -596.989673
 0.140000   479.344902   -720.472417
 0.145000   475.434819   -844.601771
 0.150000   470.898884   -965.035531
 0.155000   465.784464   -1065.761045
 0.160000   460.241274   -1148.562353
 0.165000   454.298840   -1230.396242
 0.170000   447.937311   -1301.788977
 0.175000   441.280950   -1366.459216
 0.180000   434.272719   -1423.227090
 0.185000   427.048680   -1453.259602
 0.190000   419.740123   -1472.588835
 0.195000   412.322791   -1492.260291
 0.200000   404.817520   -1506.844993
 0.205000   397.254341   -1516.640108
 0.210000   389.651119   -1519.280955
 0.215000   382.061532   -1512.324374
 0.220000   374.527875   -1570.460010
 0.225000   366.356932   -1678.396895
 0.230000   357.743906   -1578.428703
 0.235000   350.572645   -1418.465121
 0.240000   343.559255   -1384.254581
 0.245000   336.730099   -1349.108195
 0.250000   330.068173   -1313.242023
 0.255000   323.597679   -1402.963597
 0.260000   316.038537   -1445.285398
 0.265000   309.144825   -1250.716511
 0.270000   303.531372   -1112.162383
 0.275000   298.023201   -1084.477549
 0.280000   292.686597   -1032.688265
 0.285000   287.696318   -1163.395332
 0.290000   281.052643   -1108.009651
 0.295000   276.616222   -847.418209
 0.300000   272.578461   -789.191351
 0.305000   268.724308   -752.584122
 0.310000   265.052620   -864.677894
 0.315000   260.077529   -825.528665
 0.320000   256.797333   -608.453063
 0.325000   253.992998   -535.139005
 0.330000   251.445943   -494.272632
 0.335000   249.050272   -592.030735
 0.340000   245.525636   -550.970542
 0.345000   243.540567   -383.726378
 0.350000   241.688372   -357.623175
 0.355000   239.964335   -411.444435
 0.360000   237.573928   -412.918517
 0.365000   235.835150   -291.843392
 0.370000   234.655494   -227.102222
 0.375000   233.564128   -243.070387
 0.380000   232.224790   -280.380203
 0.385000   230.760326   -230.645467
 0.390000   229.918335   -159.550126
 0.395000   229.164824   -147.456693
 0.400000   228.443768   -188.148620
 0.405000   227.283338   -151.927937
 0.410000   226.924489   -71.196473
 0.415000   226.571373   -71.296706
 0.420000   226.211522   -147.510539
 0.425000   225.096268   -147.594575
 0.430000   224.735576   -76.944977
 0.435000   224.326818   -87.202699
 0.440000   223.863549   -164.139145
 0.445000   222.685427   -172.826040
 0.450000   222.135289   -106.289546
 0.455000   221.622531   -103.108683
 0.460000   221.104202   -166.178216
 0.465000   219.960749   -168.159161
 0.470000   219.422610   -96.641809
 0.475000   218.994331   -79.471992
 0.480000   218.627890   -118.671226
 0.485000   217.807619   -102.523114
 0.490000   217.602659   -26.168604
 0.495000   217.545933   -2.422075
 0.500000   217.578439   -29.265329
 0.505000   217.253279   -15.832521
 0.510000   217.420113   44.819353
 0.515000   217.701473   60.803927
 0.520000   218.028153   38.744222
 0.525000   218.088915   51.370102
 0.530000   218.541854   94.613180
 0.535000   219.035047   98.084962
 0.540000   219.522703   75.137278
 0.545000   219.786420   81.665718
 0.550000   220.339360   119.713300
 0.555000   220.983553   131.418385
 0.560000   221.653544   120.504076
 0.565000   222.188594   127.478631
 0.570000   222.928331   162.426625
 0.575000   223.812860   182.985113
 0.580000   224.758182   188.109571
 0.585000   225.693955   196.507152
 0.590000   226.723253   222.811174
 0.595000   227.922067   243.675100
 0.600000   229.160004   243.592778
 0.605000   230.357995   265.600391
 0.610000   231.816008   307.100697
 0.615000   233.429002   333.664893
 0.620000   235.152657   357.130646
 0.625000   237.000308   390.794016
 0.630000   239.060597   424.972661
 0.635000   241.250035   449.020542
 0.640000   243.550803   473.496154
 0.645000   245.984997   516.412941
 0.650000   248.714932   562.719881
 0.655000   251.612195   582.708771
 0.660000   254.542020   600.010329
 0.665000   257.612299   628.187797
 0.670000   260.823898   679.213078
 0.675000   264.404429   715.793183
 0.680000   267.981830   724.565617
 0.685000   271.650086   750.191737
 0.690000   275.483747   792.564206
 0.695000   279.575728   859.631354
 0.700000   284.080061   904.016635
 0.705000   288.615894   929.232209
 0.710000   293.372383   977.844919
 0.715000   298.394343   1041.238816
 0.720000   303.784771   1135.136126
 0.725000   309.745705   1192.306124
 0.730000   315.707832   1223.797980
 0.735000   321.983684   1288.551084
 0.740000   328.593343   1356.399175
 0.745000   335.547676   1449.752507
 0.750000   343.090868   1511.247128
 0.755000   350.660147   1536.239845
 0.760000   358.453266   1588.963673
 0.765000   366.549784   1653.565915
 0.770000   374.988926   1730.213764
 0.775000   383.851922   1827.500938
 0.780000   393.263935   1906.858145
 0.785000   402.920503   1978.825152
 0.790000   413.052186   2074.882152
 0.795000   423.669325   2173.479346
 0.800000   434.786980   2273.380614
 0.805000   446.403131   2364.203189
 0.810000   458.429012   2449.253379
 0.815000   470.895665   2547.464821
 0.820000   483.903660   2657.465082
 0.825000   497.470315   2773.633726
 0.830000   511.639997   2897.750034
 0.835000   526.447816   3025.043015
 0.840000   541.890427   3114.350820
 0.845000   557.591324   3210.889910
 0.850000   573.999326   3383.470613
 0.855000   591.426030   3574.618663
 0.860000   609.745513   3803.643755
 0.865000   629.462468   4131.721128
 0.870000   651.062724   4537.343597
 0.875000   674.835904   4979.548328
 0.880000   700.858208   5454.290350
 0.885000   729.378807   5935.818447
 0.890000   760.216392   6338.544120
 0.895000   792.764248   6862.573679
 0.900000   828.842129   7456.695869
 0.905000   867.331207   7936.800759
 0.910000   908.210137   8322.235790
 0.915000   950.553565   8522.306861
 0.920000   993.433205   8658.134696
 0.925000   1037.134912   9122.807302
 0.930000   1084.661278   10599.830456
 0.935000   1143.133216   14273.306568
 0.940000   1227.394344   21905.227425
 0.945000   1362.185491   35164.684914
 0.950000   1579.041193   54120.526664
 0.955000   1903.390757   75741.420622
 0.960000   2336.455399   94346.943119
 0.965000   2846.860189   103293.954323
 0.970000   3369.394942   95970.119671
 0.975000   3806.561385   71825.488523
 0.980000   4087.649828   39949.494951
 0.985000   4206.056335   8399.689525
 0.990000   4171.646723   -18639.318589
 0.995000   4019.663149   166116.202401
 1.000000   5832.808747   559142.036830
201 psinorm ommpp() dommpp/dpsiN
 0.000000   36.736250   -24509.700820
 0.005000   -62.805406   -15306.961467
 0.010000   -116.333365   -9745.778203
 0.015000   -160.263188   -8173.605575
 0.020000   -198.069421   -7024.118198
 0.025000   -230.504370   -6067.518269
 0.030000   -258.744604   -5292.872025
 0.035000   -283.433090   -4647.868524
 0.040000   -305.223289   -4164.962407
 0.045000   -325.082714   -3677.616611
 0.050000   -341.999455   -3160.085893
 0.055000   -356.683573   -2881.302518
 0.060000   -370.812480   -2546.847452
 0.065000   -382.152048   -2195.602111
 0.070000   -392.768501   -1959.964291
 0.075000   -401.751691   -1685.243559
 0.080000   -409.620937   -1419.988876
 0.085000   -415.951580   -1183.538747
 0.090000   -421.456324   -1007.755556
 0.095000   -426.029135   -752.969585
 0.100000   -428.986020   -486.248875
 0.105000   -430.891624   -343.112899
 0.110000   -432.417149   -222.128870
 0.115000   -433.112913   -58.705912
 0.120000   -433.004208   111.926691
 0.125000   -431.993646   269.147196
 0.130000   -430.312736   415.454588
 0.135000   -427.839100   556.779306
 0.140000   -424.744943   680.544162
 0.145000   -421.033658   804.943728
 0.150000   -416.695506   925.427795
 0.155000   -411.779380   1025.888499
 0.160000   -406.436621   1108.360312
 0.165000   -400.695777   1189.770566
 0.170000   -394.538915   1260.582597
 0.175000   -388.089951   1324.836343
 0.180000   -381.290552   1380.797175
 0.185000   -374.281979   1409.791625
 0.190000   -367.192636   1428.279637
 0.195000   -359.999183   1447.176615
 0.200000   -352.720869   1461.047400
 0.205000   -345.388709   1470.082312
 0.210000   -338.020046   1471.969691
 0.215000   -330.669012   1464.379666
 0.220000   -323.376250   1522.255054
 0.225000   -315.446462   1630.128755
 0.230000   -307.074962   1530.070233
 0.235000   -300.145759   1369.694340
 0.240000   -293.378019   1335.552226
 0.245000   -286.790237   1301.546229
 0.250000   -280.362556   1267.052205
 0.255000   -274.119715   1358.119807
 0.260000   -266.781358   1401.861209
 0.265000   -260.101103   1208.652427
 0.270000   -254.694834   1071.574405
 0.275000   -249.385359   1045.482347
 0.280000   -244.240011   994.904166
 0.285000   -239.436317   1126.465094
 0.290000   -232.975360   1071.854783
 0.295000   -228.717769   812.238925
 0.300000   -224.852970   754.634938
 0.305000   -221.171420   717.254460
 0.310000   -217.680426   827.700781
 0.315000   -212.894412   786.822211
 0.320000   -209.812204   568.002076
 0.325000   -207.214391   492.913293
 0.330000   -204.883071   450.118672
 0.335000   -202.713205   546.395847
 0.340000   -199.419112   504.496370
 0.345000   -197.668241   336.713947
 0.350000   -196.051973   310.528748
 0.355000   -194.562953   364.273759
 0.360000   -192.409235   365.396393
 0.365000   -190.908990   244.893198
 0.370000   -189.960303   181.327547
 0.375000   -189.095714   198.203113
 0.380000   -187.978272   236.421446
 0.385000   -186.731500   187.473136
 0.390000   -186.103541   117.276041
 0.395000   -185.558739   105.877562
 0.400000   -185.044765   146.455997
 0.405000   -184.094179   109.128722
 0.410000   -183.953478   25.292434
 0.415000   -183.841255   20.056047
 0.420000   -183.752917   89.591330
 0.425000   -182.945342   80.853377
 0.430000   -182.944384   -0.395198
 0.435000   -182.949294   -1.604114
 0.440000   -182.960425   62.589709
 0.445000   -182.323396   59.237539
 0.450000   -182.368049   -16.979575
 0.455000   -182.493192   -28.290472
 0.460000   -182.650954   28.883781
 0.465000   -182.204354   28.413907
 0.470000   -182.366815   -41.429544
 0.475000   -182.618650   -52.962696
 0.480000   -182.896442   -5.529286
 0.485000   -182.673943   -11.361280
 0.490000   -183.010055   -76.011160
 0.495000   -183.434054   -87.293127
 0.500000   -183.882986   -48.285530
 0.505000   -183.916910   -51.754047
 0.510000   -184.400527   -104.962236
 0.515000   -184.966532   -115.726149
 0.520000   -185.557788   -90.433597
 0.525000   -185.870868   -101.415272
 0.530000   -186.571941   -144.405998
 0.535000   -187.314928   -148.352314
 0.540000   -188.055464   -126.125203
 0.545000   -188.576180   -133.561029
 0.550000   -189.391074   -172.719164
 0.555000   -190.303372   -185.672333
 0.560000   -191.247798   -175.858368
 0.565000   -192.061955   -183.649343
 0.570000   -193.084291   -219.267854
 0.575000   -194.254634   -240.288795
 0.580000   -195.487179   -245.681213
 0.585000   -196.711446   -254.484428
 0.590000   -198.032023   -281.392206
 0.595000   -199.525368   -303.018533
 0.600000   -201.062209   -304.141033
 0.605000   -202.566778   -327.845629
 0.610000   -204.340665   -371.224957
 0.615000   -206.279028   -399.935728
 0.620000   -208.340022   -425.919019
 0.625000   -210.538218   -462.195934
 0.630000   -212.961981   -498.978241
 0.635000   -215.528000   -525.445328
 0.640000   -218.216435   -551.854407
 0.645000   -221.046545   -596.279566
 0.650000   -224.179230   -643.646124
 0.655000   -227.483006   -664.510550
 0.660000   -230.824336   -682.913100
 0.665000   -234.312137   -712.477081
 0.670000   -237.949107   -765.317050
 0.675000   -241.965307   -804.249485
 0.680000   -245.991602   -815.700289
 0.685000   -250.122310   -843.745178
 0.690000   -254.429053   -887.923538
 0.695000   -259.001546   -956.540303
 0.700000   -263.994456   -1000.411945
 0.705000   -269.005665   -1023.185008
 0.710000   -274.226306   -1069.429138
 0.715000   -279.699956   -1130.082664
 0.720000   -285.527133   -1220.930639
 0.725000   -291.909263   -1275.353766
 0.730000   -298.280671   -1302.995713
 0.735000   -304.939220   -1363.660947
 0.740000   -311.917280   -1428.873768
 0.745000   -319.227958   -1520.136943
 0.750000   -327.118650   -1580.151025
 0.755000   -335.029468   -1603.465081
 0.760000   -343.153300   -1655.098604
 0.765000   -351.580454   -1719.131460
 0.770000   -360.344615   -1794.401041
 0.775000   -369.524464   -1889.763661
 0.780000   -379.242252   -1966.590926
 0.785000   -389.190374   -2035.073784
 0.790000   -399.592989   -2128.723886
 0.795000   -410.477612   -2226.561901
 0.800000   -421.858608   -2326.145366
 0.805000   -433.739066   -2417.761499
 0.810000   -446.036223   -2504.564453
 0.815000   -458.784711   -2604.950232
 0.820000   -472.085726   -2717.095069
 0.825000   -485.955661   -2834.856933
 0.830000   -500.434295   -2959.739175
 0.835000   -515.553053   -3087.213314
 0.840000   -531.306428   -3176.512130
 0.845000   -547.318174   -3273.506558
 0.850000   -564.041494   -3447.477782
 0.855000   -581.792952   -3641.521055
 0.860000   -600.456704   -3875.718611
 0.865000   -620.550138   -4211.564724
 0.870000   -642.572352   -4627.506393
 0.875000   -666.825202   -5083.213528
 0.880000   -693.404487   -5574.899571
 0.885000   -722.574198   -6075.773325
 0.890000   -754.162220   -6500.337973
 0.895000   -787.577578   -7049.399012
 0.900000   -824.656210   -7670.719319
 0.905000   -864.284771   -8181.480719
 0.910000   -906.471017   -8601.545013
 0.915000   -950.300221   -8835.329074
 0.920000   -994.824308   -9005.852309
 0.925000   -1040.358744   -9510.877868
 0.930000   -1089.933087   -11032.102530
 0.935000   -1150.679769   -14755.399237
 0.940000   -1237.487079   -22441.886305
 0.945000   -1375.098632   -35735.561388
 0.950000   -1594.842693   -54695.427786
 0.955000   -1922.052910   -76282.896926
 0.960000   -2357.671662   -94789.119155
 0.965000   -2869.944102   -103560.569237
 0.970000   -3393.277355   -95991.369643
 0.975000   -3829.857798   -71549.598690
 0.980000   -4108.773342   -39395.539466
 0.985000   -4223.813193   -7655.263660
 0.990000   -4185.325978   19466.431282
 0.995000   -4029.148880   -165321.128878
 1.000000   -5838.537267   -558434.225913
201 psinorm omevb() domevb/dpsiN
 0.000000   30.810938   116.466823
 0.005000   31.247947   58.336867
 0.010000   31.394306   25.147718
 0.015000   31.499424   18.868788
 0.020000   31.582994   14.913628
 0.025000   31.648560   11.236687
 0.030000   31.695361   7.428693
 0.035000   31.722847   3.953946
 0.040000   31.734901   0.971785
 0.045000   31.732565   -1.642235
 0.050000   31.718478   -3.568075
 0.055000   31.696885   -4.676872
 0.060000   31.671710   -5.246803
 0.065000   31.644416   -5.579592
 0.070000   31.615914   -5.794889
 0.075000   31.586468   -6.007471
 0.080000   31.555839   -6.409375
 0.085000   31.522374   -7.125707
 0.090000   31.484582   -8.238092
 0.095000   31.439993   -9.622668
 0.100000   31.388355   -10.894321
 0.105000   31.331050   -12.044424
 0.110000   31.267911   -13.065792
 0.115000   31.200392   -14.027978
 0.120000   31.127631   -14.816347
 0.125000   31.052228   -15.135908
 0.130000   30.976272   -15.081132
 0.135000   30.901417   -14.859307
 0.140000   30.827679   -14.581254
 0.145000   30.755604   -14.316469
 0.150000   30.684514   -14.272948
 0.155000   30.612875   -14.545895
 0.160000   30.539055   -14.884870
 0.165000   30.464026   -15.319322
 0.170000   30.385862   -15.912168
 0.175000   30.304905   -16.342124
 0.180000   30.222441   -17.163938
 0.185000   30.133265   -18.218075
 0.190000   30.040260   -19.076663
 0.195000   29.942499   -19.869795
 0.200000   29.841562   -20.603640
 0.205000   29.736462   -21.385040
 0.210000   29.627712   -22.160962
 0.215000   29.514853   -22.818109
 0.220000   29.399531   -23.103300
 0.225000   29.283820   -23.192658
 0.230000   29.167604   -23.310385
 0.235000   29.050716   -23.751304
 0.240000   28.930091   -23.712688
 0.245000   28.813589   -22.603304
 0.250000   28.704058   -21.263343
 0.255000   28.600955   -19.950677
 0.260000   28.504551   -18.565603
 0.265000   28.415299   -17.241178
 0.270000   28.332140   -15.801897
 0.275000   28.257280   -14.247081
 0.280000   28.189669   -13.075062
 0.285000   28.126530   -12.261400
 0.290000   28.067055   -11.527335
 0.295000   28.011256   -10.594148
 0.300000   27.961113   -10.014759
 0.305000   27.911109   -10.832563
 0.310000   27.852788   -12.525634
 0.315000   27.785852   -14.301646
 0.320000   27.709771   -16.093893
 0.325000   27.624914   -17.917366
 0.330000   27.530598   -19.895382
 0.335000   27.425960   -21.427089
 0.340000   27.316327   -22.318153
 0.345000   27.202778   -22.909181
 0.350000   27.087235   -23.044925
 0.355000   26.972329   -23.175891
 0.360000   26.855476   -23.583012
 0.365000   26.736499   -23.067702
 0.370000   26.624799   -21.949739
 0.375000   26.517001   -21.100818
 0.380000   26.413791   -20.251696
 0.385000   26.314484   -19.525567
 0.390000   26.218535   -18.688511
 0.395000   26.127599   -18.055628
 0.400000   26.037979   -18.232061
 0.405000   25.945279   -19.402452
 0.410000   25.843954   -22.571923
 0.415000   25.719560   -27.974027
 0.420000   25.564214   -34.718887
 0.425000   25.372371   -43.608000
 0.430000   25.128134   -54.274905
 0.435000   24.829622   -65.810265
 0.440000   24.470031   -78.622390
 0.445000   24.043398   -90.731726
 0.450000   23.562714   -100.483377
 0.455000   23.038564   -108.685191
 0.460000   22.475862   -114.652986
 0.465000   21.892034   -117.177045
 0.470000   21.304092   -115.577100
 0.475000   20.736263   -110.015093
 0.480000   20.203941   -101.856267
 0.485000   19.717700   -91.616180
 0.490000   19.287779   -79.988252
 0.495000   18.917818   -67.601049
 0.500000   18.611768   -55.514713
 0.505000   18.362671   -45.629065
 0.510000   18.155478   -38.264648
 0.515000   17.980024   -33.123869
 0.520000   17.824239   -29.971507
 0.525000   17.680309   -28.408378
 0.530000   17.540155   -28.237683
 0.535000   17.397932   -28.794443
 0.540000   17.252211   -29.597803
 0.545000   17.101954   -30.588521
 0.550000   16.946326   -31.782942
 0.555000   16.784125   -33.115419
 0.560000   16.615172   -34.300670
 0.565000   16.441118   -35.202499
 0.570000   16.263147   -35.958915
 0.575000   16.081529   -36.507748
 0.580000   15.898069   -36.862555
 0.585000   15.712904   -37.355491
 0.590000   15.524514   -38.046995
 0.595000   15.332434   -38.897573
 0.600000   15.135538   -40.190992
 0.605000   14.930524   -41.976975
 0.610000   14.715769   -43.945389
 0.615000   14.491070   -46.181730
 0.620000   14.253951   -48.789393
 0.625000   14.003176   -51.493403
 0.630000   13.739017   -54.187852
 0.635000   13.461297   -56.698142
 0.640000   13.172036   -58.722963
 0.645000   12.874068   -60.322930
 0.650000   12.568807   -61.474348
 0.655000   12.259324   -62.441848
 0.660000   11.944388   -63.634912
 0.665000   11.622975   -65.113545
 0.670000   11.293253   -67.020324
 0.675000   10.952772   -69.464621
 0.680000   10.598606   -72.234713
 0.685000   10.230425   -74.744815
 0.690000   9.851158   -76.641462
 0.695000   9.464010   -78.281027
 0.700000   9.068348   -77.856240
 0.705000   8.685448   -75.501116
 0.710000   8.313337   -73.217998
 0.715000   7.953268   -70.560583
 0.720000   7.607731   -67.590964
 0.725000   7.277358   -64.919644
 0.730000   6.958535   -61.139957
 0.735000   6.665959   -57.115514
 0.740000   6.387379   -54.535028
 0.745000   6.120608   -52.488687
 0.750000   5.862493   -51.038080
 0.755000   5.610227   -49.371800
 0.760000   5.368775   -48.271741
 0.765000   5.127510   -47.664721
 0.770000   4.892127   -46.213778
 0.775000   4.665372   -44.172586
 0.780000   4.450402   -41.470967
 0.785000   4.250663   -37.746388
 0.790000   4.072938   -35.013393
 0.795000   3.900529   -33.821685
 0.800000   3.734721   -32.939548
 0.805000   3.571133   -33.006167
 0.810000   3.404659   -33.832279
 0.815000   3.232810   -34.835959
 0.820000   3.056300   -35.513648
 0.825000   2.877674   -35.283107
 0.830000   2.703468   -33.799463
 0.835000   2.539679   -31.229132
 0.840000   2.391177   -27.886414
 0.845000   2.260815   -24.347013
 0.850000   2.147707   -21.014964
 0.855000   2.050666   -18.422466
 0.860000   1.963482   -17.362835
 0.865000   1.877037   -18.279352
 0.870000   1.780689   -21.424499
 0.875000   1.662792   -28.011203
 0.880000   1.500577   -39.321918
 0.885000   1.269573   -56.023099
 0.890000   0.940346   -80.937894
 0.895000   0.460194   -118.997127
 0.900000   -0.249625   -175.530939
 0.905000   -1.295115   -261.059411
 0.910000   -2.860220   -388.941344
 0.915000   -5.184529   -571.152272
 0.920000   -8.571742   -829.851347
 0.925000   -13.483042   -1190.561996
 0.930000   -20.477362   -1666.418675
 0.935000   -30.147229   -2256.905552
 0.940000   -43.046418   -2926.069614
 0.945000   -59.407925   -3564.603613
 0.950000   -78.692454   -4017.354452
 0.955000   -99.581470   -4067.964429
 0.960000   -119.372098   -3436.197001
 0.965000   -133.943440   -1913.119537
 0.970000   -138.503294   413.127882
 0.975000   -129.812161   2943.809063
 0.980000   -109.065203   4724.652803
 0.985000   -82.565633   5170.818945
 0.990000   -57.357013   4514.200984
 0.995000   -37.423623   3401.586669
 1.000000   -23.341147   2231.403813
201 psinorm omepp() domepp/dpsiN
 0.000000   27.273953   -15.821918
 0.005000   27.179594   -21.921540
 0.010000   27.054737   -24.987882
 0.015000   26.929715   -25.020180
 0.020000   26.804536   -25.050956
 0.025000   26.679206   -25.080215
 0.030000   26.553733   -25.107961
 0.035000   26.428126   -25.134200
 0.040000   26.302391   -25.158936
 0.045000   26.176537   -25.182174
 0.050000   26.050570   -25.203920
 0.055000   25.924498   -25.224179
 0.060000   25.798328   -25.242957
 0.065000   25.672068   -25.260259
 0.070000   25.545725   -25.276092
 0.075000   25.419307   -25.290460
 0.080000   25.292821   -25.303371
 0.085000   25.166273   -25.314831
 0.090000   25.039672   -25.324846
 0.095000   24.913025   -25.333422
 0.100000   24.786338   -25.340566
 0.105000   24.659619   -25.346284
 0.110000   24.532875   -25.350585
 0.115000   24.406113   -25.353474
 0.120000   24.279341   -25.354959
 0.125000   24.152564   -25.355046
 0.130000   24.025790   -25.353744
 0.135000   23.899026   -25.351060
 0.140000   23.772280   -25.347000
 0.145000   23.645556   -25.341574
 0.150000   23.518864   -25.334788
 0.155000   23.392208   -25.326651
 0.160000   23.265597   -25.317171
 0.165000   23.139037   -25.306355
 0.170000   23.012534   -25.294212
 0.175000   22.886095   -25.280750
 0.180000   22.759726   -25.265977
 0.185000   22.633435   -25.249902
 0.190000   22.507227   -25.232534
 0.195000   22.381110   -25.213881
 0.200000   22.255088   -25.193953
 0.205000   22.129170   -25.172757
 0.210000   22.003361   -25.150302
 0.215000   21.877667   -25.126599
 0.220000   21.752095   -25.101656
 0.225000   21.626650   -25.075481
 0.230000   21.501340   -25.048085
 0.235000   21.376170   -25.019477
 0.240000   21.251145   -24.989666
 0.245000   21.126273   -24.958662
 0.250000   21.001559   -24.926474
 0.255000   20.877008   -24.893113
 0.260000   20.752627   -24.858587
 0.265000   20.628422   -24.822906
 0.270000   20.504398   -24.786081
 0.275000   20.380562   -24.748121
 0.280000   20.256917   -24.709037
 0.285000   20.133471   -24.668837
 0.290000   20.010229   -24.627534
 0.295000   19.887196   -24.585136
 0.300000   19.764377   -24.541654
 0.305000   19.641779   -24.497099
 0.310000   19.519407   -24.451479
 0.315000   19.397264   -24.404807
 0.320000   19.275358   -24.357093
 0.325000   19.153694   -24.308346
 0.330000   19.032275   -24.258578
 0.335000   18.911108   -24.207799
 0.340000   18.790197   -24.156019
 0.345000   18.669548   -24.103250
 0.350000   18.549164   -24.049502
 0.355000   18.429053   -23.994786
 0.360000   18.309217   -23.939112
 0.365000   18.189661   -23.882492
 0.370000   18.070392   -23.824936
 0.375000   17.951412   -23.766456
 0.380000   17.832727   -23.707061
 0.385000   17.714341   -23.646763
 0.390000   17.596260   -23.585574
 0.395000   17.478486   -23.523503
 0.400000   17.361024   -23.460563
 0.405000   17.243880   -23.396763
 0.410000   17.127057   -23.332116
 0.415000   17.010559   -23.266632
 0.420000   16.894391   -23.200322
 0.425000   16.778556   -23.133197
 0.430000   16.663059   -23.065269
 0.435000   16.547903   -22.996548
 0.440000   16.433093   -22.927046
 0.445000   16.318633   -22.856774
 0.450000   16.204525   -22.785743
 0.455000   16.090775   -22.713965
 0.460000   15.977386   -22.641449
 0.465000   15.864361   -22.568208
 0.470000   15.751704   -22.494253
 0.475000   15.639418   -22.419595
 0.480000   15.527508   -22.344245
 0.485000   15.415976   -22.268213
 0.490000   15.304826   -22.191513
 0.495000   15.194061   -22.114153
 0.500000   15.083684   -22.036146
 0.505000   14.973699   -21.957503
 0.510000   14.864109   -21.878235
 0.515000   14.754917   -21.798353
 0.520000   14.646125   -21.717868
 0.525000   14.537738   -21.636792
 0.530000   14.429758   -21.555134
 0.535000   14.322187   -21.472908
 0.540000   14.215028   -21.390123
 0.545000   14.108285   -21.306790
 0.550000   14.001961   -21.222922
 0.555000   13.896056   -21.138529
 0.560000   13.790575   -21.053622
 0.565000   13.685520   -20.968213
 0.570000   13.580893   -20.882313
 0.575000   13.476697   -20.795934
 0.580000   13.372934   -20.709087
 0.585000   13.269606   -20.621784
 0.590000   13.166716   -20.534037
 0.595000   13.064266   -20.445860
 0.600000   12.962257   -20.357263
 0.605000   12.860693   -20.268263
 0.610000   12.759575   -20.178871
 0.615000   12.658904   -20.089105
 0.620000   12.558684   -19.998980
 0.625000   12.458915   -19.908514
 0.630000   12.359599   -19.817728
 0.635000   12.260737   -19.726645
 0.640000   12.162332   -19.635290
 0.645000   12.064384   -19.543695
 0.650000   11.966895   -19.451894
 0.655000   11.869865   -19.359932
 0.660000   11.773296   -19.267859
 0.665000   11.677187   -19.175738
 0.670000   11.581538   -19.083647
 0.675000   11.486350   -18.991682
 0.680000   11.391622   -18.899959
 0.685000   11.297351   -18.808627
 0.690000   11.203535   -18.717871
 0.695000   11.110172   -18.627921
 0.700000   11.017256   -18.539070
 0.705000   10.924781   -18.451682
 0.710000   10.832739   -18.366220
 0.715000   10.741119   -18.283265
 0.720000   10.649907   -18.203550
 0.725000   10.559084   -18.127998
 0.730000   10.468627   -18.057775
 0.735000   10.378506   -17.994349
 0.740000   10.288683   -17.939565
 0.745000   10.199110   -17.895748
 0.750000   10.109726   -17.865817
 0.755000   10.020452   -17.853435
 0.760000   9.931191   -17.863191
 0.765000   9.841820   -17.900824
 0.770000   9.752183   -17.973499
 0.775000   9.662085   -18.090137
 0.780000   9.571282   -18.261814
 0.785000   9.479467   -18.502244
 0.790000   9.386259   -18.828340
 0.795000   9.291184   -19.260870
 0.800000   9.193651   -19.825204
 0.805000   9.092932   -20.552143
 0.810000   8.988129   -21.478795
 0.815000   8.878144   -22.649451
 0.820000   8.761635   -24.116339
 0.825000   8.636980   -25.940100
 0.830000   8.502234   -28.189678
 0.835000   8.355083   -30.941167
 0.840000   8.192822   -34.274896
 0.845000   8.012334   -38.269635
 0.850000   7.810126   -42.992205
 0.855000   7.582412   -48.479925
 0.860000   7.325326   -54.712022
 0.865000   7.035292   -61.564244
 0.870000   6.709684   -68.738297
 0.875000   6.347909   -75.653997
 0.880000   5.953144   -81.287303
 0.885000   5.535036   -83.931779
 0.890000   5.113826   -80.855959
 0.895000   4.726477   -67.828205
 0.900000   4.435544   -38.492511
 0.905000   4.341552   16.379451
 0.910000   4.599339   109.632122
 0.915000   5.437873   258.130058
 0.920000   7.180639   482.133734
 0.925000   10.259210   802.491430
 0.930000   15.205554   1234.146601
 0.935000   22.600676   1774.812883
 0.940000   32.953682   2389.410734
 0.945000   46.494783   2993.727139
 0.950000   62.890954   3442.453330
 0.955000   80.919317   3526.488125
 0.960000   98.155835   2994.020965
 0.965000   110.859526   1646.504624
 0.970000   114.620881   -434.377854
 0.975000   106.515748   -2667.919230
 0.980000   87.941689   -4170.697318
 0.985000   64.808775   -4426.393080
 0.990000   43.677758   -3687.088291
 0.995000   27.937892   -2606.513147
 1.000000   17.612627   -1523.592896
201 psinorm kpol(km/s/T) dkpol/dpsiN
 0.000000   -0.005347   129.553096
 0.005000   0.515045   78.603957
 0.010000   0.780692   49.974330
 0.015000   1.014789   45.577393
 0.020000   1.236466   43.376560
 0.025000   1.448554   41.304226
 0.030000   1.649509   38.961428
 0.035000   1.838169   36.832035
 0.040000   2.017829   35.075408
 0.045000   2.188923   33.572691
 0.050000   2.353556   32.609253
 0.055000   2.515015   32.312413
 0.060000   2.676680   32.650274
 0.065000   2.841518   33.265932
 0.070000   3.009339   33.792963
 0.075000   3.179448   34.183871
 0.080000   3.351178   34.227373
 0.085000   3.521721   33.758700
 0.090000   3.688765   32.879053
 0.095000   3.850512   31.629135
 0.100000   4.005056   30.252924
 0.105000   4.153041   28.884633
 0.110000   4.293903   27.601907
 0.115000   4.429060   26.431158
 0.120000   4.558214   25.503253
 0.125000   4.684093   24.918445
 0.130000   4.807399   24.499371
 0.135000   4.929086   24.105641
 0.140000   5.048455   23.660203
 0.145000   5.165688   22.958939
 0.150000   5.278045   21.949574
 0.155000   5.385184   20.585165
 0.160000   5.483896   18.957838
 0.165000   5.574763   17.121904
 0.170000   5.655115   15.044256
 0.175000   5.725205   12.741720
 0.180000   5.782532   10.307928
 0.185000   5.828284   8.129351
 0.190000   5.863826   6.054184
 0.195000   5.888826   4.222658
 0.200000   5.906052   2.657567
 0.205000   5.915402   1.247075
 0.210000   5.918523   0.209914
 0.215000   5.917501   -0.684187
 0.220000   5.911681   -1.490821
 0.225000   5.902593   -2.277755
 0.230000   5.888904   -3.228550
 0.235000   5.870307   -4.127449
 0.240000   5.847629   -5.172580
 0.245000   5.818582   -6.390058
 0.250000   5.783729   -7.601115
 0.255000   5.742570   -8.994066
 0.260000   5.693788   -10.406954
 0.265000   5.638501   -11.790940
 0.270000   5.575879   -13.333750
 0.275000   5.505163   -14.819240
 0.280000   5.427686   -16.329771
 0.285000   5.341866   -18.009716
 0.290000   5.247589   -19.598259
 0.295000   5.145883   -21.261711
 0.300000   5.034972   -23.079699
 0.305000   4.915086   -24.789868
 0.310000   4.787073   -26.548126
 0.315000   4.649605   -28.406086
 0.320000   4.503012   -30.141586
 0.325000   4.348189   -31.794997
 0.330000   4.185062   -33.351507
 0.335000   4.014674   -34.565531
 0.340000   3.839407   -35.526410
 0.345000   3.659410   -36.355174
 0.350000   3.475855   -36.813414
 0.355000   3.291276   -37.174160
 0.360000   3.104114   -37.744163
 0.365000   2.913834   -38.355350
 0.370000   2.720560   -39.117018
 0.375000   2.522664   -40.145556
 0.380000   2.319105   -41.444884
 0.385000   2.108215   -42.961089
 0.390000   1.889494   -44.494597
 0.395000   1.663269   -45.970836
 0.400000   1.429786   -47.587621
 0.405000   1.187393   -49.803333
 0.410000   0.931752   -54.054064
 0.415000   0.646852   -60.787674
 0.420000   0.323875   -69.383796
 0.425000   -0.046986   -79.852873
 0.430000   -0.474653   -91.971232
 0.435000   -0.966698   -105.651185
 0.440000   -1.531165   -121.004822
 0.445000   -2.176746   -135.597828
 0.450000   -2.887143   -147.548769
 0.455000   -3.652234   -157.030415
 0.460000   -4.457448   -163.251122
 0.465000   -5.284745   -165.344935
 0.470000   -6.110897   -161.885453
 0.475000   -6.903600   -153.248301
 0.480000   -7.643380   -141.332503
 0.485000   -8.316925   -127.022090
 0.490000   -8.913601   -111.255383
 0.495000   -9.429479   -94.540584
 0.500000   -9.859007   -78.232210
 0.505000   -10.211801   -64.866192
 0.510000   -10.507669   -54.776334
 0.515000   -10.759564   -47.470436
 0.520000   -10.982373   -42.703251
 0.525000   -11.186597   -40.031483
 0.530000   -11.382688   -39.095169
 0.535000   -11.577548   -38.943463
 0.540000   -11.772122   -38.881775
 0.545000   -11.966366   -38.814330
 0.550000   -12.160266   -38.785708
 0.555000   -12.354223   -38.655345
 0.560000   -12.546819   -37.917440
 0.565000   -12.733398   -36.409686
 0.570000   -12.910916   -34.280739
 0.575000   -13.076205   -31.460071
 0.580000   -13.225517   -28.035573
 0.585000   -13.356561   -24.287322
 0.590000   -13.468390   -20.237992
 0.595000   -13.558941   -16.026498
 0.600000   -13.628655   -12.036000
 0.605000   -13.679301   -8.426998
 0.610000   -13.712925   -5.150532
 0.615000   -13.730806   -2.230643
 0.620000   -13.735231   0.105161
 0.625000   -13.729754   1.996719
 0.630000   -13.715264   3.669015
 0.635000   -13.693064   5.115779
 0.640000   -13.664106   6.355752
 0.645000   -13.629507   7.566995
 0.650000   -13.588436   8.828670
 0.655000   -13.541220   9.990274
 0.660000   -13.488534   11.069799
 0.665000   -13.430522   12.150127
 0.670000   -13.367032   13.260333
 0.675000   -13.297919   14.558925
 0.680000   -13.221443   16.375986
 0.685000   -13.134159   18.900232
 0.690000   -13.032441   22.142946
 0.695000   -12.912729   26.077052
 0.700000   -12.771670   30.917292
 0.705000   -12.603556   36.488421
 0.710000   -12.406786   41.879122
 0.715000   -12.184765   46.604910
 0.720000   -11.940737   50.453763
 0.725000   -11.680227   52.978989
 0.730000   -11.410947   53.753246
 0.735000   -11.142695   52.387782
 0.740000   -10.887069   49.022164
 0.745000   -10.652473   44.228671
 0.750000   -10.444783   38.512601
 0.755000   -10.267347   32.394944
 0.760000   -10.120833   26.223382
 0.765000   -10.005114   20.818182
 0.770000   -9.912651   16.732598
 0.775000   -9.837788   13.558613
 0.780000   -9.777065   10.846515
 0.785000   -9.729322   8.078429
 0.790000   -9.696281   4.693927
 0.795000   -9.682383   -0.084495
 0.800000   -9.697126   -6.735595
 0.805000   -9.749739   -15.167025
 0.810000   -9.848796   -24.921163
 0.815000   -9.998951   -35.211630
 0.820000   -10.200912   -45.029857
 0.825000   -10.449249   -53.047482
 0.830000   -10.731387   -58.394364
 0.835000   -11.033193   -60.965646
 0.840000   -11.341044   -61.057627
 0.845000   -11.643769   -58.994411
 0.850000   -11.930988   -55.039494
 0.855000   -12.194164   -50.388563
 0.860000   -12.434873   -46.074895
 0.865000   -12.654913   -41.995831
 0.870000   -12.854832   -38.126417
 0.875000   -13.036177   -34.663760
 0.880000   -13.201469   -31.968743
 0.885000   -13.355865   -29.325161
 0.890000   -13.494721   -25.902914
 0.895000   -13.614894   -21.817002
 0.900000   -13.712891   -17.062705
 0.905000   -13.785521   -11.785918
 0.910000   -13.830750   -6.138639
 0.915000   -13.846907   0.395304
 0.920000   -13.826797   8.316503
 0.925000   -13.763742   16.505420
 0.930000   -13.661743   25.502890
 0.935000   -13.508713   40.287539
 0.940000   -13.258867   62.457346
 0.945000   -12.884140   89.423478
 0.950000   -12.364633   122.226757
 0.955000   -11.661872   162.755503
 0.960000   -10.737078   210.082652
 0.965000   -9.561046   264.932611
 0.970000   -8.087752   323.442282
 0.975000   -6.326623   378.854612
 0.980000   -4.299205   429.826412
 0.985000   -2.028359   469.040558
 0.990000   0.391200   482.367325
 0.995000   2.795314   457.848909
 1.000000   4.969689   411.901028
201 psinorm omghb() domghb/dpsiN
 0.000000   -0.000189   0.059666
 0.005000   0.000008   0.019203
 0.010000   0.000003   0.027602
 0.015000   0.000284   0.066215
 0.020000   0.000665   0.086123
 0.025000   0.001145   0.103957
 0.030000   0.001704   0.126139
 0.035000   0.002406   0.147012
 0.040000   0.003174   0.161352
 0.045000   0.004020   0.162088
 0.050000   0.004795   0.149915
 0.055000   0.005519   0.138086
 0.060000   0.006176   0.122939
 0.065000   0.006748   0.111007
 0.070000   0.007286   0.119068
 0.075000   0.007939   0.136890
 0.080000   0.008655   0.147314
 0.085000   0.009412   0.165269
 0.090000   0.010308   0.189299
 0.095000   0.011305   0.202792
 0.100000   0.012336   0.221955
 0.105000   0.013525   0.223432
 0.110000   0.014570   0.210870
 0.115000   0.015634   0.197194
 0.120000   0.016542   0.184478
 0.125000   0.017478   0.160419
 0.130000   0.018146   0.120421
 0.135000   0.018683   0.105529
 0.140000   0.019202   0.118826
 0.145000   0.019871   0.134059
 0.150000   0.020542   0.143759
 0.155000   0.021308   0.149563
 0.160000   0.022038   0.162916
 0.165000   0.022938   0.211253
 0.170000   0.024150   0.224945
 0.175000   0.025187   0.226761
 0.180000   0.026418   0.234214
 0.185000   0.027529   0.220019
 0.190000   0.028618   0.239260
 0.195000   0.029922   0.287852
 0.200000   0.031497   0.290888
 0.205000   0.032831   0.227281
 0.210000   0.033769   0.201513
 0.215000   0.034846   0.216273
 0.220000   0.035932   0.240126
 0.225000   0.037247   0.197821
 0.230000   0.037910   0.126518
 0.235000   0.038512   0.096666
 0.240000   0.038877   0.059813
 0.245000   0.039110   0.005282
 0.250000   0.038930   -0.022109
 0.255000   0.038889   -0.133761
 0.260000   0.037592   -0.204458
 0.265000   0.036845   -0.134650
 0.270000   0.036246   -0.121090
 0.275000   0.035634   -0.113910
 0.280000   0.035107   -0.131837
 0.285000   0.034315   -0.096861
 0.290000   0.034138   -0.033829
 0.295000   0.033977   0.027641
 0.300000   0.034414   0.126272
 0.305000   0.035240   0.241739
 0.310000   0.036832   0.338821
 0.315000   0.038628   0.525042
 0.320000   0.042082   0.583378
 0.325000   0.044462   0.462951
 0.330000   0.046712   0.408486
 0.335000   0.048547   0.323645
 0.340000   0.049948   0.367979
 0.345000   0.052226   0.255673
 0.350000   0.052505   0.052460
 0.355000   0.052751   0.051103
 0.360000   0.053016   0.026405
 0.365000   0.053015   -0.006090
 0.370000   0.052955   0.039472
 0.375000   0.053410   -0.142918
 0.380000   0.051526   -0.276489
 0.385000   0.050645   -0.107065
 0.390000   0.050455   -0.015786
 0.395000   0.050487   0.049193
 0.400000   0.050947   0.162968
 0.405000   0.052117   0.531663
 0.410000   0.056264   1.097724
 0.415000   0.063094   1.582320
 0.420000   0.072087   2.209576
 0.425000   0.085190   2.797499
 0.430000   0.100062   2.961612
 0.435000   0.114806   3.093175
 0.440000   0.130994   3.256794
 0.445000   0.147374   3.124149
 0.450000   0.162235   2.864883
 0.455000   0.176023   2.190003
 0.460000   0.184135   1.163768
 0.465000   0.187660   0.282163
 0.470000   0.186957   -0.593573
 0.475000   0.181725   -1.491075
 0.480000   0.172046   -2.561007
 0.485000   0.156115   -3.197055
 0.490000   0.140076   -3.202232
 0.495000   0.124092   -3.074836
 0.500000   0.109327   -2.789984
 0.505000   0.096192   -2.402439
 0.510000   0.085303   -1.923149
 0.515000   0.076961   -1.171669
 0.520000   0.073586   -0.491567
 0.525000   0.072045   -0.167593
 0.530000   0.071910   0.088718
 0.535000   0.072932   0.235191
 0.540000   0.074262   0.351549
 0.545000   0.076448   0.429605
 0.550000   0.078558   0.411983
 0.555000   0.080568   0.387125
 0.560000   0.082429   0.325631
 0.565000   0.083824   0.300318
 0.570000   0.085433   0.267876
 0.575000   0.086503   0.182626
 0.580000   0.087259   0.170975
 0.585000   0.088213   0.261937
 0.590000   0.089878   0.286395
 0.595000   0.091076   0.314733
 0.600000   0.093026   0.485931
 0.605000   0.095936   0.625530
 0.610000   0.099281   0.721918
 0.615000   0.103155   0.889553
 0.620000   0.108176   0.910510
 0.625000   0.112260   0.848890
 0.630000   0.116665   0.841978
 0.635000   0.120680   0.746717
 0.640000   0.124132   0.637593
 0.645000   0.127056   0.546385
 0.650000   0.129596   0.434847
 0.655000   0.131404   0.396219
 0.660000   0.133559   0.432331
 0.665000   0.135728   0.519589
 0.670000   0.138754   0.729785
 0.675000   0.143025   1.106755
 0.680000   0.149822   1.132773
 0.685000   0.154353   0.657966
 0.690000   0.156402   0.341349
 0.695000   0.157767   0.124811
 0.700000   0.157650   -0.190243
 0.705000   0.155864   -0.260833
 0.710000   0.155041   -0.635759
 0.715000   0.149507   -1.271280
 0.720000   0.142329   -1.234185
 0.725000   0.137165   -1.011426
 0.730000   0.132214   -0.972591
 0.735000   0.127439   -0.883948
 0.740000   0.123375   -0.885352
 0.745000   0.118585   -0.717767
 0.750000   0.116197   -0.380498
 0.755000   0.114780   -0.154059
 0.760000   0.114657   -0.139453
 0.765000   0.113386   -0.497878
 0.770000   0.109678   -0.791179
 0.775000   0.105474   -0.674208
 0.780000   0.102936   -0.684945
 0.785000   0.098625   -0.773953
 0.790000   0.095196   -0.631514
 0.795000   0.092309   -0.442810
 0.800000   0.090768   0.063669
 0.805000   0.092946   0.715601
 0.810000   0.097924   0.874397
 0.815000   0.101690   0.758768
 0.820000   0.105512   0.701357
 0.825000   0.108704   0.514647
 0.830000   0.110658   0.208668
 0.835000   0.110790   -0.019801
 0.840000   0.110460   0.079184
 0.845000   0.111582   0.385413
 0.850000   0.114314   0.834198
 0.855000   0.119924   1.516493
 0.860000   0.129479   2.496915
 0.865000   0.144893   3.302091
 0.870000   0.162500   4.148895
 0.875000   0.186382   5.420765
 0.880000   0.216708   6.636360
 0.885000   0.252746   7.678709
 0.890000   0.293495   9.356925
 0.895000   0.346315   9.774705
 0.900000   0.391242   9.897204
 0.905000   0.445287   11.334446
 0.910000   0.504586   12.327371
 0.915000   0.568561   12.906581
 0.920000   0.633652   16.841659
 0.925000   0.736977   17.403606
 0.930000   0.807688   15.917369
 0.935000   0.896151   17.345125
 0.940000   0.981140   16.387212
 0.945000   1.060023   11.705114
 0.950000   1.098191   6.079704
 0.955000   1.120820   -21.041196
 0.960000   0.887779   -60.570424
 0.965000   0.515116   -87.280685
 0.970000   0.014972   -107.366543
 0.975000   -0.558549   -111.903150
 0.980000   -1.104060   -94.297967
 0.985000   -1.501529   -59.708442
 0.990000   -1.701144   -12.996944
 0.995000   -1.631498   33.169504
 1.000000   -1.369449   71.650308
201 psinorm nz1(10^20/m^3) dnz1/dpsiN
 0.000000   0.015649   0.000001
 0.005000   0.015649   -0.000136
 0.010000   0.015648   -0.000275
 0.015000   0.015646   -0.000416
 0.020000   0.015644   -0.000560
 0.025000   0.015641   -0.000705
 0.030000   0.015637   -0.000853
 0.035000   0.015632   -0.001001
 0.040000   0.015627   -0.001150
 0.045000   0.015621   -0.001298
 0.050000   0.015614   -0.001445
 0.055000   0.015606   -0.001592
 0.060000   0.015598   -0.001737
 0.065000   0.015589   -0.001879
 0.070000   0.015579   -0.002019
 0.075000   0.015569   -0.002155
 0.080000   0.015558   -0.002288
 0.085000   0.015546   -0.002419
 0.090000   0.015533   -0.002546
 0.095000   0.015520   -0.002669
 0.100000   0.015507   -0.002789
 0.105000   0.015492   -0.002905
 0.110000   0.015478   -0.003019
 0.115000   0.015462   -0.003128
 0.120000   0.015446   -0.003232
 0.125000   0.015430   -0.003332
 0.130000   0.015413   -0.003427
 0.135000   0.015396   -0.003518
 0.140000   0.015378   -0.003605
 0.145000   0.015360   -0.003686
 0.150000   0.015341   -0.003763
 0.155000   0.015322   -0.003834
 0.160000   0.015303   -0.003900
 0.165000   0.015283   -0.003960
 0.170000   0.015263   -0.004014
 0.175000   0.015243   -0.004061
 0.180000   0.015222   -0.004100
 0.185000   0.015202   -0.004132
 0.190000   0.015181   -0.004154
 0.195000   0.015160   -0.004167
 0.200000   0.015139   -0.004169
 0.205000   0.015119   -0.004161
 0.210000   0.015098   -0.004144
 0.215000   0.015077   -0.004117
 0.220000   0.015057   -0.004081
 0.225000   0.015036   -0.004039
 0.230000   0.015016   -0.003988
 0.235000   0.014996   -0.003929
 0.240000   0.014977   -0.003860
 0.245000   0.014958   -0.003782
 0.250000   0.014939   -0.003695
 0.255000   0.014921   -0.003597
 0.260000   0.014903   -0.003488
 0.265000   0.014886   -0.003366
 0.270000   0.014870   -0.003231
 0.275000   0.014854   -0.003085
 0.280000   0.014839   -0.002925
 0.285000   0.014824   -0.002753
 0.290000   0.014811   -0.002568
 0.295000   0.014799   -0.002370
 0.300000   0.014787   -0.002162
 0.305000   0.014777   -0.001943
 0.310000   0.014768   -0.001716
 0.315000   0.014760   -0.001481
 0.320000   0.014753   -0.001240
 0.325000   0.014748   -0.000995
 0.330000   0.014743   -0.000746
 0.335000   0.014740   -0.000492
 0.340000   0.014738   -0.000234
 0.345000   0.014738   0.000030
 0.350000   0.014739   0.000301
 0.355000   0.014741   0.000579
 0.360000   0.014744   0.000864
 0.365000   0.014750   0.001155
 0.370000   0.014756   0.001451
 0.375000   0.014764   0.001748
 0.380000   0.014774   0.002045
 0.385000   0.014784   0.002338
 0.390000   0.014797   0.002624
 0.395000   0.014811   0.002902
 0.400000   0.014826   0.003167
 0.405000   0.014842   0.003416
 0.410000   0.014860   0.003648
 0.415000   0.014879   0.003862
 0.420000   0.014899   0.004058
 0.425000   0.014919   0.004234
 0.430000   0.014941   0.004390
 0.435000   0.014963   0.004526
 0.440000   0.014986   0.004644
 0.445000   0.015010   0.004749
 0.450000   0.015034   0.004841
 0.455000   0.015058   0.004921
 0.460000   0.015083   0.004987
 0.465000   0.015108   0.005040
 0.470000   0.015133   0.005075
 0.475000   0.015159   0.005090
 0.480000   0.015184   0.005080
 0.485000   0.015210   0.005045
 0.490000   0.015235   0.004984
 0.495000   0.015259   0.004897
 0.500000   0.015284   0.004782
 0.505000   0.015307   0.004639
 0.510000   0.015330   0.004470
 0.515000   0.015352   0.004273
 0.520000   0.015373   0.004050
 0.525000   0.015392   0.003801
 0.530000   0.015411   0.003529
 0.535000   0.015428   0.003233
 0.540000   0.015443   0.002912
 0.545000   0.015457   0.002567
 0.550000   0.015469   0.002196
 0.555000   0.015479   0.001799
 0.560000   0.015487   0.001376
 0.565000   0.015493   0.000924
 0.570000   0.015496   0.000445
 0.575000   0.015497   -0.000060
 0.580000   0.015495   -0.000589
 0.585000   0.015491   -0.001141
 0.590000   0.015484   -0.001712
 0.595000   0.015474   -0.002298
 0.600000   0.015461   -0.002897
 0.605000   0.015445   -0.003508
 0.610000   0.015426   -0.004131
 0.615000   0.015404   -0.004766
 0.620000   0.015378   -0.005414
 0.625000   0.015350   -0.006075
 0.630000   0.015318   -0.006745
 0.635000   0.015282   -0.007424
 0.640000   0.015243   -0.008108
 0.645000   0.015201   -0.008796
 0.650000   0.015155   -0.009486
 0.655000   0.015106   -0.010170
 0.660000   0.015054   -0.010837
 0.665000   0.014998   -0.011489
 0.670000   0.014939   -0.012135
 0.675000   0.014876   -0.012799
 0.680000   0.014811   -0.013548
 0.685000   0.014741   -0.014421
 0.690000   0.014667   -0.015388
 0.695000   0.014587   -0.016431
 0.700000   0.014502   -0.017540
 0.705000   0.014412   -0.018694
 0.710000   0.014315   -0.019915
 0.715000   0.014213   -0.021145
 0.720000   0.014104   -0.022255
 0.725000   0.013990   -0.023222
 0.730000   0.013872   -0.024033
 0.735000   0.013750   -0.024645
 0.740000   0.013625   -0.025026
 0.745000   0.013499   -0.025103
 0.750000   0.013374   -0.024838
 0.755000   0.013251   -0.024272
 0.760000   0.013131   -0.023451
 0.765000   0.013017   -0.022423
 0.770000   0.012907   -0.021210
 0.775000   0.012804   -0.019861
 0.780000   0.012709   -0.018508
 0.785000   0.012619   -0.017209
 0.790000   0.012537   -0.015954
 0.795000   0.012460   -0.014767
 0.800000   0.012389   -0.013655
 0.805000   0.012323   -0.012640
 0.810000   0.012262   -0.011742
 0.815000   0.012206   -0.010920
 0.820000   0.012153   -0.010121
 0.825000   0.012105   -0.009329
 0.830000   0.012060   -0.008543
 0.835000   0.012019   -0.007768
 0.840000   0.011982   -0.007016
 0.845000   0.011949   -0.006295
 0.850000   0.011919   -0.005607
 0.855000   0.011893   -0.004958
 0.860000   0.011870   -0.004353
 0.865000   0.011849   -0.003809
 0.870000   0.011832   -0.003333
 0.875000   0.011816   -0.002917
 0.880000   0.011803   -0.002555
 0.885000   0.011791   -0.002251
 0.890000   0.011780   -0.002017
 0.895000   0.011770   -0.001896
 0.900000   0.011761   -0.001932
 0.905000   0.011751   -0.002207
 0.910000   0.011739   -0.002895
 0.915000   0.011722   -0.004288
 0.920000   0.011696   -0.006882
 0.925000   0.011653   -0.011718
 0.930000   0.011579   -0.020054
 0.935000   0.011453   -0.033325
 0.940000   0.011246   -0.053293
 0.945000   0.010920   -0.081162
 0.950000   0.010434   -0.116576
 0.955000   0.009754   -0.157588
 0.960000   0.008858   -0.196207
 0.965000   0.007792   -0.221576
 0.970000   0.006642   -0.227697
 0.975000   0.005515   -0.213870
 0.980000   0.004504   -0.185096
 0.985000   0.003664   -0.149460
 0.990000   0.003009   -0.114296
 0.995000   0.002521   -0.084611
 1.000000   0.002163   -0.058647
201 psinorm vtor1(km/s) dvtor1/dpsiN
 0.000000   101.846789   509.929523
 0.005000   103.823935   280.928834
 0.010000   104.656078   146.296756
 0.015000   105.286903   115.067975
 0.020000   105.806758   96.634463
 0.025000   106.253248   84.332863
 0.030000   106.650086   75.244406
 0.035000   107.005692   67.180448
 0.040000   107.321891   60.056793
 0.045000   107.606260   53.933367
 0.050000   107.861224   48.136268
 0.055000   108.087622   42.493269
 0.060000   108.286157   37.231647
 0.065000   108.459939   32.402670
 0.070000   108.610184   27.733906
 0.075000   108.737278   23.262322
 0.080000   108.842807   19.055633
 0.085000   108.927834   15.025699
 0.090000   108.993064   11.026899
 0.095000   109.038103   7.143691
 0.100000   109.064501   3.483720
 0.105000   109.072940   -0.169602
 0.110000   109.062805   -3.853582
 0.115000   109.034404   -7.474606
 0.120000   108.988059   -11.082401
 0.125000   108.923580   -14.756770
 0.130000   108.840491   -18.412352
 0.135000   108.739457   -22.007566
 0.140000   108.620415   -25.628469
 0.145000   108.483172   -29.282935
 0.150000   108.327586   -32.941331
 0.155000   108.153759   -36.584256
 0.160000   107.961743   -40.208429
 0.165000   107.751675   -43.743410
 0.170000   107.524309   -47.169218
 0.175000   107.279982   -50.531069
 0.180000   107.018999   -53.834409
 0.185000   106.741638   -57.042251
 0.190000   106.448576   -60.114573
 0.195000   106.140493   -63.019218
 0.200000   105.818384   -65.691280
 0.205000   105.483580   -68.072196
 0.210000   105.137662   -70.142919
 0.215000   104.782151   -71.921128
 0.220000   104.418451   -73.340055
 0.225000   104.048750   -74.319735
 0.230000   103.675253   -75.083892
 0.235000   103.297911   -75.748647
 0.240000   102.917767   -76.201620
 0.245000   102.535895   -76.446561
 0.250000   102.153301   -76.470203
 0.255000   101.771193   -76.162327
 0.260000   101.391678   -75.748874
 0.265000   101.013704   -75.434238
 0.270000   100.637336   -75.125066
 0.275000   100.262454   -74.854638
 0.280000   99.888789   -74.664741
 0.285000   99.515806   -74.622134
 0.290000   99.142568   -74.764867
 0.295000   98.768157   -74.981045
 0.300000   98.392757   -75.133712
 0.305000   98.016820   -75.180070
 0.310000   97.640957   -75.088578
 0.315000   97.265935   -74.824748
 0.320000   96.892709   -74.409197
 0.325000   96.521843   -73.869174
 0.330000   96.154018   -73.200090
 0.335000   95.789842   -72.418248
 0.340000   95.429835   -71.532362
 0.345000   95.074518   -70.506270
 0.350000   94.724772   -69.380160
 0.355000   94.380716   -68.227645
 0.360000   94.042496   -67.027598
 0.365000   93.710440   -65.766266
 0.370000   93.384833   -64.454257
 0.375000   93.065898   -63.076131
 0.380000   92.754072   -61.610618
 0.385000   92.449792   -60.066555
 0.390000   92.153406   -58.458297
 0.395000   91.865209   -56.813718
 0.400000   91.585269   -55.166698
 0.405000   91.313542   -53.637433
 0.410000   91.048895   -52.493183
 0.415000   90.788610   -51.814442
 0.420000   90.530750   -51.490403
 0.425000   90.273706   -51.466851
 0.430000   90.016082   -51.693865
 0.435000   89.756767   -52.246235
 0.440000   89.493620   -52.993198
 0.445000   89.226835   -53.539050
 0.450000   88.958229   -53.793931
 0.455000   88.688896   -53.802087
 0.460000   88.420208   -53.520633
 0.465000   88.153690   -53.001243
 0.470000   87.890196   -52.154616
 0.475000   87.632143   -50.754020
 0.480000   87.382656   -48.864976
 0.485000   87.143494   -46.639551
 0.490000   86.916260   -44.128626
 0.495000   86.702207   -41.381037
 0.500000   86.502450   -38.441117
 0.505000   86.317796   -35.528736
 0.510000   86.147162   -32.880459
 0.515000   85.988992   -30.560407
 0.520000   85.841558   -28.599996
 0.525000   85.702992   -27.021221
 0.530000   85.571346   -25.863639
 0.535000   85.444355   -25.120512
 0.540000   85.320141   -24.764499
 0.545000   85.196710   -24.821484
 0.550000   85.071926   -25.333602
 0.555000   84.943374   -26.361968
 0.560000   84.808306   -28.034048
 0.565000   84.663034   -30.313994
 0.570000   84.505167   -33.180733
 0.575000   84.331227   -36.774407
 0.580000   84.137422   -41.151317
 0.585000   83.919713   -46.349418
 0.590000   83.673928   -52.443014
 0.595000   83.395283   -59.272495
 0.600000   83.081203   -66.693346
 0.605000   82.728350   -74.737052
 0.610000   82.333833   -83.282037
 0.615000   81.895529   -92.170309
 0.620000   81.412130   -101.062309
 0.625000   80.884906   -109.790225
 0.630000   80.314227   -118.332760
 0.635000   79.701579   -126.498053
 0.640000   79.049247   -134.142921
 0.645000   78.360149   -141.166541
 0.650000   77.637582   -147.192458
 0.655000   76.888225   -152.729046
 0.660000   76.110291   -158.581622
 0.665000   75.302409   -164.742843
 0.670000   74.462863   -171.344860
 0.675000   73.588960   -178.547294
 0.680000   72.677390   -186.587866
 0.685000   71.723081   -195.073678
 0.690000   70.726653   -203.094868
 0.695000   69.692133   -210.322180
 0.700000   68.623431   -216.741719
 0.705000   67.524716   -222.319461
 0.710000   66.400236   -227.073336
 0.715000   65.253982   -230.863810
 0.720000   64.091598   -233.503648
 0.725000   62.918946   -234.981964
 0.730000   61.741779   -235.290300
 0.735000   60.566043   -234.419413
 0.740000   59.397585   -232.486988
 0.745000   58.241173   -230.045590
 0.750000   57.097129   -227.661790
 0.755000   55.964555   -225.368935
 0.760000   54.843439   -222.881707
 0.765000   53.735738   -219.758086
 0.770000   52.645859   -215.741050
 0.775000   51.578327   -210.389665
 0.780000   50.541962   -202.911534
 0.785000   49.549212   -193.352208
 0.790000   48.608440   -182.230584
 0.795000   47.726906   -169.831046
 0.800000   46.910129   -156.591259
 0.805000   46.160994   -143.062478
 0.810000   45.479505   -129.738068
 0.815000   44.863613   -117.122683
 0.820000   44.308278   -105.708150
 0.825000   43.806531   -95.876125
 0.830000   43.349516   -88.028852
 0.835000   42.926243   -82.523645
 0.840000   42.524280   -79.626801
 0.845000   42.129975   -79.781099
 0.850000   41.726469   -83.487728
 0.855000   41.295098   -91.095636
 0.860000   40.815513   -102.964117
 0.865000   40.265456   -119.725890
 0.870000   39.618254   -141.445176
 0.875000   38.851005   -167.969437
 0.880000   37.938559   -199.467517
 0.885000   36.856330   -235.678576
 0.890000   35.581774   -276.028391
 0.895000   34.096046   -320.619352
 0.900000   32.375580   -366.813930
 0.905000   30.427906   -411.217997
 0.910000   28.263400   -452.120413
 0.915000   25.906702   -486.483590
 0.920000   23.398564   -511.027602
 0.925000   20.796426   -522.904197
 0.930000   18.169522   -517.780744
 0.935000   15.618619   -493.833127
 0.940000   13.231191   -453.645942
 0.945000   11.082159   -400.467223
 0.950000   9.226519   -338.804027
 0.955000   7.694119   -273.230221
 0.960000   6.494217   -209.534650
 0.965000   5.598773   -152.761877
 0.970000   4.966598   -105.023377
 0.975000   4.548539   -67.443177
 0.980000   4.292166   -40.178328
 0.985000   4.146755   -22.484130
 0.990000   4.067325   -13.134007
 0.995000   4.015415   -10.534651
 1.000000   3.961978   -10.840219
201 psinorm vpol1(km/s) dvpol1/dpsiN
 0.000000   -0.000066   4.896094
 0.005000   0.026164   5.596094
 0.010000   0.055895   6.271875
 0.015000   0.088883   6.889062
 0.020000   0.124785   7.412891
 0.025000   0.163012   7.817969
 0.030000   0.202965   8.090625
 0.035000   0.243918   8.268750
 0.040000   0.285652   8.413281
 0.045000   0.328051   8.550000
 0.050000   0.371152   8.717578
 0.055000   0.415227   8.951563
 0.060000   0.460668   9.278906
 0.065000   0.508016   9.662500
 0.070000   0.557293   10.026563
 0.075000   0.608281   10.350391
 0.080000   0.660797   10.608594
 0.085000   0.714367   10.762109
 0.090000   0.768418   10.793750
 0.095000   0.822305   10.731250
 0.100000   0.875730   10.616797
 0.105000   0.928473   10.471484
 0.110000   0.980445   10.321484
 0.115000   1.031688   10.176563
 0.120000   1.082211   10.073437
 0.125000   1.132422   10.031250
 0.130000   1.182523   10.018750
 0.135000   1.232609   10.009766
 0.140000   1.282621   9.974609
 0.145000   1.332355   9.869141
 0.150000   1.381312   9.664453
 0.155000   1.429000   9.359375
 0.160000   1.474906   8.958594
 0.165000   1.518586   8.478516
 0.170000   1.559691   7.928906
 0.175000   1.597875   7.278125
 0.180000   1.632473   6.583984
 0.185000   1.663715   5.920703
 0.190000   1.691680   5.287109
 0.195000   1.716586   4.694531
 0.200000   1.738625   4.157031
 0.205000   1.758156   3.685547
 0.210000   1.775480   3.287500
 0.215000   1.791031   2.945703
 0.220000   1.804938   2.614844
 0.225000   1.817180   2.276172
 0.230000   1.827699   1.918359
 0.235000   1.836363   1.533984
 0.240000   1.843039   1.110938
 0.245000   1.847473   0.648047
 0.250000   1.849520   0.149609
 0.255000   1.848969   -0.384766
 0.260000   1.845672   -0.943359
 0.265000   1.839535   -1.514453
 0.270000   1.830527   -2.103125
 0.275000   1.818504   -2.715234
 0.280000   1.803375   -3.345313
 0.285000   1.785051   -3.992188
 0.290000   1.763453   -4.658984
 0.295000   1.738461   -5.352734
 0.300000   1.709926   -6.064453
 0.305000   1.677816   -6.787500
 0.310000   1.642051   -7.526172
 0.315000   1.602555   -8.271094
 0.320000   1.559340   -9.015234
 0.325000   1.512402   -9.728516
 0.330000   1.462055   -10.382031
 0.335000   1.408582   -10.951562
 0.340000   1.352539   -11.428516
 0.345000   1.294297   -11.829297
 0.350000   1.234246   -12.128125
 0.355000   1.173016   -12.389063
 0.360000   1.110355   -12.694531
 0.365000   1.046070   -13.037500
 0.370000   0.979980   -13.434766
 0.375000   0.911723   -13.905859
 0.380000   0.840922   -14.489844
 0.385000   0.766824   -15.157422
 0.390000   0.689348   -15.818750
 0.395000   0.608637   -16.465234
 0.400000   0.524695   -17.169922
 0.405000   0.436938   -18.089453
 0.410000   0.343801   -19.762891
 0.415000   0.239309   -22.368359
 0.420000   0.120117   -25.677734
 0.425000   -0.017469   -29.701953
 0.430000   -0.176902   -34.362109
 0.435000   -0.361090   -39.630078
 0.440000   -0.573203   -45.558984
 0.445000   -0.816680   -51.224219
 0.450000   -1.085445   -55.914062
 0.455000   -1.375820   -59.703125
 0.460000   -1.682477   -62.274219
 0.465000   -1.998563   -63.262695
 0.470000   -2.315104   -62.148828
 0.475000   -2.620051   -59.082422
 0.480000   -2.905928   -54.700195
 0.485000   -3.167053   -49.368750
 0.490000   -3.399615   -43.496289
 0.495000   -3.602016   -37.206641
 0.500000   -3.771682   -31.008398
 0.505000   -3.912100   -25.936133
 0.510000   -4.031043   -22.127148
 0.515000   -4.133371   -19.310742
 0.520000   -4.224150   -17.459961
 0.525000   -4.307971   -16.468555
 0.530000   -4.388836   -16.107813
 0.535000   -4.469049   -16.019336
 0.540000   -4.549029   -15.998437
 0.545000   -4.629033   -15.999219
 0.550000   -4.709021   -15.956250
 0.555000   -4.788596   -15.875195
 0.560000   -4.867773   -15.615039
 0.565000   -4.944746   -15.023438
 0.570000   -5.018008   -14.159570
 0.575000   -5.086342   -13.054492
 0.580000   -5.148553   -11.739063
 0.585000   -5.203732   -10.239258
 0.590000   -5.250945   -8.616797
 0.595000   -5.289900   -6.981836
 0.600000   -5.320764   -5.409961
 0.605000   -5.344000   -3.953906
 0.610000   -5.360303   -2.645898
 0.615000   -5.370459   -1.505078
 0.620000   -5.375354   -0.553906
 0.625000   -5.375998   0.232617
 0.630000   -5.373027   0.897266
 0.635000   -5.367025   1.475000
 0.640000   -5.358277   2.002148
 0.645000   -5.347004   2.510156
 0.650000   -5.333176   3.008594
 0.655000   -5.316918   3.486914
 0.660000   -5.298307   3.946094
 0.665000   -5.277457   4.387109
 0.670000   -5.254436   4.827539
 0.675000   -5.229182   5.365820
 0.680000   -5.200777   6.109375
 0.685000   -5.168088   7.108398
 0.690000   -5.129693   8.395312
 0.695000   -5.084135   9.967676
 0.700000   -5.030017   11.892773
 0.705000   -4.965207   14.095020
 0.710000   -4.889066   16.234863
 0.715000   -4.802858   18.118066
 0.720000   -4.707886   19.649609
 0.725000   -4.606362   20.656104
 0.730000   -4.501325   20.978418
 0.735000   -4.396578   20.456641
 0.740000   -4.296758   19.138770
 0.745000   -4.205190   17.256982
 0.750000   -4.124188   15.013086
 0.755000   -4.055060   12.607593
 0.760000   -3.998113   10.175378
 0.765000   -3.953306   8.047949
 0.770000   -3.917633   6.443750
 0.775000   -3.888868   5.195166
 0.780000   -3.865681   4.125158
 0.785000   -3.847617   3.041901
 0.790000   -3.835262   1.716443
 0.795000   -3.830452   -0.170953
 0.800000   -3.836972   -2.801648
 0.805000   -3.858469   -6.118726
 0.810000   -3.898159   -9.961719
 0.815000   -3.958086   -14.037842
 0.820000   -4.038538   -17.918066
 0.825000   -4.137267   -21.061182
 0.830000   -4.249149   -23.156250
 0.835000   -4.368829   -24.176270
 0.840000   -4.490912   -24.184473
 0.845000   -4.610674   -23.310449
 0.850000   -4.724017   -21.714844
 0.855000   -4.827822   -19.870020
 0.860000   -4.922717   -18.094922
 0.865000   -5.008771   -16.389453
 0.870000   -5.086611   -14.829297
 0.875000   -5.157064   -13.452148
 0.880000   -5.221133   -12.268945
 0.885000   -5.279754   -11.100195
 0.890000   -5.332135   -9.733203
 0.895000   -5.377086   -8.113086
 0.900000   -5.413266   -6.244922
 0.905000   -5.439535   -4.170703
 0.910000   -5.454973   -1.939844
 0.915000   -5.458934   0.409180
 0.920000   -5.450881   2.914258
 0.925000   -5.429791   5.759180
 0.930000   -5.393289   9.322461
 0.935000   -5.336566   14.452344
 0.940000   -5.248766   22.009766
 0.945000   -5.116469   32.325781
 0.950000   -4.925508   45.652344
 0.955000   -4.659945   62.104297
 0.960000   -4.304465   81.420703
 0.965000   -3.845738   104.060547
 0.970000   -3.263859   128.423437
 0.975000   -2.561504   152.153906
 0.980000   -1.742320   173.916797
 0.985000   -0.822336   190.098047
 0.990000   0.158660   195.646875
 0.995000   1.134133   185.438281
 1.000000   2.013043   166.125781
3 N Z A of ION SPECIES
 6.000000   6.000000   12.010700
 1.000000   1.000000   2.000000
 1.000000   1.000000   2.000000
