201 psinorm ne(10^20/m^3) dne/dpsiN
 0.000000   0.482800   -0.000035
 0.005000   0.482776   -0.009270
 0.010000   0.482707   -0.018452
 0.015000   0.482592   -0.027526
 0.020000   0.482432   -0.036490
 0.025000   0.482227   -0.045341
 0.030000   0.481978   -0.054078
 0.035000   0.481686   -0.062697
 0.040000   0.481351   -0.071198
 0.045000   0.480974   -0.079577
 0.050000   0.480555   -0.087833
 0.055000   0.480096   -0.095965
 0.060000   0.479596   -0.103970
 0.065000   0.479056   -0.111847
 0.070000   0.478477   -0.119595
 0.075000   0.477860   -0.127212
 0.080000   0.477205   -0.134697
 0.085000   0.476513   -0.142048
 0.090000   0.475785   -0.149265
 0.095000   0.475021   -0.156347
 0.100000   0.474221   -0.163292
 0.105000   0.473388   -0.170100
 0.110000   0.472520   -0.176770
 0.115000   0.471620   -0.183301
 0.120000   0.470687   -0.189693
 0.125000   0.469723   -0.195946
 0.130000   0.468728   -0.202058
 0.135000   0.467702   -0.208029
 0.140000   0.466648   -0.213860
 0.145000   0.465564   -0.219550
 0.150000   0.464452   -0.225099
 0.155000   0.463313   -0.230506
 0.160000   0.462147   -0.235773
 0.165000   0.460955   -0.240898
 0.170000   0.459738   -0.245882
 0.175000   0.458496   -0.250726
 0.180000   0.457231   -0.255430
 0.185000   0.455942   -0.259994
 0.190000   0.454631   -0.264418
 0.195000   0.453298   -0.268703
 0.200000   0.451944   -0.272849
 0.205000   0.450569   -0.276858
 0.210000   0.449175   -0.280729
 0.215000   0.447762   -0.284464
 0.220000   0.446331   -0.288063
 0.225000   0.444881   -0.291527
 0.230000   0.443415   -0.294857
 0.235000   0.441933   -0.298053
 0.240000   0.440435   -0.301117
 0.245000   0.438922   -0.304050
 0.250000   0.437394   -0.306853
 0.255000   0.435853   -0.309526
 0.260000   0.434299   -0.312071
 0.265000   0.432732   -0.314488
 0.270000   0.431154   -0.316780
 0.275000   0.429565   -0.318948
 0.280000   0.427965   -0.320991
 0.285000   0.426355   -0.322913
 0.290000   0.424735   -0.324713
 0.295000   0.423108   -0.326394
 0.300000   0.421472   -0.327956
 0.305000   0.419828   -0.329402
 0.310000   0.418178   -0.330731
 0.315000   0.416521   -0.331947
 0.320000   0.414858   -0.333049
 0.325000   0.413190   -0.334040
 0.330000   0.411518   -0.334921
 0.335000   0.409841   -0.335693
 0.340000   0.408161   -0.336358
 0.345000   0.406477   -0.336918
 0.350000   0.404792   -0.337373
 0.355000   0.403104   -0.337725
 0.360000   0.401414   -0.337977
 0.365000   0.399724   -0.338128
 0.370000   0.398033   -0.338181
 0.375000   0.396342   -0.338137
 0.380000   0.394652   -0.337998
 0.385000   0.392962   -0.337765
 0.390000   0.391274   -0.337439
 0.395000   0.389588   -0.337023
 0.400000   0.387904   -0.336517
 0.405000   0.386223   -0.335924
 0.410000   0.384545   -0.335243
 0.415000   0.382870   -0.334478
 0.420000   0.381200   -0.333630
 0.425000   0.379534   -0.332699
 0.430000   0.377873   -0.331687
 0.435000   0.376217   -0.330597
 0.440000   0.374567   -0.329428
 0.445000   0.372923   -0.328183
 0.450000   0.371285   -0.326863
 0.455000   0.369654   -0.325470
 0.460000   0.368030   -0.324004
 0.465000   0.366414   -0.322467
 0.470000   0.364806   -0.320861
 0.475000   0.363205   -0.319186
 0.480000   0.361614   -0.317445
 0.485000   0.360031   -0.315637
 0.490000   0.358457   -0.313765
 0.495000   0.356893   -0.311830
 0.500000   0.355339   -0.309833
 0.505000   0.353795   -0.307776
 0.510000   0.352261   -0.305658
 0.515000   0.350738   -0.303483
 0.520000   0.349226   -0.301250
 0.525000   0.347726   -0.298961
 0.530000   0.346237   -0.296616
 0.535000   0.344760   -0.294218
 0.540000   0.343295   -0.291767
 0.545000   0.341842   -0.289264
 0.550000   0.340402   -0.286710
 0.555000   0.338975   -0.284106
 0.560000   0.337561   -0.281453
 0.565000   0.336160   -0.278752
 0.570000   0.334773   -0.276004
 0.575000   0.333400   -0.273210
 0.580000   0.332041   -0.270370
 0.585000   0.330697   -0.267486
 0.590000   0.329366   -0.264558
 0.595000   0.328051   -0.261587
 0.600000   0.326751   -0.258574
 0.605000   0.325465   -0.255519
 0.610000   0.324195   -0.252424
 0.615000   0.322941   -0.249288
 0.620000   0.321703   -0.246113
 0.625000   0.320480   -0.242899
 0.630000   0.319274   -0.239646
 0.635000   0.318084   -0.236356
 0.640000   0.316910   -0.233028
 0.645000   0.315753   -0.229664
 0.650000   0.314613   -0.226264
 0.655000   0.313491   -0.222828
 0.660000   0.312385   -0.219356
 0.665000   0.311297   -0.215849
 0.670000   0.310227   -0.212308
 0.675000   0.309174   -0.208732
 0.680000   0.308139   -0.205122
 0.685000   0.307123   -0.201478
 0.690000   0.306124   -0.197801
 0.695000   0.305145   -0.194090
 0.700000   0.304184   -0.190346
 0.705000   0.303241   -0.186569
 0.710000   0.302318   -0.182759
 0.715000   0.301414   -0.178917
 0.720000   0.300529   -0.175041
 0.725000   0.299663   -0.171132
 0.730000   0.298817   -0.167191
 0.735000   0.297991   -0.163217
 0.740000   0.297185   -0.159210
 0.745000   0.296399   -0.155169
 0.750000   0.295634   -0.151096
 0.755000   0.294888   -0.146988
 0.760000   0.294164   -0.142848
 0.765000   0.293460   -0.138673
 0.770000   0.292777   -0.134464
 0.775000   0.292115   -0.130220
 0.780000   0.291475   -0.125941
 0.785000   0.290856   -0.121627
 0.790000   0.290258   -0.117276
 0.795000   0.289683   -0.112888
 0.800000   0.289130   -0.108463
 0.805000   0.288598   -0.103999
 0.810000   0.288090   -0.099494
 0.815000   0.287603   -0.094948
 0.820000   0.287140   -0.090357
 0.825000   0.286700   -0.085718
 0.830000   0.286283   -0.081028
 0.835000   0.285890   -0.076279
 0.840000   0.285520   -0.071465
 0.845000   0.285175   -0.066573
 0.850000   0.284854   -0.061589
 0.855000   0.284559   -0.056492
 0.860000   0.284290   -0.051256
 0.865000   0.284047   -0.045849
 0.870000   0.283831   -0.040232
 0.875000   0.283644   -0.034364
 0.880000   0.283487   -0.028213
 0.885000   0.283362   -0.021778
 0.890000   0.283270   -0.015137
 0.895000   0.283211   -0.008536
 0.900000   0.283184   -0.002558
 0.905000   0.283185   0.001576
 0.910000   0.283200   0.001471
 0.915000   0.283200   -0.007358
 0.920000   0.283126   -0.032993
 0.925000   0.282870   -0.089473
 0.930000   0.282232   -0.200127
 0.935000   0.280869   -0.401383
 0.940000   0.278218   -0.744719
 0.945000   0.273421   -1.290629
 0.950000   0.265312   -2.083800
 0.955000   0.252583   -3.101442
 0.960000   0.234297   -4.193494
 0.965000   0.210648   -5.081967
 0.970000   0.183477   -5.484191
 0.975000   0.155807   -5.296866
 0.980000   0.130509   -4.660327
 0.985000   0.109203   -3.836953
 0.990000   0.092139   -3.045551
 0.995000   0.078748   -2.392562
 1.000000   0.068214   -1.821088
201 psinorm te(KeV) dte/dpsiN
 0.000000   4.433491   -0.000265
 0.005000   4.433234   -0.102409
 0.010000   4.432467   -0.204142
 0.015000   4.431193   -0.305037
 0.020000   4.429416   -0.405061
 0.025000   4.427142   -0.504180
 0.030000   4.424375   -0.602364
 0.035000   4.421119   -0.699580
 0.040000   4.417379   -0.795801
 0.045000   4.413161   -0.890996
 0.050000   4.408469   -0.985137
 0.055000   4.403309   -1.078199
 0.060000   4.397687   -1.170155
 0.065000   4.391608   -1.260979
 0.070000   4.385077   -1.350649
 0.075000   4.378101   -1.439141
 0.080000   4.370686   -1.526434
 0.085000   4.362837   -1.612506
 0.090000   4.354561   -1.697336
 0.095000   4.345863   -1.780908
 0.100000   4.336752   -1.863201
 0.105000   4.327231   -1.944200
 0.110000   4.317310   -2.023887
 0.115000   4.306993   -2.102249
 0.120000   4.296287   -2.179271
 0.125000   4.285200   -2.254939
 0.130000   4.273738   -2.329241
 0.135000   4.261907   -2.402167
 0.140000   4.249716   -2.473705
 0.145000   4.237170   -2.543847
 0.150000   4.224278   -2.612583
 0.155000   4.211045   -2.679906
 0.160000   4.197478   -2.745809
 0.165000   4.183586   -2.810286
 0.170000   4.169376   -2.873333
 0.175000   4.154853   -2.934945
 0.180000   4.140026   -2.995118
 0.185000   4.124902   -3.053850
 0.190000   4.109488   -3.111140
 0.195000   4.093791   -3.166986
 0.200000   4.077818   -3.221388
 0.205000   4.061577   -3.274347
 0.210000   4.045074   -3.325864
 0.215000   4.028318   -3.375942
 0.220000   4.011315   -3.424582
 0.225000   3.994072   -3.471789
 0.230000   3.976597   -3.517566
 0.235000   3.958897   -3.561918
 0.240000   3.940978   -3.604852
 0.245000   3.922848   -3.646372
 0.250000   3.904514   -3.686486
 0.255000   3.885983   -3.725201
 0.260000   3.867262   -3.762525
 0.265000   3.848358   -3.798466
 0.270000   3.829277   -3.833033
 0.275000   3.810028   -3.866236
 0.280000   3.790615   -3.898084
 0.285000   3.771047   -3.928588
 0.290000   3.751329   -3.957760
 0.295000   3.731469   -3.985610
 0.300000   3.711473   -4.012151
 0.305000   3.691348   -4.037394
 0.310000   3.671099   -4.061352
 0.315000   3.650734   -4.084039
 0.320000   3.630259   -4.105467
 0.325000   3.609679   -4.125651
 0.330000   3.589002   -4.144605
 0.335000   3.568233   -4.162342
 0.340000   3.547379   -4.178878
 0.345000   3.526445   -4.194228
 0.350000   3.505437   -4.208407
 0.355000   3.484361   -4.221430
 0.360000   3.463222   -4.233313
 0.365000   3.442027   -4.244072
 0.370000   3.420782   -4.253723
 0.375000   3.399490   -4.262283
 0.380000   3.378159   -4.269768
 0.385000   3.356793   -4.276194
 0.390000   3.335397   -4.281579
 0.395000   3.313977   -4.285940
 0.400000   3.292537   -4.289293
 0.405000   3.271084   -4.291656
 0.410000   3.249621   -4.293045
 0.415000   3.228153   -4.293479
 0.420000   3.206686   -4.292975
 0.425000   3.185224   -4.291549
 0.430000   3.163771   -4.289220
 0.435000   3.142331   -4.286005
 0.440000   3.120910   -4.281921
 0.445000   3.099512   -4.276986
 0.450000   3.078141   -4.271218
 0.455000   3.056800   -4.264634
 0.460000   3.035494   -4.257251
 0.465000   3.014227   -4.249087
 0.470000   2.993003   -4.240159
 0.475000   2.971826   -4.230485
 0.480000   2.950699   -4.220082
 0.485000   2.929625   -4.208966
 0.490000   2.908609   -4.197155
 0.495000   2.887654   -4.184667
 0.500000   2.866762   -4.171517
 0.505000   2.845938   -4.157723
 0.510000   2.825185   -4.143301
 0.515000   2.804505   -4.128268
 0.520000   2.783902   -4.112640
 0.525000   2.763379   -4.096434
 0.530000   2.742938   -4.079666
 0.535000   2.722582   -4.062351
 0.540000   2.702314   -4.044505
 0.545000   2.682137   -4.026145
 0.550000   2.662053   -4.007286
 0.555000   2.642064   -3.987942
 0.560000   2.622174   -3.968129
 0.565000   2.602383   -3.947863
 0.570000   2.582695   -3.927158
 0.575000   2.563111   -3.906028
 0.580000   2.543635   -3.884488
 0.585000   2.524267   -3.862552
 0.590000   2.505009   -3.840235
 0.595000   2.485864   -3.817549
 0.600000   2.466834   -3.794509
 0.605000   2.447919   -3.771129
 0.610000   2.429122   -3.747421
 0.615000   2.410445   -3.723398
 0.620000   2.391888   -3.699074
 0.625000   2.373454   -3.674460
 0.630000   2.355144   -3.649569
 0.635000   2.336959   -3.624414
 0.640000   2.318900   -3.599006
 0.645000   2.300968   -3.573358
 0.650000   2.283166   -3.547480
 0.655000   2.265494   -3.521384
 0.660000   2.247952   -3.495081
 0.665000   2.230543   -3.468582
 0.670000   2.213266   -3.441898
 0.675000   2.196124   -3.415039
 0.680000   2.179116   -3.388015
 0.685000   2.162244   -3.360838
 0.690000   2.145508   -3.333516
 0.695000   2.128909   -3.306060
 0.700000   2.112447   -3.278479
 0.705000   2.096124   -3.250784
 0.710000   2.079939   -3.222983
 0.715000   2.063894   -3.195086
 0.720000   2.047988   -3.167103
 0.725000   2.032223   -3.139043
 0.730000   2.016598   -3.110917
 0.735000   2.001114   -3.082734
 0.740000   1.985771   -3.054507
 0.745000   1.970569   -3.026245
 0.750000   1.955508   -2.997963
 0.755000   1.940589   -2.969673
 0.760000   1.925811   -2.941393
 0.765000   1.911175   -2.913141
 0.770000   1.896680   -2.884938
 0.775000   1.882326   -2.856811
 0.780000   1.868112   -2.828793
 0.785000   1.854038   -2.800923
 0.790000   1.840103   -2.773252
 0.795000   1.826305   -2.745842
 0.800000   1.812644   -2.718776
 0.805000   1.799118   -2.692155
 0.810000   1.785723   -2.666112
 0.815000   1.772456   -2.640821
 0.820000   1.759314   -2.616502
 0.825000   1.746291   -2.593447
 0.830000   1.733380   -2.572030
 0.835000   1.720571   -2.552745
 0.840000   1.707853   -2.536232
 0.845000   1.695209   -2.523333
 0.850000   1.682619   -2.515151
 0.855000   1.670057   -2.513129
 0.860000   1.657488   -2.519170
 0.865000   1.644866   -2.535770
 0.870000   1.632130   -2.566218
 0.875000   1.619203   -2.614846
 0.880000   1.605982   -2.687357
 0.885000   1.592330   -2.791265
 0.890000   1.578069   -2.936452
 0.895000   1.562965   -3.135893
 0.900000   1.546710   -3.406556
 0.905000   1.528900   -3.770506
 0.910000   1.509005   -4.256174
 0.915000   1.486338   -4.899688
 0.920000   1.460008   -5.745983
 0.925000   1.428878   -6.849109
 0.930000   1.391517   -8.270614
 0.935000   1.346172   -10.074058
 0.940000   1.290777   -12.312603
 0.945000   1.223046   -15.005600
 0.950000   1.140721   -18.100351
 0.955000   1.042042   -21.419513
 0.960000   0.926525   -24.607121
 0.965000   0.795971   -27.109470
 0.970000   0.655431   -28.251066
 0.975000   0.513461   -27.454737
 0.980000   0.380883   -24.560501
 0.985000   0.267856   -20.042961
 0.990000   0.180454   -14.887994
 0.995000   0.118976   -10.134407
 1.000000   0.079110   -5.811966
201 psinorm ni(10^20/m^3) dni/dpsiN
 0.000000   0.283917   0.110955
 0.005000   0.284616   0.168553
 0.010000   0.285603   0.208212
 0.015000   0.286698   0.225359
 0.020000   0.287857   0.235578
 0.025000   0.289054   0.241667
 0.030000   0.290273   0.244496
 0.035000   0.291499   0.244535
 0.040000   0.292719   0.242375
 0.045000   0.293923   0.238445
 0.050000   0.295103   0.232881
 0.055000   0.296252   0.225821
 0.060000   0.297361   0.217963
 0.065000   0.298431   0.209236
 0.070000   0.299454   0.199684
 0.075000   0.300428   0.189913
 0.080000   0.301353   0.179333
 0.085000   0.302221   0.168191
 0.090000   0.303035   0.156951
 0.095000   0.303791   0.145124
 0.100000   0.304486   0.132835
 0.105000   0.305119   0.120568
 0.110000   0.305692   0.108346
 0.115000   0.306203   0.096132
 0.120000   0.306653   0.083923
 0.125000   0.307042   0.071681
 0.130000   0.307370   0.059431
 0.135000   0.307636   0.047135
 0.140000   0.307841   0.034652
 0.145000   0.307983   0.022002
 0.150000   0.308061   0.009563
 0.155000   0.308078   -0.002607
 0.160000   0.308035   -0.014846
 0.165000   0.307930   -0.027009
 0.170000   0.307765   -0.038884
 0.175000   0.307541   -0.050614
 0.180000   0.307259   -0.062258
 0.185000   0.306919   -0.073613
 0.190000   0.306523   -0.084606
 0.195000   0.306072   -0.095382
 0.200000   0.305569   -0.106003
 0.205000   0.305012   -0.116424
 0.210000   0.304405   -0.126596
 0.215000   0.303746   -0.136616
 0.220000   0.303038   -0.146606
 0.225000   0.302280   -0.156210
 0.230000   0.301476   -0.165334
 0.235000   0.300627   -0.174252
 0.240000   0.299734   -0.182972
 0.245000   0.298797   -0.191535
 0.250000   0.297818   -0.200238
 0.255000   0.296795   -0.208645
 0.260000   0.295732   -0.216441
 0.265000   0.294631   -0.224021
 0.270000   0.293492   -0.231392
 0.275000   0.292317   -0.238861
 0.280000   0.291103   -0.246128
 0.285000   0.289855   -0.252832
 0.290000   0.288575   -0.259266
 0.295000   0.287263   -0.265526
 0.300000   0.285920   -0.271753
 0.305000   0.284545   -0.277671
 0.310000   0.283143   -0.283144
 0.315000   0.281714   -0.288413
 0.320000   0.280259   -0.293637
 0.325000   0.278777   -0.298680
 0.330000   0.277272   -0.303359
 0.335000   0.275744   -0.307825
 0.340000   0.274194   -0.312219
 0.345000   0.272622   -0.316466
 0.350000   0.271029   -0.320408
 0.355000   0.269418   -0.324113
 0.360000   0.267788   -0.327712
 0.365000   0.266140   -0.331122
 0.370000   0.264477   -0.334209
 0.375000   0.262798   -0.337037
 0.380000   0.261106   -0.339665
 0.385000   0.259402   -0.341971
 0.390000   0.257687   -0.343883
 0.395000   0.255963   -0.345471
 0.400000   0.254232   -0.346761
 0.405000   0.252495   -0.347706
 0.410000   0.250755   -0.348283
 0.415000   0.249012   -0.348560
 0.420000   0.247269   -0.348540
 0.425000   0.245527   -0.348196
 0.430000   0.243787   -0.347552
 0.435000   0.242051   -0.346657
 0.440000   0.240321   -0.345497
 0.445000   0.238596   -0.344071
 0.450000   0.236880   -0.342417
 0.455000   0.235172   -0.340549
 0.460000   0.233475   -0.338450
 0.465000   0.231788   -0.336119
 0.470000   0.230113   -0.333614
 0.475000   0.228452   -0.330925
 0.480000   0.226804   -0.328001
 0.485000   0.225172   -0.324856
 0.490000   0.223556   -0.321526
 0.495000   0.221956   -0.317950
 0.500000   0.220376   -0.314093
 0.505000   0.218815   -0.310045
 0.510000   0.217276   -0.305830
 0.515000   0.215757   -0.301410
 0.520000   0.214261   -0.296805
 0.525000   0.212789   -0.292129
 0.530000   0.211340   -0.287339
 0.535000   0.209916   -0.282379
 0.540000   0.208516   -0.277339
 0.545000   0.207142   -0.272270
 0.550000   0.205794   -0.267122
 0.555000   0.204471   -0.261876
 0.560000   0.203175   -0.256627
 0.565000   0.201905   -0.251379
 0.570000   0.200661   -0.246077
 0.575000   0.199444   -0.240737
 0.580000   0.198254   -0.235446
 0.585000   0.197090   -0.230176
 0.590000   0.195952   -0.224878
 0.595000   0.194841   -0.219606
 0.600000   0.193756   -0.214442
 0.605000   0.192696   -0.209347
 0.610000   0.191662   -0.204271
 0.615000   0.190654   -0.199275
 0.620000   0.189670   -0.194407
 0.625000   0.188710   -0.189633
 0.630000   0.187773   -0.184925
 0.635000   0.186860   -0.180333
 0.640000   0.185970   -0.175892
 0.645000   0.185102   -0.171590
 0.650000   0.184254   -0.167403
 0.655000   0.183427   -0.163356
 0.660000   0.182621   -0.159463
 0.665000   0.181833   -0.155706
 0.670000   0.181064   -0.152058
 0.675000   0.180312   -0.148570
 0.680000   0.179578   -0.145295
 0.685000   0.178859   -0.142281
 0.690000   0.178155   -0.139589
 0.695000   0.177463   -0.137256
 0.700000   0.176782   -0.135324
 0.705000   0.176110   -0.133863
 0.710000   0.175444   -0.132915
 0.715000   0.174781   -0.132479
 0.720000   0.174119   -0.132562
 0.725000   0.173455   -0.133149
 0.730000   0.172788   -0.134207
 0.735000   0.172113   -0.135680
 0.740000   0.171431   -0.137496
 0.745000   0.170738   -0.139565
 0.750000   0.170035   -0.141797
 0.755000   0.169320   -0.144101
 0.760000   0.168594   -0.146320
 0.765000   0.167857   -0.148390
 0.770000   0.167110   -0.150274
 0.775000   0.166354   -0.151866
 0.780000   0.165592   -0.153155
 0.785000   0.164823   -0.154116
 0.790000   0.164050   -0.154579
 0.795000   0.163277   -0.154631
 0.800000   0.162504   -0.154428
 0.805000   0.161733   -0.153920
 0.810000   0.160965   -0.153204
 0.815000   0.160201   -0.152372
 0.820000   0.159441   -0.151489
 0.825000   0.158686   -0.150803
 0.830000   0.157933   -0.150460
 0.835000   0.157181   -0.150393
 0.840000   0.156429   -0.150513
 0.845000   0.155676   -0.150704
 0.850000   0.154922   -0.151036
 0.855000   0.154166   -0.151387
 0.860000   0.153408   -0.151669
 0.865000   0.152649   -0.152704
 0.870000   0.151881   -0.155441
 0.875000   0.151095   -0.160422
 0.880000   0.150277   -0.169128
 0.885000   0.149403   -0.182165
 0.890000   0.148455   -0.197223
 0.895000   0.147431   -0.211827
 0.900000   0.146337   -0.220244
 0.905000   0.145229   -0.211997
 0.910000   0.144217   -0.173470
 0.915000   0.143494   -0.080034
 0.920000   0.143417   0.100119
 0.925000   0.144495   0.390876
 0.930000   0.147326   0.790889
 0.935000   0.152404   1.248194
 0.940000   0.159807   1.641680
 0.945000   0.168821   1.769765
 0.950000   0.177505   1.389946
 0.955000   0.182720   0.397966
 0.960000   0.181485   -1.037363
 0.965000   0.172347   -2.509307
 0.970000   0.156392   -3.561134
 0.975000   0.136735   -3.956056
 0.980000   0.116831   -3.770327
 0.985000   0.099032   -3.261893
 0.990000   0.084212   -2.677819
 0.995000   0.072254   -2.156060
 1.000000   0.062652   -1.684887
201 psinorm ti(KeV) dti/dpsiN
 0.000000   8.405517   0.001668
 0.005000   8.404324   -0.478553
 0.010000   8.400731   -0.961400
 0.015000   8.394710   -1.449127
 0.020000   8.386240   -1.941112
 0.025000   8.375299   -2.436976
 0.030000   8.361870   -2.936583
 0.035000   8.345933   -3.439993
 0.040000   8.327470   -3.948057
 0.045000   8.306453   -4.460793
 0.050000   8.282862   -4.977501
 0.055000   8.256678   -5.498197
 0.060000   8.227880   -6.022716
 0.065000   8.196451   -6.550757
 0.070000   8.162373   -7.083741
 0.075000   8.125613   -7.620206
 0.080000   8.086170   -8.156509
 0.085000   8.044048   -8.691444
 0.090000   7.999256   -9.223135
 0.095000   7.951817   -9.748628
 0.100000   7.901770   -10.264832
 0.105000   7.849168   -10.766804
 0.110000   7.794102   -11.250997
 0.115000   7.736658   -11.717396
 0.120000   7.676928   -12.165583
 0.125000   7.615003   -12.595041
 0.130000   7.550977   -13.003739
 0.135000   7.484965   -13.389671
 0.140000   7.417081   -13.752926
 0.145000   7.347436   -14.092688
 0.150000   7.276154   -14.407048
 0.155000   7.203366   -14.695133
 0.160000   7.129202   -14.954594
 0.165000   7.053820   -15.183765
 0.170000   6.977365   -15.385435
 0.175000   6.899965   -15.560565
 0.180000   6.821759   -15.707758
 0.185000   6.742888   -15.828519
 0.190000   6.663474   -15.924180
 0.195000   6.583646   -15.998266
 0.200000   6.503491   -16.058538
 0.205000   6.423060   -16.108254
 0.210000   6.342409   -16.148380
 0.215000   6.261577   -16.180377
 0.220000   6.180605   -16.205790
 0.225000   6.099519   -16.228647
 0.230000   6.018319   -16.242050
 0.235000   5.937098   -16.239041
 0.240000   5.855928   -16.221934
 0.245000   5.774879   -16.184699
 0.250000   5.694081   -16.119528
 0.255000   5.613684   -16.023345
 0.260000   5.533848   -15.886586
 0.265000   5.454818   -15.706640
 0.270000   5.376781   -15.489226
 0.275000   5.299926   -15.233923
 0.280000   5.224442   -14.941817
 0.285000   5.150507   -14.610030
 0.290000   5.078342   -14.242872
 0.295000   5.008079   -13.846494
 0.300000   4.939877   -13.418202
 0.305000   4.873897   -12.964015
 0.310000   4.810237   -12.499641
 0.315000   4.748900   -12.029539
 0.320000   4.689941   -11.570867
 0.325000   4.633192   -11.136956
 0.330000   4.578572   -10.718802
 0.335000   4.526004   -10.318954
 0.340000   4.475382   -9.941217
 0.345000   4.426591   -9.586597
 0.350000   4.379516   -9.254928
 0.355000   4.334042   -8.942952
 0.360000   4.290087   -8.647222
 0.365000   4.247570   -8.366990
 0.370000   4.206417   -8.095573
 0.375000   4.166614   -7.826458
 0.380000   4.128152   -7.547112
 0.385000   4.091143   -7.247931
 0.390000   4.055673   -6.933611
 0.395000   4.021807   -6.606696
 0.400000   3.989606   -6.270330
 0.405000   3.959104   -5.927965
 0.410000   3.930326   -5.585487
 0.415000   3.903249   -5.251150
 0.420000   3.877815   -4.928044
 0.425000   3.853968   -4.615347
 0.430000   3.831661   -4.318000
 0.435000   3.810788   -4.038147
 0.440000   3.791280   -3.775728
 0.445000   3.773031   -3.535458
 0.450000   3.755925   -3.316777
 0.455000   3.739863   -3.116498
 0.460000   3.724760   -2.936773
 0.465000   3.710495   -2.778402
 0.470000   3.696976   -2.639291
 0.475000   3.684103   -2.519462
 0.480000   3.671782   -2.416510
 0.485000   3.659937   -2.327783
 0.490000   3.648504   -2.250580
 0.495000   3.637432   -2.182443
 0.500000   3.626679   -2.122775
 0.505000   3.616204   -2.072775
 0.510000   3.605952   -2.033913
 0.515000   3.595865   -2.007233
 0.520000   3.585879   -1.993366
 0.525000   3.575931   -1.992156
 0.530000   3.565958   -2.003742
 0.535000   3.555894   -2.027225
 0.540000   3.545686   -2.061706
 0.545000   3.535277   -2.108285
 0.550000   3.524603   -2.166287
 0.555000   3.513614   -2.234120
 0.560000   3.502261   -2.312315
 0.565000   3.490491   -2.399132
 0.570000   3.478270   -2.492744
 0.575000   3.465563   -2.593805
 0.580000   3.452332   -2.700158
 0.585000   3.438562   -2.808192
 0.590000   3.424250   -2.915287
 0.595000   3.409409   -3.018580
 0.600000   3.394064   -3.116188
 0.605000   3.378247   -3.206395
 0.610000   3.362000   -3.287569
 0.615000   3.345371   -3.360753
 0.620000   3.328393   -3.424706
 0.625000   3.311124   -3.479906
 0.630000   3.293594   -3.528144
 0.635000   3.275843   -3.567176
 0.640000   3.257922   -3.596883
 0.645000   3.239874   -3.621106
 0.650000   3.221711   -3.640581
 0.655000   3.203468   -3.656481
 0.660000   3.185146   -3.671782
 0.665000   3.166750   -3.686407
 0.670000   3.148282   -3.702177
 0.675000   3.129728   -3.720926
 0.680000   3.111073   -3.741995
 0.685000   3.092308   -3.761670
 0.690000   3.073456   -3.775269
 0.695000   3.054556   -3.779911
 0.700000   3.035657   -3.773691
 0.705000   3.016819   -3.754842
 0.710000   2.998109   -3.723273
 0.715000   2.979586   -3.680172
 0.720000   2.961307   -3.627462
 0.725000   2.943312   -3.568096
 0.730000   2.925626   -3.506487
 0.735000   2.908247   -3.448199
 0.740000   2.891144   -3.395521
 0.745000   2.874291   -3.347711
 0.750000   2.857667   -3.303137
 0.755000   2.841260   -3.260493
 0.760000   2.825062   -3.223579
 0.765000   2.809024   -3.187765
 0.770000   2.793184   -3.148013
 0.775000   2.777544   -3.106896
 0.780000   2.762115   -3.062068
 0.785000   2.746923   -3.012860
 0.790000   2.731987   -2.962395
 0.795000   2.717300   -2.907359
 0.800000   2.702913   -2.846443
 0.805000   2.688835   -2.785359
 0.810000   2.675060   -2.727148
 0.815000   2.661564   -2.675851
 0.820000   2.648301   -2.636813
 0.825000   2.635196   -2.615086
 0.830000   2.622150   -2.614168
 0.835000   2.609054   -2.637856
 0.840000   2.595772   -2.689790
 0.845000   2.582156   -2.773482
 0.850000   2.568037   -2.897063
 0.855000   2.553185   -3.064177
 0.860000   2.537395   -3.274171
 0.865000   2.520444   -3.535907
 0.870000   2.502036   -3.858356
 0.875000   2.481860   -4.249442
 0.880000   2.459542   -4.730878
 0.885000   2.434551   -5.317076
 0.890000   2.406371   -6.006079
 0.895000   2.374490   -6.813322
 0.900000   2.338238   -7.747544
 0.905000   2.297015   -8.804736
 0.910000   2.250190   -10.007366
 0.915000   2.196941   -11.350634
 0.920000   2.136684   -12.754575
 0.925000   2.069396   -14.160703
 0.930000   1.995077   -15.517046
 0.935000   1.914225   -16.740574
 0.940000   1.827671   -17.779383
 0.945000   1.736431   -18.567174
 0.950000   1.641999   -18.982208
 0.955000   1.546609   -18.971678
 0.960000   1.452283   -18.549755
 0.965000   1.361112   -17.721757
 0.970000   1.275065   -16.524595
 0.975000   1.195866   -15.002803
 0.980000   1.125037   -13.194019
 0.985000   1.063926   -11.169957
 0.990000   1.013337   -9.018105
 0.995000   0.973745   -6.802114
 1.000000   0.945316   -4.569196
201 psinorm nb(10^20/m^3) dnb/dpsiN
 0.000000   0.080324   -0.111009
 0.005000   0.079609   -0.175052
 0.010000   0.078573   -0.221072
 0.015000   0.077398   -0.244422
 0.020000   0.076129   -0.260694
 0.025000   0.074791   -0.272698
 0.030000   0.073402   -0.281317
 0.035000   0.071978   -0.287038
 0.040000   0.070532   -0.290472
 0.045000   0.069073   -0.292062
 0.050000   0.067611   -0.291958
 0.055000   0.066153   -0.290315
 0.060000   0.064708   -0.287846
 0.065000   0.063275   -0.284493
 0.070000   0.061863   -0.280319
 0.075000   0.060472   -0.275931
 0.080000   0.059104   -0.270729
 0.085000   0.057765   -0.264974
 0.090000   0.056454   -0.259131
 0.095000   0.055173   -0.252715
 0.100000   0.053927   -0.245860
 0.105000   0.052715   -0.239052
 0.110000   0.051536   -0.232311
 0.115000   0.050392   -0.225604
 0.120000   0.049280   -0.218934
 0.125000   0.048202   -0.212261
 0.130000   0.047158   -0.205612
 0.135000   0.046146   -0.198946
 0.140000   0.045168   -0.192109
 0.145000   0.044225   -0.185119
 0.150000   0.043317   -0.178357
 0.155000   0.042441   -0.171877
 0.160000   0.041598   -0.165344
 0.165000   0.040788   -0.158903
 0.170000   0.040009   -0.152758
 0.175000   0.039260   -0.146767
 0.180000   0.038541   -0.140867
 0.185000   0.037852   -0.135257
 0.190000   0.037189   -0.130007
 0.195000   0.036552   -0.124969
 0.200000   0.035939   -0.120078
 0.205000   0.035351   -0.115380
 0.210000   0.034785   -0.110918
 0.215000   0.034242   -0.106592
 0.220000   0.033719   -0.102276
 0.225000   0.033219   -0.098322
 0.230000   0.032736   -0.094820
 0.235000   0.032271   -0.091491
 0.240000   0.031821   -0.088323
 0.245000   0.031387   -0.085269
 0.250000   0.030969   -0.082025
 0.255000   0.030567   -0.079024
 0.260000   0.030178   -0.076573
 0.265000   0.029801   -0.074271
 0.270000   0.029436   -0.072101
 0.275000   0.029080   -0.069751
 0.280000   0.028738   -0.067513
 0.285000   0.028405   -0.065740
 0.290000   0.028081   -0.064131
 0.295000   0.027764   -0.062582
 0.300000   0.027455   -0.060944
 0.305000   0.027155   -0.059487
 0.310000   0.026860   -0.058343
 0.315000   0.026571   -0.057274
 0.320000   0.026287   -0.056123
 0.325000   0.026010   -0.055026
 0.330000   0.025737   -0.054169
 0.335000   0.025468   -0.053401
 0.340000   0.025203   -0.052580
 0.345000   0.024942   -0.051785
 0.350000   0.024685   -0.051165
 0.355000   0.024431   -0.050633
 0.360000   0.024179   -0.050056
 0.365000   0.023930   -0.049512
 0.370000   0.023684   -0.049109
 0.375000   0.023439   -0.048769
 0.380000   0.023196   -0.048403
 0.385000   0.022955   -0.048095
 0.390000   0.022715   -0.047907
 0.395000   0.022476   -0.047749
 0.400000   0.022238   -0.047580
 0.405000   0.022000   -0.047433
 0.410000   0.021763   -0.047333
 0.415000   0.021527   -0.047231
 0.420000   0.021291   -0.047128
 0.425000   0.021056   -0.047038
 0.430000   0.020821   -0.046957
 0.435000   0.020586   -0.046843
 0.440000   0.020352   -0.046715
 0.445000   0.020119   -0.046601
 0.450000   0.019886   -0.046473
 0.455000   0.019654   -0.046312
 0.460000   0.019423   -0.046155
 0.465000   0.019193   -0.046020
 0.470000   0.018963   -0.045851
 0.475000   0.018734   -0.045665
 0.480000   0.018506   -0.045508
 0.485000   0.018279   -0.045354
 0.490000   0.018053   -0.045152
 0.495000   0.017828   -0.044949
 0.500000   0.017603   -0.044785
 0.505000   0.017380   -0.044589
 0.510000   0.017157   -0.044360
 0.515000   0.016936   -0.044150
 0.520000   0.016716   -0.043960
 0.525000   0.016496   -0.043697
 0.530000   0.016279   -0.043417
 0.535000   0.016062   -0.043195
 0.540000   0.015847   -0.042961
 0.545000   0.015633   -0.042671
 0.550000   0.015420   -0.042394
 0.555000   0.015209   -0.042164
 0.560000   0.014999   -0.041897
 0.565000   0.014790   -0.041600
 0.570000   0.014583   -0.041340
 0.575000   0.014376   -0.041111
 0.580000   0.014171   -0.040835
 0.585000   0.013968   -0.040551
 0.590000   0.013766   -0.040321
 0.595000   0.013565   -0.040106
 0.600000   0.013365   -0.039841
 0.605000   0.013166   -0.039580
 0.610000   0.012969   -0.039381
 0.615000   0.012773   -0.039194
 0.620000   0.012577   -0.038975
 0.625000   0.012383   -0.038765
 0.630000   0.012189   -0.038603
 0.635000   0.011997   -0.038447
 0.640000   0.011805   -0.038269
 0.645000   0.011614   -0.038097
 0.650000   0.011424   -0.037960
 0.655000   0.011235   -0.037833
 0.660000   0.011046   -0.037700
 0.665000   0.010858   -0.037570
 0.670000   0.010670   -0.037465
 0.675000   0.010483   -0.037381
 0.680000   0.010296   -0.037308
 0.685000   0.010110   -0.037240
 0.690000   0.009924   -0.037184
 0.695000   0.009738   -0.037143
 0.700000   0.009552   -0.037109
 0.705000   0.009367   -0.037083
 0.710000   0.009181   -0.037064
 0.715000   0.008996   -0.037054
 0.720000   0.008811   -0.037051
 0.725000   0.008626   -0.037051
 0.730000   0.008440   -0.037053
 0.735000   0.008255   -0.037055
 0.740000   0.008070   -0.037054
 0.745000   0.007885   -0.037049
 0.750000   0.007699   -0.037041
 0.755000   0.007514   -0.037031
 0.760000   0.007329   -0.037018
 0.765000   0.007144   -0.036999
 0.770000   0.006959   -0.036976
 0.775000   0.006774   -0.036955
 0.780000   0.006590   -0.036932
 0.785000   0.006405   -0.036903
 0.790000   0.006221   -0.036870
 0.795000   0.006036   -0.036826
 0.800000   0.005852   -0.036770
 0.805000   0.005669   -0.036704
 0.810000   0.005485   -0.036629
 0.815000   0.005302   -0.036543
 0.820000   0.005120   -0.036447
 0.825000   0.004938   -0.036342
 0.830000   0.004756   -0.036228
 0.835000   0.004576   -0.036096
 0.840000   0.004395   -0.035941
 0.845000   0.004216   -0.035764
 0.850000   0.004038   -0.035562
 0.855000   0.003861   -0.035328
 0.860000   0.003685   -0.035056
 0.865000   0.003510   -0.034743
 0.870000   0.003337   -0.034388
 0.875000   0.003166   -0.033997
 0.880000   0.002997   -0.033587
 0.885000   0.002830   -0.033170
 0.890000   0.002665   -0.032746
 0.895000   0.002503   -0.032310
 0.900000   0.002342   -0.031856
 0.905000   0.002184   -0.031375
 0.910000   0.002029   -0.030859
 0.915000   0.001876   -0.030295
 0.920000   0.001726   -0.029682
 0.925000   0.001579   -0.029059
 0.930000   0.001435   -0.028474
 0.935000   0.001294   -0.027921
 0.940000   0.001156   -0.027375
 0.945000   0.001020   -0.026835
 0.950000   0.000887   -0.026315
 0.955000   0.000757   -0.025750
 0.960000   0.000630   -0.024771
 0.965000   0.000509   -0.022854
 0.970000   0.000401   -0.019670
 0.975000   0.000313   -0.015813
 0.980000   0.000243   -0.012198
 0.985000   0.000191   -0.009365
 0.990000   0.000150   -0.007654
 0.995000   0.000114   -0.007842
 1.000000   0.000071   -0.009364
201 psinorm pb(KPa) dpb/dpsiN
 0.000000   31.187107   -55.333048
 0.005000   30.866783   -72.796326
 0.010000   30.459144   -86.384348
 0.015000   30.002940   -94.572439
 0.020000   29.513419   -100.245736
 0.025000   29.000483   -104.274293
 0.030000   28.470676   -107.034329
 0.035000   27.930139   -108.750870
 0.040000   27.383168   -109.769948
 0.045000   26.832440   -110.202928
 0.050000   26.281138   -110.016159
 0.055000   25.732278   -109.273975
 0.060000   25.188398   -108.321003
 0.065000   24.649068   -107.104842
 0.070000   24.117350   -105.603667
 0.075000   23.593031   -104.099920
 0.080000   23.076351   -102.315531
 0.085000   22.569876   -100.289265
 0.090000   22.073458   -98.230187
 0.095000   21.587574   -95.970804
 0.100000   21.113750   -93.559228
 0.105000   20.651982   -91.167109
 0.110000   20.202079   -88.807086
 0.115000   19.763911   -86.470308
 0.120000   19.337376   -84.147294
 0.125000   18.922438   -81.814144
 0.130000   18.519235   -79.479443
 0.135000   18.127644   -77.127493
 0.140000   17.747960   -74.722301
 0.145000   17.380421   -72.240460
 0.150000   17.025555   -69.792797
 0.155000   16.682493   -67.429820
 0.160000   16.351257   -65.031744
 0.165000   16.032175   -62.658908
 0.170000   15.724668   -60.394914
 0.175000   15.428226   -58.184153
 0.180000   15.142826   -55.980629
 0.185000   14.868420   -53.880313
 0.190000   14.604023   -51.935362
 0.195000   14.349066   -50.069415
 0.200000   14.103329   -48.250373
 0.205000   13.866563   -46.494868
 0.210000   13.638380   -44.823009
 0.215000   13.418332   -43.196849
 0.220000   13.206412   -41.570792
 0.225000   13.002625   -40.082218
 0.230000   12.805590   -38.755683
 0.235000   12.615068   -37.480405
 0.240000   12.430786   -36.258855
 0.245000   12.252479   -35.072228
 0.250000   12.080063   -33.806652
 0.255000   11.914413   -32.631185
 0.260000   11.753751   -31.661259
 0.265000   11.597800   -30.744675
 0.270000   11.446305   -29.876481
 0.275000   11.299035   -28.933075
 0.280000   11.156974   -28.030140
 0.285000   11.018734   -27.308691
 0.290000   10.883887   -26.651077
 0.295000   10.752223   -26.015180
 0.300000   10.623735   -25.343482
 0.305000   10.498788   -24.740165
 0.310000   10.376334   -24.257135
 0.315000   10.256217   -23.803887
 0.320000   10.138295   -23.315252
 0.325000   10.023064   -22.841515
 0.330000   9.909880   -22.457106
 0.335000   9.798493   -22.106973
 0.340000   9.688810   -21.736176
 0.345000   9.581132   -21.373666
 0.350000   9.475073   -21.080825
 0.355000   9.370323   -20.827525
 0.360000   9.266798   -20.553707
 0.365000   9.164786   -20.292212
 0.370000   9.063876   -20.093254
 0.375000   8.963854   -19.923000
 0.380000   8.864646   -19.745311
 0.385000   8.766401   -19.596922
 0.390000   8.668677   -19.503476
 0.395000   8.571366   -19.428629
 0.400000   8.474390   -19.351032
 0.405000   8.377856   -19.279631
 0.410000   8.281594   -19.227214
 0.415000   8.185583   -19.177706
 0.420000   8.089817   -19.130826
 0.425000   7.994275   -19.086525
 0.430000   7.898952   -19.041991
 0.435000   7.803855   -18.987642
 0.440000   7.709075   -18.925844
 0.445000   7.614597   -18.864775
 0.450000   7.520427   -18.797311
 0.455000   7.426624   -18.720750
 0.460000   7.333220   -18.646237
 0.465000   7.240161   -18.576594
 0.470000   7.147454   -18.496794
 0.475000   7.055193   -18.413043
 0.480000   6.963324   -18.338137
 0.485000   6.871812   -18.264359
 0.490000   6.780680   -18.177212
 0.495000   6.690040   -18.089856
 0.500000   6.599781   -18.012893
 0.505000   6.509911   -17.926314
 0.510000   6.420518   -17.828654
 0.515000   6.331624   -17.734981
 0.520000   6.243168   -17.645978
 0.525000   6.155165   -17.525722
 0.530000   6.067911   -17.396310
 0.535000   5.981201   -17.289415
 0.540000   5.895017   -17.178651
 0.545000   5.809415   -17.049089
 0.550000   5.724526   -16.921633
 0.555000   5.640199   -16.808823
 0.560000   5.556438   -16.681966
 0.565000   5.473379   -16.543434
 0.570000   5.391004   -16.417328
 0.575000   5.309206   -16.301792
 0.580000   5.227986   -16.169017
 0.585000   5.147516   -16.032407
 0.590000   5.067662   -15.914757
 0.595000   4.988368   -15.803072
 0.600000   4.909631   -15.671898
 0.605000   4.831649   -15.541651
 0.610000   4.754214   -15.435192
 0.615000   4.677297   -15.332985
 0.620000   4.600885   -15.217488
 0.625000   4.525122   -15.104136
 0.630000   4.449843   -15.008816
 0.635000   4.375034   -14.915424
 0.640000   4.300689   -14.812007
 0.645000   4.226914   -14.708992
 0.650000   4.153599   -14.619947
 0.655000   4.080714   -14.534743
 0.660000   4.008252   -14.445001
 0.665000   3.936264   -14.354766
 0.670000   3.864704   -14.276119
 0.675000   3.793503   -14.206681
 0.680000   3.722637   -14.142392
 0.685000   3.652079   -14.079907
 0.690000   3.581838   -14.021873
 0.695000   3.511861   -13.970760
 0.700000   3.442131   -13.923139
 0.705000   3.372629   -13.878606
 0.710000   3.303344   -13.836319
 0.715000   3.234266   -13.798957
 0.720000   3.165355   -13.766454
 0.725000   3.096602   -13.735676
 0.730000   3.027998   -13.706138
 0.735000   2.959540   -13.675240
 0.740000   2.891246   -13.643013
 0.745000   2.823110   -13.610548
 0.750000   2.755140   -13.576527
 0.755000   2.687345   -13.540915
 0.760000   2.619731   -13.503100
 0.765000   2.552314   -13.461167
 0.770000   2.485119   -13.419214
 0.775000   2.418122   -13.380773
 0.780000   2.351312   -13.343334
 0.785000   2.284688   -13.305688
 0.790000   2.218255   -13.267559
 0.795000   2.152013   -13.225443
 0.800000   2.086000   -13.180526
 0.805000   2.020207   -13.135703
 0.810000   1.954643   -13.088873
 0.815000   1.889319   -13.039891
 0.820000   1.824244   -12.988571
 0.825000   1.759433   -12.934774
 0.830000   1.694897   -12.878306
 0.835000   1.630650   -12.816030
 0.840000   1.566736   -12.745798
 0.845000   1.503192   -12.668596
 0.850000   1.440050   -12.582214
 0.855000   1.377370   -12.483298
 0.860000   1.315217   -12.370325
 0.865000   1.253667   -12.242886
 0.870000   1.192789   -12.100435
 0.875000   1.132662   -11.943367
 0.880000   1.073355   -11.776900
 0.885000   1.014893   -11.606898
 0.890000   0.957286   -11.433852
 0.895000   0.900555   -11.257388
 0.900000   0.844712   -11.077196
 0.905000   0.789783   -10.891378
 0.910000   0.735798   -10.698089
 0.915000   0.682802   -10.492873
 0.920000   0.630870   -10.272668
 0.925000   0.580075   -10.046928
 0.930000   0.530400   -9.826067
 0.935000   0.481814   -9.605026
 0.940000   0.434350   -9.376316
 0.945000   0.388051   -9.146444
 0.950000   0.342886   -8.936612
 0.955000   0.298685   -8.762776
 0.960000   0.255258   -8.562496
 0.965000   0.213060   -8.196138
 0.970000   0.173296   -7.504303
 0.975000   0.138017   -6.565642
 0.980000   0.107640   -5.562348
 0.985000   0.082394   -4.608105
 0.990000   0.061559   -3.809257
 0.995000   0.044301   -3.485183
 1.000000   0.026707   -3.552424
201 psinorm ptot(KPa) dptot/dpsiN
 0.000000   106.378074   -40.379166
 0.005000   106.142248   -53.951040
 0.010000   105.838563   -66.083027
 0.015000   105.481418   -75.884458
 0.020000   105.079719   -84.139312
 0.025000   104.640025   -91.338382
 0.030000   104.166335   -97.738353
 0.035000   103.662641   -103.498529
 0.040000   103.131349   -108.886688
 0.045000   102.573774   -113.953321
 0.050000   101.991816   -118.639076
 0.055000   101.387383   -122.985428
 0.060000   100.761962   -127.239469
 0.065000   100.114989   -131.351976
 0.070000   99.448442   -135.298409
 0.075000   98.762005   -139.269989
 0.080000   98.055742   -143.043112
 0.085000   97.331574   -146.613096
 0.090000   96.589611   -150.115090
 0.095000   95.830423   -153.424363
 0.100000   95.055368   -156.551815
 0.105000   94.264904   -159.577451
 0.110000   93.459593   -162.488942
 0.115000   92.640015   -165.278290
 0.120000   91.806810   -167.930734
 0.125000   90.960708   -170.420991
 0.130000   90.102600   -172.740851
 0.135000   89.233299   -174.865860
 0.140000   88.353942   -176.774672
 0.145000   87.465552   -178.434090
 0.150000   86.569601   -179.898320
 0.155000   85.666569   -181.205562
 0.160000   84.757545   -182.261867
 0.165000   83.843951   -183.101162
 0.170000   82.926534   -183.797747
 0.175000   82.005973   -184.317376
 0.180000   81.083360   -184.613760
 0.185000   80.159836   -184.769572
 0.190000   79.235664   -184.837783
 0.195000   78.311458   -184.777858
 0.200000   77.387886   -184.606202
 0.205000   76.465396   -184.353135
 0.210000   75.544354   -184.040232
 0.215000   74.624993   -183.648656
 0.220000   73.707868   -183.154292
 0.225000   72.793450   -182.681615
 0.230000   71.881052   -182.213015
 0.235000   70.971320   -181.631698
 0.240000   70.064735   -180.955129
 0.245000   69.161769   -180.140133
 0.250000   68.263333   -179.062982
 0.255000   67.371139   -177.840544
 0.260000   66.484928   -176.516584
 0.265000   65.605973   -174.967024
 0.270000   64.735258   -173.221588
 0.275000   63.873757   -171.185248
 0.280000   63.023405   -168.958479
 0.285000   62.184173   -166.643521
 0.290000   61.356970   -164.174805
 0.295000   60.542425   -161.553829
 0.300000   59.741432   -158.725903
 0.305000   58.955166   -155.807610
 0.310000   58.183355   -152.920981
 0.315000   57.425956   -150.019593
 0.320000   56.683160   -147.134488
 0.325000   55.954611   -144.370214
 0.330000   55.239457   -141.744826
 0.335000   54.537163   -139.227207
 0.340000   53.847185   -136.790392
 0.345000   53.169259   -134.462078
 0.350000   52.502565   -132.291139
 0.355000   51.846347   -130.236960
 0.360000   51.200195   -128.232345
 0.365000   50.564024   -126.300746
 0.370000   49.937187   -124.453293
 0.375000   49.319491   -122.631939
 0.380000   48.710868   -120.750004
 0.385000   48.111991   -118.796270
 0.390000   47.522905   -116.815993
 0.395000   46.943831   -114.791856
 0.400000   46.374987   -112.720566
 0.405000   45.816625   -110.625435
 0.410000   45.268732   -108.544805
 0.415000   44.731177   -106.503094
 0.420000   44.203702   -104.513306
 0.425000   43.686044   -102.570059
 0.430000   43.178001   -100.692068
 0.435000   42.679124   -98.880668
 0.440000   42.189194   -97.135812
 0.445000   41.707765   -95.483339
 0.450000   41.234361   -93.914182
 0.455000   40.768624   -92.411698
 0.460000   40.310244   -90.992884
 0.465000   39.858695   -89.661861
 0.470000   39.413625   -88.396755
 0.475000   38.974727   -87.201528
 0.480000   38.541610   -86.074915
 0.485000   38.113978   -84.998404
 0.490000   37.691626   -83.948140
 0.495000   37.274497   -82.923569
 0.500000   36.862390   -81.930366
 0.505000   36.455193   -80.957598
 0.510000   36.052814   -80.009950
 0.515000   35.655093   -79.103280
 0.520000   35.261781   -78.240792
 0.525000   34.872686   -77.391486
 0.530000   34.487867   -76.574462
 0.535000   34.106941   -75.813938
 0.540000   33.729727   -75.084513
 0.545000   33.356096   -74.377400
 0.550000   32.985953   -73.707443
 0.555000   32.619021   -73.079649
 0.560000   32.255157   -72.472062
 0.565000   31.894301   -71.880602
 0.570000   31.536351   -71.319399
 0.575000   31.181107   -70.789631
 0.580000   30.828454   -70.260554
 0.585000   30.478501   -69.731445
 0.590000   30.131140   -69.213558
 0.595000   29.786366   -68.687314
 0.600000   29.444267   -68.125817
 0.605000   29.105107   -67.542096
 0.610000   28.768846   -66.951556
 0.615000   28.435592   -66.342199
 0.620000   28.105424   -65.695671
 0.625000   27.778635   -65.027873
 0.630000   27.455145   -64.359718
 0.635000   27.135038   -63.670859
 0.640000   26.818437   -62.951329
 0.645000   26.505525   -62.223976
 0.650000   26.196197   -61.503840
 0.655000   25.890486   -60.786103
 0.660000   25.588336   -60.072967
 0.665000   25.289757   -59.367460
 0.670000   24.994661   -58.686103
 0.675000   24.702896   -58.034539
 0.680000   24.414316   -57.408691
 0.685000   24.128809   -56.795207
 0.690000   23.846364   -56.184314
 0.695000   23.566966   -55.570861
 0.700000   23.290655   -54.947307
 0.705000   23.017493   -54.310662
 0.710000   22.747548   -53.661621
 0.715000   22.480876   -53.006543
 0.720000   22.217483   -52.351614
 0.725000   21.957360   -51.702213
 0.730000   21.700461   -51.069954
 0.735000   21.446661   -50.466904
 0.740000   21.195792   -49.896814
 0.745000   20.947692   -49.354618
 0.750000   20.702246   -48.830237
 0.755000   20.459390   -48.316035
 0.760000   20.219085   -47.816792
 0.765000   19.981222   -47.314340
 0.770000   19.745942   -46.796428
 0.775000   19.513258   -46.270760
 0.780000   19.283234   -45.727868
 0.785000   19.055979   -45.164290
 0.790000   18.831591   -44.583349
 0.795000   18.610146   -43.975772
 0.800000   18.391834   -43.345338
 0.805000   18.176692   -42.710556
 0.810000   17.964728   -42.082326
 0.815000   17.755869   -41.476175
 0.820000   17.549966   -40.910165
 0.825000   17.346767   -40.408020
 0.830000   17.145886   -39.985258
 0.835000   16.946915   -39.648142
 0.840000   16.749405   -39.403187
 0.845000   16.552883   -39.259443
 0.850000   16.356810   -39.243022
 0.855000   16.160453   -39.360930
 0.860000   15.963201   -39.612796
 0.865000   15.764325   -40.059006
 0.870000   15.562611   -40.766344
 0.875000   15.356661   -41.788950
 0.880000   15.144721   -43.258843
 0.885000   14.924073   -45.265590
 0.890000   14.692066   -47.765004
 0.895000   14.446423   -50.775532
 0.900000   14.184310   -54.229882
 0.905000   13.904124   -57.937349
 0.910000   13.604937   -61.786028
 0.915000   13.286264   -65.426951
 0.920000   12.950667   -68.369069
 0.925000   12.602573   -70.776487
 0.930000   12.242902   -73.880760
 0.935000   11.863766   -80.304480
 0.940000   11.439858   -94.092795
 0.945000   10.922838   -119.717860
 0.950000   10.242679   -159.407563
 0.955000   9.328762   -208.420297
 0.960000   8.158476   -253.353331
 0.965000   6.795229   -277.270441
 0.970000   5.385772   -269.572478
 0.975000   4.099504   -233.546101
 0.980000   3.050311   -183.200831
 0.985000   2.267496   -133.409064
 0.990000   1.716220   -92.925482
 0.995000   1.338241   -64.029431
 1.000000   1.075926   -40.896599
201 psinorm omeg(kRad/s) domeg/dpsiN
 0.000000   154.557299   -388.747436
 0.005000   152.594016   -396.565789
 0.010000   150.591641   -404.116010
 0.015000   148.552856   -411.008316
 0.020000   146.481558   -417.062824
 0.025000   144.382228   -422.160501
 0.030000   142.259953   -426.215419
 0.035000   140.120074   -429.237840
 0.040000   137.967575   -431.351765
 0.045000   135.806556   -432.909631
 0.050000   133.638478   -434.102796
 0.055000   131.465528   -434.803194
 0.060000   129.290446   -434.876627
 0.065000   127.116762   -434.142221
 0.070000   124.949024   -432.392411
 0.075000   122.792838   -429.489796
 0.080000   120.654126   -425.472123
 0.085000   118.538116   -420.449380
 0.090000   116.449632   -414.502582
 0.095000   114.393090   -407.719081
 0.100000   112.372442   -400.075605
 0.105000   110.392334   -391.435293
 0.110000   108.458089   -381.647041
 0.115000   106.575864   -370.614579
 0.120000   104.751943   -358.356232
 0.125000   102.992302   -345.083698
 0.130000   101.301106   -330.912836
 0.135000   99.683173   -316.331184
 0.140000   98.137794   -302.090660
 0.145000   96.662267   -288.311690
 0.150000   95.254677   -274.961441
 0.155000   93.912652   -262.201757
 0.160000   92.632660   -250.159839
 0.165000   91.411054   -238.946668
 0.170000   90.243193   -228.452590
 0.175000   89.126528   -218.306861
 0.180000   88.060124   -208.245552
 0.185000   87.044073   -198.039509
 0.190000   86.079729   -187.568298
 0.195000   85.168390   -176.842096
 0.200000   84.311308   -166.049887
 0.205000   83.507891   -155.443450
 0.210000   82.756874   -145.125954
 0.215000   82.056631   -135.255439
 0.220000   81.404319   -125.948313
 0.225000   80.797148   -117.177881
 0.230000   80.232541   -109.096239
 0.235000   79.706186   -101.773151
 0.240000   79.214809   -95.081439
 0.245000   78.755371   -89.063680
 0.250000   78.324172   -83.761373
 0.255000   77.917757   -79.128144
 0.260000   77.532891   -75.263561
 0.265000   77.165122   -72.174685
 0.270000   76.811144   -69.716522
 0.275000   76.467957   -67.826481
 0.280000   76.132879   -66.398940
 0.285000   75.803967   -65.295193
 0.290000   75.479927   -64.433710
 0.295000   75.159630   -63.790087
 0.300000   74.842026   -63.341281
 0.305000   74.526217   -63.064147
 0.310000   74.211385   -62.947829
 0.315000   73.896739   -62.962894
 0.320000   73.581756   -63.177643
 0.325000   73.264963   -63.702412
 0.330000   72.944732   -64.591093
 0.335000   72.619052   -65.923235
 0.340000   72.285499   -67.714387
 0.345000   71.941908   -70.053407
 0.350000   71.584965   -72.848612
 0.355000   71.213422   -75.889710
 0.360000   70.826068   -79.166282
 0.365000   70.421759   -82.615058
 0.370000   69.999918   -86.033337
 0.375000   69.561425   -89.329292
 0.380000   69.106625   -92.328400
 0.385000   68.638141   -94.814231
 0.390000   68.158483   -96.777054
 0.395000   67.670371   -98.122498
 0.400000   67.177258   -98.767548
 0.405000   66.682695   -98.626884
 0.410000   66.190989   -97.714741
 0.415000   65.705548   -96.213258
 0.420000   65.228856   -94.228766
 0.425000   64.763260   -91.779092
 0.430000   64.311065   -89.147681
 0.435000   63.871784   -86.531168
 0.440000   63.445754   -84.018826
 0.445000   63.031595   -81.819369
 0.450000   62.627560   -79.938796
 0.455000   62.232207   -78.377349
 0.460000   61.843786   -77.173574
 0.465000   61.460472   -76.255538
 0.470000   61.081231   -75.425382
 0.475000   60.706218   -74.469142
 0.480000   60.336540   -73.299745
 0.485000   59.973220   -71.929807
 0.490000   59.617241   -70.333754
 0.495000   59.269883   -68.512966
 0.500000   58.932112   -66.502510
 0.505000   58.604858   -64.353843
 0.510000   58.288573   -62.131014
 0.515000   57.983548   -59.841476
 0.520000   57.690159   -57.565214
 0.525000   57.407895   -55.427085
 0.530000   57.135888   -53.507907
 0.535000   56.872816   -51.886328
 0.540000   56.617024   -50.573568
 0.545000   56.367081   -49.563568
 0.550000   56.121389   -48.863462
 0.555000   55.878446   -48.444940
 0.560000   55.636939   -48.305983
 0.565000   55.395386   -48.366475
 0.570000   55.153275   -48.535903
 0.575000   54.910027   -48.821605
 0.580000   54.665059   -49.163681
 0.585000   54.418390   -49.498570
 0.590000   54.170073   -49.825677
 0.595000   53.920134   -50.132566
 0.600000   53.668747   -50.412722
 0.605000   53.416006   -50.645949
 0.610000   53.162288   -50.796319
 0.615000   52.908043   -50.892042
 0.620000   52.653367   -50.931579
 0.625000   52.398727   -50.989430
 0.630000   52.143473   -51.169362
 0.635000   51.887034   -51.472088
 0.640000   51.628752   -51.956126
 0.645000   51.367473   -52.693082
 0.650000   51.101821   -53.705170
 0.655000   50.830421   -54.982494
 0.660000   50.551996   -56.492204
 0.665000   50.265499   -58.208415
 0.670000   49.969912   -60.084603
 0.675000   49.664653   -61.940435
 0.680000   49.350508   -63.673159
 0.685000   49.027921   -65.257122
 0.690000   48.697937   -66.628549
 0.695000   48.361636   -67.774667
 0.700000   48.020190   -68.648383
 0.705000   47.675152   -69.214470
 0.710000   47.328045   -69.475014
 0.715000   46.980402   -69.452621
 0.720000   46.633519   -69.198562
 0.725000   46.288416   -68.742771
 0.730000   45.946091   -68.041113
 0.735000   45.608005   -67.248321
 0.740000   45.273608   -66.576243
 0.745000   44.942243   -66.209150
 0.750000   44.611517   -66.404794
 0.755000   44.278195   -67.296917
 0.760000   43.938547   -69.183622
 0.765000   43.586358   -71.962502
 0.770000   43.218922   -75.332212
 0.775000   42.833036   -79.268297
 0.780000   42.426240   -83.587842
 0.785000   41.997158   -88.225029
 0.790000   41.543989   -93.422486
 0.795000   41.062933   -98.878052
 0.800000   40.555209   -104.291402
 0.805000   40.020019   -109.844183
 0.810000   39.456767   -115.471589
 0.815000   38.865303   -121.121639
 0.820000   38.245550   -126.570659
 0.825000   37.599596   -131.595695
 0.830000   36.929594   -136.301420
 0.835000   36.236582   -140.909979
 0.840000   35.520494   -145.798950
 0.845000   34.778593   -151.339228
 0.850000   34.007101   -157.869576
 0.855000   33.199897   -166.295594
 0.860000   32.344146   -177.452566
 0.865000   31.425371   -191.811941
 0.870000   30.426026   -209.476615
 0.875000   29.330605   -230.300571
 0.880000   28.123020   -255.113101
 0.885000   26.779474   -283.175888
 0.890000   25.291261   -311.287080
 0.895000   23.666603   -337.491077
 0.900000   21.916351   -360.095034
 0.905000   20.065653   -377.033405
 0.910000   18.146017   -386.980450
 0.915000   16.195849   -387.945125
 0.920000   14.266565   -378.831333
 0.925000   12.407535   -360.417679
 0.930000   10.662389   -334.098408
 0.935000   9.066551   -301.536480
 0.940000   7.647024   -264.215732
 0.945000   6.424394   -224.002565
 0.950000   5.406998   -183.884669
 0.955000   4.585547   -145.692488
 0.960000   3.950073   -110.025488
 0.965000   3.485292   -77.619589
 0.970000   3.173877   -48.733376
 0.975000   2.997958   -23.447528
 0.980000   2.939402   -1.682853
 0.985000   2.981130   16.814464
 0.990000   3.107547   32.218977
 0.995000   3.303320   44.578334
 1.000000   3.553330   55.425826
201 psinorm omegp(kRad/s) domegp/dpsiN
 0.000000   0.000173   282.431604
 0.005000   1.146688   176.174159
 0.010000   1.761915   119.489635
 0.015000   2.341584   115.889828
 0.020000   2.920813   115.998218
 0.025000   3.501566   115.297851
 0.030000   4.073792   112.289321
 0.035000   4.624460   107.946044
 0.040000   5.153252   102.753919
 0.045000   5.651999   96.266791
 0.050000   6.115920   89.283835
 0.055000   6.544837   82.388479
 0.060000   6.939805   75.995301
 0.065000   7.304790   70.923485
 0.070000   7.649040   67.369259
 0.075000   7.978483   64.725540
 0.080000   8.296295   62.402176
 0.085000   8.602505   60.141159
 0.090000   8.897707   58.078959
 0.095000   9.183294   55.973523
 0.100000   9.457442   53.892066
 0.105000   9.722215   51.893944
 0.110000   9.976382   49.917458
 0.115000   10.221389   47.895730
 0.120000   10.455339   45.832525
 0.125000   10.679715   43.866918
 0.130000   10.894008   41.905869
 0.135000   11.098773   39.813611
 0.140000   11.292144   37.753224
 0.145000   11.476306   35.645703
 0.150000   11.648601   33.368432
 0.155000   11.809990   30.840046
 0.160000   11.957002   28.137014
 0.165000   12.091360   25.321459
 0.170000   12.210216   22.222727
 0.175000   12.313587   19.005075
 0.180000   12.400267   15.569396
 0.185000   12.469281   12.154611
 0.190000   12.521813   8.646877
 0.195000   12.555750   5.161826
 0.200000   12.573431   1.882769
 0.205000   12.574578   -1.408462
 0.210000   12.559347   -4.335718
 0.215000   12.531221   -6.975804
 0.220000   12.489589   -9.451000
 0.225000   12.436711   -11.650099
 0.230000   12.373088   -13.807794
 0.235000   12.298633   -15.706657
 0.240000   12.216021   -17.557594
 0.245000   12.123057   -19.591997
 0.250000   12.020101   -21.420490
 0.255000   11.908852   -23.289815
 0.260000   11.787203   -25.246799
 0.265000   11.656384   -27.006491
 0.270000   11.517138   -28.826088
 0.275000   11.368123   -30.641418
 0.280000   11.210724   -32.329122
 0.285000   11.044832   -34.132631
 0.290000   10.869398   -35.904774
 0.295000   10.685784   -37.602499
 0.300000   10.493373   -39.456066
 0.305000   10.291223   -41.251305
 0.310000   10.080860   -42.938434
 0.315000   9.861839   -44.743807
 0.320000   9.633421   -46.476646
 0.325000   9.397072   -48.044611
 0.330000   9.152975   -49.664580
 0.335000   8.900427   -51.219744
 0.340000   8.640778   -52.529846
 0.345000   8.375128   -53.841632
 0.350000   8.102362   -55.226263
 0.355000   7.822866   -56.475978
 0.360000   7.537602   -57.812606
 0.365000   7.244740   -59.360994
 0.370000   6.943992   -60.824325
 0.375000   6.636496   -62.344200
 0.380000   6.320550   -64.112396
 0.385000   5.995372   -65.845978
 0.390000   5.662090   -67.503817
 0.395000   5.320334   -69.246934
 0.400000   4.969621   -70.960743
 0.405000   4.610727   -72.451928
 0.410000   4.245101   -73.730275
 0.415000   3.873424   -74.705967
 0.420000   3.498042   -75.167521
 0.425000   3.121749   -75.161518
 0.430000   2.746427   -74.738116
 0.435000   2.374368   -73.850573
 0.440000   2.007921   -72.456841
 0.445000   1.649799   -70.781576
 0.450000   1.300105   -69.000254
 0.455000   0.959797   -66.976537
 0.460000   0.630340   -64.885615
 0.465000   0.310940   -62.912883
 0.470000   0.001211   -61.073368
 0.475000   -0.299793   -59.581336
 0.480000   -0.594602   -58.620256
 0.485000   -0.885996   -58.435422
 0.490000   -1.178957   -59.322753
 0.495000   -1.479223   -61.370415
 0.500000   -1.792661   -64.452429
 0.505000   -2.123748   -68.108841
 0.510000   -2.473749   -72.099407
 0.515000   -2.844742   -76.582342
 0.520000   -3.239573   -80.886457
 0.525000   -3.653606   -84.635759
 0.530000   -4.085930   -87.716131
 0.535000   -4.530768   -89.480092
 0.540000   -4.980731   -89.887313
 0.545000   -5.429641   -89.062120
 0.550000   -5.871352   -86.705157
 0.555000   -6.296692   -82.692265
 0.560000   -6.698275   -77.346090
 0.565000   -7.070153   -71.165281
 0.570000   -7.409928   -64.303361
 0.575000   -7.713187   -56.809361
 0.580000   -7.978021   -49.344511
 0.585000   -8.206632   -42.233919
 0.590000   -8.400361   -35.595307
 0.595000   -8.562585   -29.655685
 0.600000   -8.696917   -24.445275
 0.605000   -8.807038   -20.035141
 0.610000   -8.897269   -16.411211
 0.615000   -8.971150   -13.446836
 0.620000   -9.031737   -11.183719
 0.625000   -9.082987   -9.438631
 0.630000   -9.126124   -7.867170
 0.635000   -9.161659   -6.390120
 0.640000   -9.190025   -5.086103
 0.645000   -9.212520   -3.843102
 0.650000   -9.228456   -2.532808
 0.655000   -9.237848   -1.245891
 0.660000   -9.240915   -0.120495
 0.665000   -9.239053   0.958459
 0.670000   -9.231330   2.105261
 0.675000   -9.218000   3.188873
 0.680000   -9.199441   4.136854
 0.685000   -9.176632   5.047183
 0.690000   -9.148969   5.992288
 0.695000   -9.116709   6.860682
 0.700000   -9.080363   7.611211
 0.705000   -9.040597   8.329630
 0.710000   -8.997066   9.053652
 0.715000   -8.950060   9.690512
 0.720000   -8.900161   10.222888
 0.725000   -8.847831   10.725009
 0.730000   -8.792911   11.211641
 0.735000   -8.735715   11.613796
 0.740000   -8.676773   11.956773
 0.745000   -8.616147   12.352149
 0.750000   -8.553252   12.899374
 0.755000   -8.487153   13.565936
 0.760000   -8.417592   14.342858
 0.765000   -8.343725   15.239625
 0.770000   -8.265196   16.154645
 0.775000   -8.182178   17.009277
 0.780000   -8.095103   17.743948
 0.785000   -8.004739   18.170175
 0.790000   -7.913402   18.140684
 0.795000   -7.823332   17.549369
 0.800000   -7.737908   16.313267
 0.805000   -7.660199   14.456946
 0.810000   -7.593338   11.948814
 0.815000   -7.540711   8.799005
 0.820000   -7.505348   5.137171
 0.825000   -7.489339   1.130123
 0.830000   -7.494047   -3.069562
 0.835000   -7.520035   -7.272375
 0.840000   -7.566771   -11.291493
 0.845000   -7.632950   -15.014933
 0.850000   -7.716920   -18.361339
 0.855000   -7.816563   -21.302226
 0.860000   -7.929942   -23.883820
 0.865000   -8.055402   -26.128563
 0.870000   -8.191228   -28.325990
 0.875000   -8.338662   -30.796253
 0.880000   -8.499191   -33.753842
 0.885000   -8.676200   -37.461392
 0.890000   -8.873805   -42.085643
 0.895000   -9.097056   -48.153087
 0.900000   -9.355335   -55.785055
 0.905000   -9.654907   -65.398432
 0.910000   -10.009320   -78.043181
 0.915000   -10.435339   -93.947071
 0.920000   -10.948790   -113.352836
 0.925000   -11.568867   -138.028044
 0.930000   -12.329071   -163.878422
 0.935000   -13.207651   -181.721155
 0.940000   -14.146282   -188.429141
 0.945000   -15.091943   -177.292237
 0.950000   -15.919205   -136.850864
 0.955000   -16.460451   -55.206793
 0.960000   -16.471273   63.848995
 0.965000   -15.821961   204.446618
 0.970000   -14.426807   351.488673
 0.975000   -12.307075   481.850781
 0.980000   -9.608299   580.961779
 0.985000   -6.497457   641.516537
 0.990000   -3.193133   660.400428
 0.995000   0.106547   647.780677
 1.000000   3.284673   623.469709
201 psinorm omgvb(kRad/s) domgvb/dpsiN
 0.000000   154.557473   -106.315831
 0.005000   153.740704   -220.391630
 0.010000   152.353556   -284.626376
 0.015000   150.894440   -295.118489
 0.020000   149.402371   -301.064606
 0.025000   147.883794   -306.862649
 0.030000   146.333745   -313.926098
 0.035000   144.744533   -321.291796
 0.040000   143.120827   -328.597847
 0.045000   141.458555   -336.642840
 0.050000   139.754399   -344.818961
 0.055000   138.010365   -352.414716
 0.060000   136.230251   -358.881326
 0.065000   134.421552   -363.218736
 0.070000   132.598064   -365.023152
 0.075000   130.771320   -364.764256
 0.080000   128.950421   -363.069947
 0.085000   127.140621   -360.308221
 0.090000   125.347339   -356.423623
 0.095000   123.576385   -351.745558
 0.100000   121.829884   -346.183539
 0.105000   120.114549   -339.541349
 0.110000   118.434470   -331.729583
 0.115000   116.797253   -322.718848
 0.120000   115.207282   -312.523707
 0.125000   113.672016   -301.216780
 0.130000   112.195114   -289.006968
 0.135000   110.781947   -276.517572
 0.140000   109.429938   -264.337436
 0.145000   108.138572   -252.665987
 0.150000   106.903278   -241.593009
 0.155000   105.722642   -231.361711
 0.160000   104.589661   -222.022824
 0.165000   103.502414   -213.625210
 0.170000   102.453409   -206.229863
 0.175000   101.440115   -199.301786
 0.180000   100.460391   -192.676155
 0.185000   99.513354   -185.884898
 0.190000   98.601542   -178.921421
 0.195000   97.724140   -171.680270
 0.200000   96.884740   -164.167118
 0.205000   96.082468   -156.851912
 0.210000   95.316220   -149.461671
 0.215000   94.587852   -142.231243
 0.220000   93.893908   -135.399313
 0.225000   93.233859   -128.827980
 0.230000   92.605628   -122.904033
 0.235000   92.004818   -117.479807
 0.240000   91.430830   -112.639033
 0.245000   90.878428   -108.655677
 0.250000   90.344273   -105.181863
 0.255000   89.826609   -102.417959
 0.260000   89.320094   -100.510360
 0.265000   88.821506   -99.181176
 0.270000   88.328282   -98.542610
 0.275000   87.836080   -98.467898
 0.280000   87.343603   -98.728062
 0.285000   86.848799   -99.427824
 0.290000   86.349325   -100.338484
 0.295000   85.845414   -101.392586
 0.300000   85.335399   -102.797347
 0.305000   84.817441   -104.315452
 0.310000   84.292244   -105.886263
 0.315000   83.758578   -107.706701
 0.320000   83.215177   -109.654288
 0.325000   82.662035   -111.747023
 0.330000   82.097707   -114.255674
 0.335000   81.519478   -117.142979
 0.340000   80.926277   -120.244233
 0.345000   80.317036   -123.895038
 0.350000   79.687327   -128.074875
 0.355000   79.036287   -132.365687
 0.360000   78.363670   -136.978889
 0.365000   77.666498   -141.976052
 0.370000   76.943910   -146.857663
 0.375000   76.197922   -151.673492
 0.380000   75.427175   -156.440796
 0.385000   74.633514   -160.660209
 0.390000   73.820573   -164.280872
 0.395000   72.990705   -167.369432
 0.400000   72.146878   -169.728291
 0.405000   71.293422   -171.078812
 0.410000   70.436090   -171.445016
 0.415000   69.578972   -170.919225
 0.420000   68.726898   -169.396287
 0.425000   67.885009   -166.940610
 0.430000   67.057492   -163.885797
 0.435000   66.246151   -160.381741
 0.440000   65.453674   -156.475667
 0.445000   64.681394   -152.600946
 0.450000   63.927665   -148.939050
 0.455000   63.192004   -145.353886
 0.460000   62.474126   -142.059189
 0.465000   61.771412   -139.168421
 0.470000   61.082442   -136.498750
 0.475000   60.406425   -134.050478
 0.480000   59.741937   -131.920001
 0.485000   59.087225   -130.365228
 0.490000   58.438285   -129.656506
 0.495000   57.790660   -129.883381
 0.500000   57.139451   -130.954939
 0.505000   56.481110   -132.462685
 0.510000   55.814824   -134.230421
 0.515000   55.138806   -136.423818
 0.520000   54.450586   -138.451670
 0.525000   53.754289   -140.062843
 0.530000   53.049958   -141.224038
 0.535000   52.342049   -141.366420
 0.540000   51.636293   -140.460882
 0.545000   50.937440   -138.625688
 0.550000   50.250036   -135.568619
 0.555000   49.581754   -131.137205
 0.560000   48.938664   -125.652073
 0.565000   48.325233   -119.531755
 0.570000   47.743347   -112.839264
 0.575000   47.196840   -105.630966
 0.580000   46.687037   -98.508192
 0.585000   46.211759   -91.732488
 0.590000   45.769712   -85.420985
 0.595000   45.357549   -79.788252
 0.600000   44.971830   -74.857997
 0.605000   44.608969   -70.681089
 0.610000   44.265019   -67.207529
 0.615000   43.936893   -64.338878
 0.620000   43.621630   -62.115298
 0.625000   43.315740   -60.428061
 0.630000   43.017350   -59.036532
 0.635000   42.725375   -57.862208
 0.640000   42.438727   -57.042230
 0.645000   42.154953   -56.536184
 0.650000   41.873366   -56.237978
 0.655000   41.592573   -56.228385
 0.660000   41.311082   -56.612699
 0.665000   41.026446   -57.249956
 0.670000   40.738582   -57.979342
 0.675000   40.446653   -58.751562
 0.680000   40.151067   -59.536306
 0.685000   39.851290   -60.209939
 0.690000   39.548967   -60.636261
 0.695000   39.244927   -60.913985
 0.700000   38.939827   -61.037172
 0.705000   38.634555   -60.884840
 0.710000   38.330979   -60.421362
 0.715000   38.030342   -59.762109
 0.720000   37.733358   -58.975674
 0.725000   37.440585   -58.017762
 0.730000   37.153180   -56.829473
 0.735000   36.872290   -55.634525
 0.740000   36.596835   -54.619470
 0.745000   36.326095   -53.857001
 0.750000   36.058265   -53.505421
 0.755000   35.791041   -53.730981
 0.760000   35.520955   -54.840764
 0.765000   35.242634   -56.722878
 0.770000   34.953726   -59.177567
 0.775000   34.650858   -62.259020
 0.780000   34.331136   -65.843894
 0.785000   33.992419   -70.054854
 0.790000   33.630588   -75.281802
 0.795000   33.239601   -81.328683
 0.800000   32.817301   -87.978135
 0.805000   32.359820   -95.387237
 0.810000   31.863428   -103.522776
 0.815000   31.324592   -112.322634
 0.820000   30.740202   -121.433488
 0.825000   30.110257   -130.465572
 0.830000   29.435546   -139.370982
 0.835000   28.716547   -148.182354
 0.840000   27.953723   -157.090442
 0.845000   27.145643   -166.354161
 0.850000   26.290181   -176.230915
 0.855000   25.383334   -187.597820
 0.860000   24.414203   -201.336385
 0.865000   23.369970   -217.940504
 0.870000   22.234798   -237.802605
 0.875000   20.991944   -261.096824
 0.880000   19.623830   -288.866943
 0.885000   18.103274   -320.637280
 0.890000   16.417457   -353.372723
 0.895000   14.569547   -385.644164
 0.900000   12.561015   -415.880090
 0.905000   10.410746   -442.431838
 0.910000   8.136697   -465.023630
 0.915000   5.760510   -481.892197
 0.920000   3.317775   -492.184169
 0.925000   0.838668   -498.445723
 0.930000   -1.666682   -497.976830
 0.935000   -4.141100   -483.257635
 0.940000   -6.499259   -452.644873
 0.945000   -8.667549   -401.294802
 0.950000   -10.512207   -320.735534
 0.955000   -11.874904   -200.899281
 0.960000   -12.521199   -46.176493
 0.965000   -12.336669   126.827029
 0.970000   -11.252929   302.755297
 0.975000   -9.309116   458.403252
 0.980000   -6.668897   579.278926
 0.985000   -3.516327   658.331001
 0.990000   -0.085587   692.619405
 0.995000   3.409867   692.359011
 1.000000   6.838003   678.895535
201 psinorm omgpp(kRad/s) domgpp/dpsiN
 0.000000   -0.097278   -48.438189
 0.005000   -0.390730   -68.942654
 0.010000   -0.786705   -79.681188
 0.015000   -1.187542   -80.555727
 0.020000   -1.592262   -81.245029
 0.025000   -1.999992   -81.777488
 0.030000   -2.410037   -82.164439
 0.035000   -2.821637   -82.404260
 0.040000   -3.234079   -82.499978
 0.045000   -3.646636   -82.439867
 0.050000   -4.058478   -82.226798
 0.055000   -4.468904   -81.861699
 0.060000   -4.877095   -81.282564
 0.065000   -5.281730   -80.544620
 0.070000   -5.682541   -79.705653
 0.075000   -6.078787   -78.677099
 0.080000   -6.469312   -77.429188
 0.085000   -6.853078   -75.930354
 0.090000   -7.228616   -73.921498
 0.095000   -7.592293   -71.449773
 0.100000   -7.943113   -68.659858
 0.105000   -8.278892   -65.440512
 0.110000   -8.597518   -61.855893
 0.115000   -8.897451   -58.006632
 0.120000   -9.177585   -54.360147
 0.125000   -9.441052   -50.790752
 0.130000   -9.685492   -46.884603
 0.135000   -9.909898   -42.839415
 0.140000   -10.113886   -38.734243
 0.145000   -10.297241   -34.327570
 0.150000   -10.457162   -30.079786
 0.155000   -10.598039   -25.959879
 0.160000   -10.716761   -21.477457
 0.165000   -10.812813   -16.976636
 0.170000   -10.886527   -12.602310
 0.175000   -10.938836   -8.022061
 0.180000   -10.966748   -3.939471
 0.185000   -10.978231   -0.476855
 0.190000   -10.971516   3.004772
 0.195000   -10.948183   6.026345
 0.200000   -10.911253   8.432666
 0.205000   -10.863857   10.046917
 0.210000   -10.810784   11.311747
 0.215000   -10.750739   12.818606
 0.220000   -10.682598   14.332521
 0.225000   -10.607414   15.659739
 0.230000   -10.526000   17.230996
 0.235000   -10.435104   18.391029
 0.240000   -10.342090   20.418040
 0.245000   -10.230924   24.260801
 0.250000   -10.099482   28.192105
 0.255000   -9.949003   32.101754
 0.260000   -9.778465   36.433532
 0.265000   -9.584667   40.915576
 0.270000   -9.369309   45.463120
 0.275000   -9.130036   49.787365
 0.280000   -8.871435   53.471572
 0.285000   -8.595320   57.129847
 0.290000   -8.300137   60.529705
 0.295000   -7.990023   64.327502
 0.300000   -7.656862   67.948476
 0.305000   -7.310539   68.911574
 0.310000   -6.967746   68.209448
 0.315000   -6.628444   67.555408
 0.320000   -6.292192   65.719237
 0.325000   -5.971252   63.241225
 0.330000   -5.659780   60.774049
 0.335000   -5.363511   57.475357
 0.340000   -5.085026   54.351656
 0.345000   -4.819995   51.616724
 0.350000   -4.568859   48.820387
 0.355000   -4.331791   46.075365
 0.360000   -4.108105   43.315502
 0.365000   -3.898636   41.438774
 0.370000   -3.693717   40.707249
 0.375000   -3.491563   40.349854
 0.380000   -3.290219   40.948726
 0.385000   -3.082076   42.108470
 0.390000   -2.869134   43.011323
 0.395000   -2.651963   43.472687
 0.400000   -2.434407   43.164092
 0.405000   -2.220322   42.381636
 0.410000   -2.010591   41.112588
 0.415000   -1.809196   39.239338
 0.420000   -1.618198   37.368757
 0.425000   -1.435508   34.893223
 0.430000   -1.269265   31.886889
 0.435000   -1.116640   29.268839
 0.440000   -0.976577   26.519276
 0.445000   -0.851447   23.468944
 0.450000   -0.741888   20.675411
 0.455000   -0.644693   17.750566
 0.460000   -0.564382   14.713651
 0.465000   -0.497556   12.096263
 0.470000   -0.443419   9.525940
 0.475000   -0.402297   6.997617
 0.480000   -0.373443   4.706646
 0.485000   -0.355230   2.747015
 0.490000   -0.345973   1.050272
 0.495000   -0.344728   -0.515068
 0.500000   -0.351124   -2.053325
 0.505000   -0.365261   -3.674585
 0.510000   -0.387869   -5.440527
 0.515000   -0.419666   -7.229260
 0.520000   -0.460162   -8.909217
 0.525000   -0.508758   -10.524030
 0.530000   -0.565402   -12.148443
 0.535000   -0.630243   -13.601016
 0.540000   -0.701413   -14.992951
 0.545000   -0.780172   -16.317661
 0.550000   -0.864589   -17.403483
 0.555000   -0.954207   -18.460900
 0.560000   -1.049198   -19.564611
 0.565000   -1.149853   -20.356152
 0.570000   -1.252760   -20.936286
 0.575000   -1.359216   -21.412324
 0.580000   -1.466883   -21.505700
 0.585000   -1.574273   -21.338001
 0.590000   -1.680263   -20.818408
 0.595000   -1.782457   -19.833358
 0.600000   -1.878596   -18.544492
 0.605000   -1.967902   -17.137755
 0.610000   -2.049974   -15.771086
 0.615000   -2.125613   -14.400945
 0.620000   -2.193983   -12.632340
 0.625000   -2.251936   -11.045332
 0.630000   -2.304437   -9.684263
 0.635000   -2.348779   -8.110134
 0.640000   -2.385538   -6.790379
 0.645000   -2.416683   -5.585909
 0.650000   -2.441397   -4.197048
 0.655000   -2.458653   -3.287646
 0.660000   -2.474274   -2.866768
 0.665000   -2.487321   -2.433957
 0.670000   -2.498613   -2.026448
 0.675000   -2.507585   -1.449046
 0.680000   -2.513104   -0.810274
 0.685000   -2.515688   0.413653
 0.690000   -2.508967   2.573034
 0.695000   -2.489958   5.114763
 0.700000   -2.457820   7.903777
 0.705000   -2.410920   10.798972
 0.710000   -2.349830   13.681653
 0.715000   -2.274103   16.566343
 0.720000   -2.184166   19.070971
 0.725000   -2.083394   20.867914
 0.730000   -1.975487   21.955041
 0.735000   -1.863843   22.552755
 0.740000   -1.749960   22.674989
 0.745000   -1.637093   22.369165
 0.750000   -1.526268   22.141047
 0.755000   -1.415683   21.667968
 0.760000   -1.309588   21.142728
 0.765000   -1.204256   20.757211
 0.770000   -1.102016   19.740454
 0.775000   -1.006851   18.524175
 0.780000   -0.916775   18.129027
 0.785000   -0.825561   17.728380
 0.790000   -0.739491   17.077251
 0.795000   -0.654788   16.547804
 0.800000   -0.574013   15.507384
 0.805000   -0.499715   14.329870
 0.810000   -0.430714   13.553769
 0.815000   -0.364177   12.498084
 0.820000   -0.305733   10.884684
 0.825000   -0.255330   9.118387
 0.830000   -0.214549   7.042495
 0.835000   -0.184905   4.507247
 0.840000   -0.169477   1.193432
 0.845000   -0.172971   -2.923537
 0.850000   -0.198712   -7.679921
 0.855000   -0.249770   -12.897246
 0.860000   -0.327685   -18.265928
 0.865000   -0.432429   -22.267105
 0.870000   -0.550356   -24.581152
 0.875000   -0.678241   -27.269759
 0.880000   -0.823053   -31.773215
 0.885000   -0.995973   -39.543236
 0.890000   -1.218486   -52.591342
 0.895000   -1.521886   -71.347771
 0.900000   -1.931963   -111.713692
 0.905000   -2.639023   -183.172550
 0.910000   -3.763689   -287.746283
 0.915000   -5.516486   -437.414283
 0.920000   -8.137832   -637.049362
 0.925000   -11.886980   -907.983276
 0.930000   -17.217664   -1202.349177
 0.935000   -23.910471   -1463.169057
 0.940000   -31.849355   -1663.250500
 0.945000   -40.542976   -1730.254096
 0.950000   -49.151896   -1608.151044
 0.955000   -56.624487   -1286.726669
 0.960000   -62.019163   -719.222013
 0.965000   -63.816707   0.129656
 0.970000   -62.017866   682.887445
 0.975000   -56.987833   1250.661258
 0.980000   -49.511254   1623.658670
 0.985000   -40.751246   1780.704751
 0.990000   -31.704206   1720.150330
 0.995000   -23.549743   1495.420117
 1.000000   -16.750005   1224.474979
201 psinorm omgeb(kRad/s) domgeb/dpsiN
 0.000000   154.460195   -154.754020
 0.005000   153.349974   -289.334284
 0.010000   151.566852   -364.307563
 0.015000   149.706898   -375.674215
 0.020000   147.810110   -382.309635
 0.025000   145.883802   -388.640137
 0.030000   143.923708   -396.090537
 0.035000   141.922897   -403.696056
 0.040000   139.886748   -411.097825
 0.045000   137.811918   -419.082707
 0.050000   135.695921   -427.045759
 0.055000   133.541461   -434.276414
 0.060000   131.353156   -440.163890
 0.065000   129.139822   -443.763356
 0.070000   126.915523   -444.728805
 0.075000   124.692534   -443.441354
 0.080000   122.481109   -440.499135
 0.085000   120.287542   -436.238575
 0.090000   118.118724   -430.345121
 0.095000   115.984091   -423.195331
 0.100000   113.886770   -414.843397
 0.105000   111.835657   -404.981860
 0.110000   109.836952   -393.585476
 0.115000   107.899802   -380.725481
 0.120000   106.029697   -366.883854
 0.125000   104.230964   -352.007532
 0.130000   102.509622   -335.891570
 0.135000   100.872048   -319.356987
 0.140000   99.316052   -303.071679
 0.145000   97.841331   -286.993557
 0.150000   96.446116   -271.672795
 0.155000   95.124603   -257.321590
 0.160000   93.872900   -243.500281
 0.165000   92.689601   -230.601846
 0.170000   91.566882   -218.832173
 0.175000   90.501279   -207.323847
 0.180000   89.493643   -196.615626
 0.185000   88.535123   -186.361753
 0.190000   87.630026   -175.916649
 0.195000   86.775956   -165.653925
 0.200000   85.973487   -155.734452
 0.205000   85.218612   -146.804996
 0.210000   84.505437   -138.149925
 0.215000   83.837112   -129.412637
 0.220000   83.211310   -121.066793
 0.225000   82.626444   -113.168241
 0.230000   82.079628   -105.673037
 0.235000   81.569714   -99.088778
 0.240000   81.088740   -92.220993
 0.245000   80.647504   -84.394876
 0.250000   80.244791   -76.989758
 0.255000   79.877607   -70.316205
 0.260000   79.541629   -64.076828
 0.265000   79.236838   -58.265600
 0.270000   78.958973   -53.079489
 0.275000   78.706043   -48.680534
 0.280000   78.472168   -45.256490
 0.285000   78.253479   -42.297978
 0.290000   78.049188   -39.808778
 0.295000   77.855391   -37.065084
 0.300000   77.678537   -34.848871
 0.305000   77.506902   -35.403878
 0.310000   77.324498   -37.676815
 0.315000   77.130134   -40.151293
 0.320000   76.922986   -43.935052
 0.325000   76.690783   -48.505798
 0.330000   76.437928   -53.481625
 0.335000   76.155967   -59.667622
 0.340000   75.841251   -65.892577
 0.345000   75.497041   -72.278314
 0.350000   75.118468   -79.254488
 0.355000   74.704496   -86.290322
 0.360000   74.255565   -93.663387
 0.365000   73.767863   -100.537279
 0.370000   73.250192   -106.150413
 0.375000   72.706358   -111.323638
 0.380000   72.136956   -115.492070
 0.385000   71.551438   -118.551739
 0.390000   70.951438   -121.269548
 0.395000   70.338742   -123.896745
 0.400000   69.712471   -126.564199
 0.405000   69.073100   -128.697176
 0.410000   68.425499   -130.332428
 0.415000   67.769776   -131.679887
 0.420000   67.108700   -132.027530
 0.425000   66.449501   -132.047386
 0.430000   65.788226   -131.998907
 0.435000   65.129512   -131.112902
 0.440000   64.477097   -129.956392
 0.445000   63.829948   -129.132001
 0.450000   63.185777   -128.263639
 0.455000   62.547311   -127.603320
 0.460000   61.909744   -127.345538
 0.465000   61.273856   -127.072158
 0.470000   60.639023   -126.972811
 0.475000   60.004128   -127.052862
 0.480000   59.368494   -127.213355
 0.485000   58.731994   -127.618214
 0.490000   58.092312   -128.606234
 0.495000   57.445932   -130.398449
 0.500000   56.788327   -133.008264
 0.505000   56.115849   -136.137270
 0.510000   55.426955   -139.670948
 0.515000   54.719140   -143.653078
 0.520000   53.990424   -147.360888
 0.525000   53.245531   -150.586873
 0.530000   52.484555   -153.372481
 0.535000   51.711806   -154.967436
 0.540000   50.934881   -155.453833
 0.545000   50.157268   -154.943350
 0.550000   49.385447   -152.972102
 0.555000   48.627547   -149.598105
 0.560000   47.889466   -145.216685
 0.565000   47.175380   -139.887907
 0.570000   46.490587   -133.775550
 0.575000   45.837624   -127.043290
 0.580000   45.220154   -120.013892
 0.585000   44.637485   -113.070489
 0.590000   44.089449   -106.239393
 0.595000   43.575092   -99.621609
 0.600000   43.093233   -93.402490
 0.605000   42.641067   -87.818844
 0.610000   42.215045   -82.978616
 0.615000   41.811281   -78.739823
 0.620000   41.427647   -74.747638
 0.625000   41.063804   -71.473393
 0.630000   40.712913   -68.720795
 0.635000   40.376596   -65.972342
 0.640000   40.053189   -63.832608
 0.645000   39.738270   -62.122093
 0.650000   39.431968   -60.435026
 0.655000   39.133920   -59.516031
 0.660000   38.836808   -59.479468
 0.665000   38.539125   -59.683913
 0.670000   38.239969   -60.005790
 0.675000   37.939067   -60.200608
 0.680000   37.637963   -60.346580
 0.685000   37.335601   -59.796287
 0.690000   37.040000   -58.063227
 0.695000   36.754969   -55.799223
 0.700000   36.482008   -53.133396
 0.705000   36.223635   -50.085868
 0.710000   35.981149   -46.739709
 0.715000   35.756238   -43.195766
 0.720000   35.549191   -39.904703
 0.725000   35.357191   -37.149848
 0.730000   35.177693   -34.874432
 0.735000   35.008447   -33.081770
 0.740000   34.846875   -31.944480
 0.745000   34.689002   -31.487836
 0.750000   34.531997   -31.364374
 0.755000   34.375358   -32.063013
 0.760000   34.211367   -33.698036
 0.765000   34.038378   -35.965667
 0.770000   33.851710   -39.437113
 0.775000   33.644007   -43.734846
 0.780000   33.414362   -47.714867
 0.785000   33.166858   -52.326474
 0.790000   32.891097   -58.204551
 0.795000   32.584813   -64.780880
 0.800000   32.243288   -72.470751
 0.805000   31.860105   -81.057367
 0.810000   31.432714   -89.969007
 0.815000   30.960415   -99.824551
 0.820000   30.434469   -110.548804
 0.825000   29.854927   -121.347185
 0.830000   29.220997   -132.328487
 0.835000   28.531642   -143.675107
 0.840000   27.784246   -155.897010
 0.845000   26.972672   -169.277697
 0.850000   26.091469   -183.910835
 0.855000   25.133564   -200.495066
 0.860000   24.086518   -219.602313
 0.865000   22.937541   -240.207609
 0.870000   21.684442   -262.383757
 0.875000   20.313703   -288.366583
 0.880000   18.800776   -320.640158
 0.885000   17.107301   -360.180517
 0.890000   15.198971   -405.964065
 0.895000   13.047661   -456.991935
 0.900000   10.629052   -527.593782
 0.905000   7.771723   -625.604388
 0.910000   4.373008   -752.769914
 0.915000   0.244024   -919.306479
 0.920000   -4.820057   -1129.233531
 0.925000   -11.048312   -1406.428999
 0.930000   -18.884347   -1700.326007
 0.935000   -28.051572   -1946.426691
 0.940000   -38.348614   -2115.895374
 0.945000   -49.210525   -2131.548898
 0.950000   -59.664103   -1928.886578
 0.955000   -68.499391   -1487.625950
 0.960000   -74.540362   -765.398506
 0.965000   -76.153376   126.956686
 0.970000   -73.270795   985.642742
 0.975000   -66.296949   1709.064510
 0.980000   -56.180150   2202.937596
 0.985000   -44.267573   2439.035752
 0.990000   -31.789793   2412.769736
 0.995000   -20.139875   2187.779128
 1.000000   -9.912001   1903.370514
201 psinorm er(kV/m) der/dpsiN
 0.000000   1.546807   2925.651086
 0.005000   13.084600   1689.466344
 0.010000   18.441470   931.508495
 0.015000   22.399685   714.741266
 0.020000   25.588883   589.281817
 0.025000   28.292504   502.539380
 0.030000   30.614277   433.625881
 0.035000   32.628762   377.732170
 0.040000   34.391598   331.468752
 0.045000   35.943450   290.723218
 0.050000   37.298831   256.262507
 0.055000   38.506075   226.938442
 0.060000   39.568215   197.102746
 0.065000   40.477102   167.586077
 0.070000   41.244076   148.281163
 0.075000   41.959914   130.066383
 0.080000   42.544740   106.787154
 0.085000   43.027786   94.555651
 0.090000   43.490296   78.865671
 0.095000   43.816442   65.907657
 0.100000   44.149373   56.853176
 0.105000   44.384974   44.719191
 0.110000   44.596565   39.000918
 0.115000   44.774983   30.596861
 0.120000   44.902533   26.953782
 0.125000   45.044521   22.426523
 0.130000   45.126798   20.023464
 0.135000   45.244756   19.328264
 0.140000   45.320081   17.088022
 0.145000   45.415636   19.070434
 0.150000   45.510785   16.281723
 0.155000   45.578453   19.601817
 0.160000   45.706804   16.434593
 0.165000   45.742799   20.933062
 0.170000   45.916134   17.412481
 0.175000   45.916924   17.019453
 0.180000   46.086329   24.691908
 0.185000   46.163843   18.175439
 0.190000   46.268083   26.709801
 0.195000   46.430941   20.707557
 0.200000   46.475159   24.257675
 0.205000   46.673518   29.694665
 0.210000   46.772105   24.173122
 0.215000   46.915249   35.381142
 0.220000   47.125917   27.670196
 0.225000   47.191951   29.429820
 0.230000   47.420215   40.826517
 0.235000   47.600216   31.629789
 0.240000   47.736513   38.626278
 0.245000   47.986479   41.264500
 0.250000   48.149158   37.336566
 0.255000   48.359844   48.794861
 0.260000   48.637106   43.820833
 0.265000   48.798053   42.502718
 0.270000   49.062134   55.961030
 0.275000   49.357663   45.996471
 0.280000   49.522098   45.335194
 0.285000   49.811015   57.900241
 0.290000   50.101101   46.719378
 0.295000   50.278209   46.517201
 0.300000   50.566273   57.117208
 0.305000   50.849381   45.434418
 0.310000   51.020617   41.908462
 0.315000   51.268466   48.270311
 0.320000   51.503320   36.104439
 0.325000   51.629510   30.352842
 0.330000   51.806848   33.310638
 0.335000   51.962616   22.283357
 0.340000   52.029682   14.442650
 0.345000   52.107043   13.757133
 0.350000   52.167253   5.364306
 0.355000   52.160686   -4.036152
 0.360000   52.126892   -7.980542
 0.365000   52.080880   -13.546063
 0.370000   51.991431   -22.636632
 0.375000   51.854514   -27.148468
 0.380000   51.719947   -28.879239
 0.385000   51.565722   -36.199607
 0.390000   51.357950   -40.398167
 0.395000   51.161740   -40.768141
 0.400000   50.950269   -45.899629
 0.405000   50.702744   -50.605458
 0.410000   50.444214   -52.115119
 0.415000   50.181593   -53.943993
 0.420000   49.904775   -57.426474
 0.425000   49.607328   -59.219843
 0.430000   49.312576   -59.219917
 0.435000   49.015129   -60.757438
 0.440000   48.705002   -62.189708
 0.445000   48.393232   -62.369645
 0.450000   48.081305   -62.535022
 0.455000   47.767881   -64.216069
 0.460000   47.439145   -65.784012
 0.465000   47.110041   -66.075091
 0.470000   46.778394   -67.277877
 0.475000   46.437262   -69.259644
 0.480000   46.085797   -70.575921
 0.485000   45.731503   -71.447581
 0.490000   45.371321   -73.810205
 0.495000   44.993401   -76.867028
 0.500000   44.602651   -79.587621
 0.505000   44.197525   -82.807479
 0.510000   43.774576   -87.352583
 0.515000   43.323999   -91.897778
 0.520000   42.855599   -95.225289
 0.525000   42.371746   -99.042459
 0.530000   41.865174   -102.840356
 0.535000   41.343343   -104.900260
 0.540000   40.816171   -105.826767
 0.545000   40.285075   -106.965313
 0.550000   39.746518   -106.677908
 0.555000   39.218296   -104.251731
 0.560000   38.704001   -101.426114
 0.565000   38.204035   -98.683202
 0.570000   37.717169   -94.618953
 0.575000   37.257845   -89.127804
 0.580000   36.825891   -84.432025
 0.585000   36.413525   -80.058825
 0.590000   36.025303   -74.749793
 0.595000   35.666027   -69.294788
 0.600000   35.332355   -65.545518
 0.605000   35.010572   -61.900236
 0.610000   34.713352   -57.615836
 0.615000   34.434414   -54.318869
 0.620000   34.170164   -52.390502
 0.625000   33.910509   -50.303584
 0.630000   33.667128   -47.529830
 0.635000   33.435210   -45.651573
 0.640000   33.210612   -45.061685
 0.645000   32.984593   -43.989374
 0.650000   32.770718   -42.139509
 0.655000   32.563198   -41.874791
 0.660000   32.351971   -42.835128
 0.665000   32.134847   -43.145020
 0.670000   31.920520   -43.058417
 0.675000   31.704263   -43.826898
 0.680000   31.482251   -44.729136
 0.685000   31.256972   -44.217291
 0.690000   31.040078   -42.538268
 0.695000   30.831589   -41.309160
 0.700000   30.626987   -39.646291
 0.705000   30.435126   -36.888448
 0.710000   30.258102   -33.967900
 0.715000   30.095447   -31.631090
 0.720000   29.941791   -29.261379
 0.725000   29.802833   -26.686065
 0.730000   29.674931   -24.750662
 0.735000   29.555327   -23.790755
 0.740000   29.437023   -23.110139
 0.745000   29.324225   -22.495413
 0.750000   29.212069   -22.442627
 0.755000   29.099799   -23.455352
 0.760000   28.977516   -25.043131
 0.765000   28.849368   -26.818537
 0.770000   28.709330   -29.846204
 0.775000   28.550906   -33.793804
 0.780000   28.371392   -37.331872
 0.785000   28.177587   -41.195585
 0.790000   27.959436   -46.284853
 0.795000   27.714738   -52.098133
 0.800000   27.438455   -58.776322
 0.805000   27.126975   -66.103449
 0.810000   26.777421   -73.800088
 0.815000   26.388974   -82.369050
 0.820000   25.953730   -91.639806
 0.825000   25.472576   -100.928223
 0.830000   24.944448   -110.427272
 0.835000   24.368303   -120.262729
 0.840000   23.741821   -130.830863
 0.845000   23.059995   -142.391796
 0.850000   22.317903   -155.068579
 0.855000   21.509309   -169.421176
 0.860000   20.623691   -185.910178
 0.865000   19.650207   -203.716534
 0.870000   18.586525   -222.985636
 0.875000   17.420351   -245.552941
 0.880000   16.130996   -273.416178
 0.885000   14.686189   -307.530651
 0.890000   13.055690   -347.239461
 0.895000   11.213794   -391.592312
 0.900000   9.139766   -452.630610
 0.905000   6.687488   -537.209786
 0.910000   3.767669   -647.392697
 0.915000   0.213561   -791.944426
 0.920000   -4.151776   -973.040562
 0.925000   -9.516844   -1211.787556
 0.930000   -16.269651   -1468.195766
 0.935000   -24.198802   -1686.756443
 0.940000   -33.137216   -1835.594702
 0.945000   -42.554749   -1852.244910
 0.950000   -51.659665   -1726.232839
 0.955000   -59.817077   -1405.407003
 0.960000   -65.713735   -741.574426
 0.965000   -67.232822   94.026269
 0.970000   -64.773472   804.405430
 0.975000   -59.188767   1393.125148
 0.980000   -50.842221   1910.326359
 0.985000   -40.085504   2204.568959
 0.990000   -28.796531   2182.576886
 0.995000   -18.259735   1976.863198
 1.000000   -9.027899   1715.871092
201 psinorm ommvb() dommvb/dpsiN
 0.000000   145.362037   -2726.053217
 0.005000   135.578125   -1187.511551
 0.010000   133.486921   -384.622723
 0.015000   131.731897   -287.613914
 0.020000   130.610782   -178.912717
 0.025000   129.942770   -98.906228
 0.030000   129.621720   -43.998373
 0.035000   129.502787   -2.250190
 0.040000   129.599218   36.285840
 0.045000   129.865645   65.170346
 0.050000   130.250921   89.572510
 0.055000   130.761370   106.356737
 0.060000   131.314489   117.662222
 0.065000   131.937992   128.125663
 0.070000   132.595745   141.822844
 0.075000   133.356221   148.976237
 0.080000   134.085508   155.942201
 0.085000   134.915643   176.036115
 0.090000   135.845869   179.824232
 0.095000   136.713885   174.148297
 0.100000   137.587352   175.726668
 0.105000   138.471152   177.223616
 0.110000   139.359588   178.499514
 0.115000   140.256147   172.033097
 0.120000   141.079919   163.911701
 0.125000   141.895264   162.138376
 0.130000   142.701303   160.094355
 0.135000   143.496207   158.743962
 0.140000   144.288742   157.326770
 0.145000   145.069475   150.570329
 0.150000   145.794446   140.668705
 0.155000   146.476162   131.571354
 0.160000   147.110159   120.678394
 0.165000   147.682946   106.758731
 0.170000   148.177746   91.870621
 0.175000   148.601652   76.473824
 0.180000   148.942485   62.234706
 0.185000   149.223999   48.370050
 0.190000   149.426185   34.617722
 0.195000   149.570177   30.056229
 0.200000   149.726747   25.202601
 0.205000   149.822203   17.593268
 0.210000   149.902680   14.604395
 0.215000   149.968247   10.714519
 0.220000   150.009825   6.434503
 0.225000   150.032592   2.882950
 0.230000   150.038655   0.222282
 0.235000   150.034814   -1.390510
 0.240000   150.024750   -13.324268
 0.245000   149.901572   -35.109805
 0.250000   149.673652   -55.851096
 0.255000   149.343061   -77.611603
 0.260000   148.897536   -98.608193
 0.265000   148.356979   -124.749050
 0.270000   147.650045   -156.111600
 0.275000   146.795863   -183.202066
 0.280000   145.818024   -207.452456
 0.285000   144.721338   -228.892834
 0.290000   143.529096   -252.728615
 0.295000   142.194052   -282.056427
 0.300000   140.708532   -307.157948
 0.305000   139.122473   -317.442116
 0.310000   137.534111   -319.251833
 0.315000   135.929954   -323.968603
 0.320000   134.294425   -322.372131
 0.325000   132.706233   -315.265788
 0.330000   131.141767   -307.456314
 0.335000   129.631670   -298.192935
 0.340000   128.159837   -290.960813
 0.345000   126.722062   -283.907811
 0.350000   125.320759   -276.705861
 0.355000   123.955003   -271.817578
 0.360000   122.602584   -267.823773
 0.365000   121.276765   -267.945101
 0.370000   119.923133   -274.377635
 0.375000   118.532989   -283.850970
 0.380000   117.084623   -299.001638
 0.385000   115.542973   -316.177114
 0.390000   113.922852   -332.285511
 0.395000   112.220118   -346.263258
 0.400000   110.460219   -354.983260
 0.405000   108.670285   -359.910171
 0.410000   106.861117   -361.463785
 0.415000   105.055647   -358.791531
 0.420000   103.273202   -355.022251
 0.425000   101.505425   -346.278527
 0.430000   99.810417   -333.719205
 0.435000   98.168233   -323.302599
 0.440000   96.577391   -311.012543
 0.445000   95.058107   -296.542398
 0.450000   93.611967   -284.117276
 0.455000   92.216934   -270.579796
 0.460000   90.906169   -255.583807
 0.465000   89.661096   -243.953351
 0.470000   88.466635   -233.115046
 0.475000   87.329946   -221.987207
 0.480000   86.246763   -212.628033
 0.485000   85.203666   -206.835462
 0.490000   84.178409   -203.942762
 0.495000   83.164238   -201.869118
 0.500000   82.159717   -200.995984
 0.505000   81.154278   -200.199697
 0.510000   80.157721   -197.884237
 0.515000   79.175436   -194.797912
 0.520000   78.209741   -192.071999
 0.525000   77.254716   -189.381750
 0.530000   76.315924   -184.995993
 0.535000   75.404756   -180.013460
 0.540000   74.515789   -174.611114
 0.545000   73.658645   -168.145512
 0.550000   72.834334   -160.164212
 0.555000   72.057003   -151.356173
 0.560000   71.320772   -141.775639
 0.565000   70.639246   -131.948525
 0.570000   70.001287   -121.725577
 0.575000   69.421990   -112.057725
 0.580000   68.880710   -104.588563
 0.585000   68.376105   -97.483439
 0.590000   67.905876   -91.972603
 0.595000   67.456379   -89.602149
 0.600000   67.009854   -89.075403
 0.605000   66.565625   -88.808059
 0.610000   66.121773   -88.764681
 0.615000   65.677978   -89.645393
 0.620000   65.225320   -92.943877
 0.625000   64.748539   -95.097202
 0.630000   64.274348   -96.059763
 0.635000   63.787941   -98.489378
 0.640000   63.289454   -99.617837
 0.645000   62.791763   -99.770835
 0.650000   62.291745   -101.014850
 0.655000   61.781615   -100.652426
 0.660000   61.285221   -98.550239
 0.665000   60.796112   -96.661812
 0.670000   60.318603   -93.659394
 0.675000   59.859518   -90.560173
 0.680000   59.413001   -87.696706
 0.685000   58.982551   -85.535663
 0.690000   58.557645   -85.258162
 0.695000   58.129970   -85.837203
 0.700000   57.699273   -86.217614
 0.705000   57.267793   -85.746277
 0.710000   56.841810   -84.651899
 0.715000   56.421274   -82.904903
 0.720000   56.012761   -79.259621
 0.725000   55.628678   -73.119403
 0.730000   55.281567   -64.808058
 0.735000   54.980598   -56.002314
 0.740000   54.721544   -47.510881
 0.745000   54.505489   -40.235557
 0.750000   54.319188   -36.549287
 0.755000   54.139996   -35.465326
 0.760000   53.964535   -37.461607
 0.765000   53.765380   -42.636537
 0.770000   53.538169   -48.726763
 0.775000   53.278112   -56.904621
 0.780000   52.969123   -68.138238
 0.785000   52.596730   -80.858076
 0.790000   52.160543   -94.150299
 0.795000   51.655227   -107.280563
 0.800000   51.087737   -119.604199
 0.805000   50.459185   -131.242681
 0.810000   49.775310   -138.926831
 0.815000   49.069917   -141.847837
 0.820000   48.356832   -140.953475
 0.825000   47.660382   -136.421744
 0.830000   46.992614   -129.028464
 0.835000   46.370097   -116.794701
 0.840000   45.824667   -104.962096
 0.845000   45.320476   -94.484705
 0.850000   44.879820   -83.119526
 0.855000   44.489281   -72.723258
 0.860000   44.152588   -57.749376
 0.865000   43.911787   -15.520871
 0.870000   43.997379   38.668825
 0.875000   44.298475   92.589865
 0.880000   44.923278   154.134824
 0.885000   45.839824   205.681240
 0.890000   46.980090   243.840619
 0.895000   48.278230   312.521233
 0.900000   50.105302   223.209167
 0.905000   50.510322   -102.352985
 0.910000   49.081772   -611.263893
 0.915000   44.397683   -1414.991564
 0.920000   34.931857   -2469.540512
 0.925000   19.702278   -3654.750786
 0.930000   -1.615651   -4458.135457
 0.935000   -24.879077   -4177.070677
 0.940000   -43.386358   -2511.782534
 0.945000   -49.996902   295.606488
 0.950000   -40.430293   3426.174461
 0.955000   -15.735158   5910.378396
 0.960000   18.673491   7195.355049
 0.965000   56.218393   6939.628540
 0.970000   88.069776   5253.967262
 0.975000   108.758065   2928.465011
 0.980000   117.354427   799.410210
 0.985000   116.752167   -599.604659
 0.990000   111.358380   -1271.227717
 0.995000   104.039890   -1468.278327
 1.000000   96.675597   -1477.439102
201 psinorm ommpp() dommpp/dpsiN
 0.000000   9.098158   2571.299197
 0.005000   17.771849   898.177267
 0.010000   18.079931   20.315159
 0.015000   17.975001   -88.060301
 0.020000   17.199328   -203.396918
 0.025000   15.941032   -289.733908
 0.030000   14.301989   -352.092164
 0.035000   12.420110   -401.445866
 0.040000   10.287530   -447.383665
 0.045000   7.946273   -484.253053
 0.050000   5.444999   -516.618269
 0.055000   2.780091   -540.633152
 0.060000   0.038668   -557.826112
 0.065000   -2.798171   -571.889019
 0.070000   -5.680222   -586.551649
 0.075000   -8.663687   -592.417592
 0.080000   -11.604398   -596.441336
 0.085000   -14.628100   -612.274690
 0.090000   -17.727145   -610.169353
 0.095000   -20.729794   -597.343628
 0.100000   -23.700581   -590.570065
 0.105000   -26.635495   -582.205477
 0.110000   -29.522636   -572.084990
 0.115000   -32.356344   -552.758578
 0.120000   -35.050222   -530.795555
 0.125000   -37.664300   -514.145907
 0.130000   -40.191681   -495.985925
 0.135000   -42.624159   -478.100950
 0.140000   -44.972691   -460.398449
 0.145000   -47.228144   -437.563887
 0.150000   -49.348329   -412.341500
 0.155000   -51.351559   -388.892944
 0.160000   -53.237259   -364.178675
 0.165000   -54.993345   -337.360577
 0.170000   -56.610865   -310.702794
 0.175000   -58.100373   -283.797671
 0.180000   -59.448841   -258.850333
 0.185000   -60.688877   -234.731803
 0.190000   -61.796159   -210.534371
 0.195000   -62.794220   -195.710154
 0.200000   -63.753261   -180.937053
 0.205000   -64.603591   -164.398264
 0.210000   -65.397244   -152.754320
 0.215000   -66.131134   -140.127157
 0.220000   -66.798515   -127.501296
 0.225000   -67.406147   -116.051190
 0.230000   -67.959027   -105.895319
 0.235000   -68.465100   -97.698268
 0.240000   -68.936010   -78.896726
 0.245000   -69.254068   -49.285071
 0.250000   -69.428860   -21.138661
 0.255000   -69.465454   7.295398
 0.260000   -69.355906   34.531365
 0.265000   -69.120141   66.483450
 0.270000   -68.691072   103.032111
 0.275000   -68.089819   134.521533
 0.280000   -67.345857   162.195965
 0.285000   -66.467860   186.594857
 0.290000   -65.479908   212.919836
 0.295000   -64.338661   244.991343
 0.300000   -63.029995   272.309077
 0.305000   -61.615571   282.038238
 0.310000   -60.209612   281.575018
 0.315000   -58.799820   283.817310
 0.320000   -57.371439   278.437079
 0.325000   -56.015450   266.759990
 0.330000   -54.703839   253.974689
 0.335000   -53.475703   238.525314
 0.340000   -52.318586   225.068236
 0.345000   -51.225020   211.629497
 0.350000   -50.202291   197.451373
 0.355000   -49.250507   185.527257
 0.360000   -48.347019   174.160386
 0.365000   -47.508903   167.407823
 0.370000   -46.672940   168.227222
 0.375000   -45.826631   172.527332
 0.380000   -44.947667   183.509568
 0.385000   -43.991535   197.625375
 0.390000   -42.971413   211.015963
 0.395000   -41.881375   222.366513
 0.400000   -40.747748   228.419061
 0.405000   -39.597185   231.212995
 0.410000   -38.435618   231.131357
 0.415000   -37.285871   227.111644
 0.420000   -36.164502   222.994721
 0.425000   -35.055924   214.231140
 0.430000   -34.022190   201.720298
 0.435000   -33.038721   192.189697
 0.440000   -32.100293   181.056152
 0.445000   -31.228159   167.410397
 0.450000   -30.426189   155.853638
 0.455000   -29.669623   142.976476
 0.460000   -28.996425   128.238269
 0.465000   -28.387240   116.881193
 0.470000   -27.827613   106.142235
 0.475000   -27.325818   94.934345
 0.480000   -26.878269   85.414678
 0.485000   -26.471671   79.217248
 0.490000   -26.086097   75.336528
 0.495000   -25.718306   71.470669
 0.500000   -25.371390   67.987719
 0.505000   -25.038429   64.062427
 0.510000   -24.730766   58.213289
 0.515000   -24.456296   51.144834
 0.520000   -24.219317   44.711111
 0.525000   -24.009185   38.794877
 0.530000   -23.831369   31.623512
 0.535000   -23.692950   25.046024
 0.540000   -23.580908   19.157281
 0.545000   -23.501377   13.202163
 0.550000   -23.448887   7.192110
 0.555000   -23.429456   1.758067
 0.560000   -23.431306   -3.441045
 0.565000   -23.463866   -7.939382
 0.570000   -23.510700   -12.049972
 0.575000   -23.584366   -14.985565
 0.580000   -23.660556   -15.425329
 0.585000   -23.738619   -15.587050
 0.590000   -23.816426   -14.266790
 0.595000   -23.881287   -10.019461
 0.600000   -23.916621   -4.327086
 0.605000   -23.924558   0.989214
 0.610000   -23.906729   5.786065
 0.615000   -23.866697   10.905570
 0.620000   -23.797673   18.196239
 0.625000   -23.684735   23.623809
 0.630000   -23.561435   27.338968
 0.635000   -23.411345   32.517036
 0.640000   -23.236264   35.785229
 0.645000   -23.053493   37.648742
 0.650000   -22.859777   40.579824
 0.655000   -22.647695   41.136395
 0.660000   -22.448413   39.070772
 0.665000   -22.256987   36.977900
 0.670000   -22.078634   33.653605
 0.675000   -21.920451   30.359565
 0.680000   -21.775038   27.350127
 0.685000   -21.646950   25.739376
 0.690000   -21.517645   27.194935
 0.695000   -21.375000   30.037980
 0.700000   -21.217265   33.084219
 0.705000   -21.044158   35.660409
 0.710000   -20.860661   37.912190
 0.715000   -20.665036   39.709136
 0.720000   -20.463569   39.354918
 0.725000   -20.271487   35.969555
 0.730000   -20.103874   29.933626
 0.735000   -19.972151   22.920544
 0.740000   -19.874668   15.566401
 0.745000   -19.816487   8.747720
 0.750000   -19.787191   5.184913
 0.755000   -19.764638   3.402313
 0.760000   -19.753168   3.763571
 0.765000   -19.727002   6.670870
 0.770000   -19.686459   9.289650
 0.775000   -19.634105   13.169775
 0.780000   -19.554762   20.423371
 0.785000   -19.429872   28.531602
 0.790000   -19.269446   35.945748
 0.795000   -19.070414   42.499683
 0.800000   -18.844449   47.133448
 0.805000   -18.599080   50.185315
 0.810000   -18.342596   48.957824
 0.815000   -18.109502   42.023287
 0.820000   -17.922363   30.404671
 0.825000   -17.805455   15.074559
 0.830000   -17.771617   -3.300023
 0.835000   -17.838455   -26.880407
 0.840000   -18.040421   -50.934914
 0.845000   -18.347804   -74.792992
 0.850000   -18.788351   -100.791309
 0.855000   -19.355717   -127.771808
 0.860000   -20.066069   -161.852937
 0.865000   -20.974247   -224.686739
 0.870000   -22.312937   -301.052582
 0.875000   -23.984773   -380.956449
 0.880000   -26.122501   -474.774982
 0.885000   -28.732522   -565.861757
 0.890000   -31.781119   -649.804685
 0.895000   -35.230569   -769.513168
 0.900000   -39.476250   -750.802949
 0.905000   -42.738599   -523.251403
 0.910000   -44.708764   -141.506021
 0.915000   -44.153659   495.685085
 0.920000   -39.751914   1340.306981
 0.925000   -30.750589   2248.321787
 0.930000   -17.268696   2757.809450
 0.935000   -3.172495   2230.643985
 0.940000   5.037744   395.887160
 0.945000   0.786377   -2427.155386
 0.950000   -19.233810   -5355.061039
 0.955000   -52.764233   -7398.004345
 0.960000   -93.213853   -7960.753555
 0.965000   -132.371769   -6812.671855
 0.970000   -161.340572   -4268.324520
 0.975000   -175.055014   -1219.400501
 0.980000   -173.534577   1403.527386
 0.985000   -161.019740   3038.640411
 0.990000   -143.148173   3683.997453
 0.995000   -124.179766   3656.057455
 1.000000   -106.587598   3380.809616
201 psinorm omevb() domevb/dpsiN
 0.000000   154.296305   -236.836798
 0.005000   152.696690   -403.009361
 0.010000   150.266211   -493.139300
 0.015000   147.765297   -503.205736
 0.020000   145.234154   -508.499132
 0.025000   142.680305   -513.447134
 0.030000   140.099683   -519.475899
 0.035000   137.485546   -525.621999
 0.040000   134.843463   -531.527921
 0.045000   132.170267   -537.981895
 0.050000   129.463644   -544.380343
 0.055000   126.726464   -550.014073
 0.060000   123.963503   -554.273674
 0.065000   121.183727   -556.215690
 0.070000   118.401346   -555.495487
 0.075000   115.628772   -552.495554
 0.080000   112.876391   -547.815390
 0.085000   110.150618   -541.792788
 0.090000   107.458463   -534.114553
 0.095000   104.809473   -525.158593
 0.100000   102.206877   -514.980444
 0.105000   99.659668   -503.273983
 0.110000   97.174137   -490.015290
 0.115000   94.759515   -475.276914
 0.120000   92.421368   -459.542138
 0.125000   90.164094   -442.759187
 0.130000   87.993776   -424.724393
 0.135000   85.916850   -406.260033
 0.140000   83.931176   -388.035249
 0.145000   82.036498   -370.009181
 0.150000   80.231084   -352.733216
 0.155000   78.509165   -336.420743
 0.160000   76.866876   -320.633280
 0.165000   75.302833   -305.764958
 0.170000   73.809227   -292.022804
 0.175000   72.382605   -278.540518
 0.180000   71.023822   -265.857956
 0.185000   69.724025   -253.630432
 0.190000   68.487517   -241.213421
 0.195000   67.311891   -228.981565
 0.200000   66.197702   -217.096740
 0.205000   65.140923   -206.206698
 0.210000   64.135635   -195.596768
 0.215000   63.184956   -184.911284
 0.220000   62.286522   -174.624820
 0.225000   61.438708   -164.794114
 0.230000   60.638581   -155.376085
 0.235000   59.884947   -146.879171
 0.240000   59.169789   -138.109715
 0.245000   58.503850   -128.393700
 0.250000   57.885852   -119.111223
 0.255000   57.312737   -110.573590
 0.260000   56.780116   -102.484126
 0.265000   56.287896   -94.837493
 0.270000   55.831741   -87.831325
 0.275000   55.409583   -81.628297
 0.280000   55.015458   -76.416782
 0.285000   54.645415   -71.687987
 0.290000   54.298578   -67.446259
 0.295000   53.970952   -62.968329
 0.300000   53.668895   -59.036688
 0.305000   53.380586   -57.895567
 0.310000   53.089939   -58.492140
 0.315000   52.795664   -59.310462
 0.320000   52.496835   -61.458692
 0.325000   52.181077   -64.414930
 0.330000   51.852686   -67.797643
 0.335000   51.503101   -72.412267
 0.340000   51.128563   -77.087919
 0.345000   50.732222   -81.946724
 0.350000   50.309096   -87.418621
 0.355000   49.858035   -92.973091
 0.360000   49.379365   -98.887945
 0.365000   48.869156   -104.326996
 0.370000   48.336095   -108.528857
 0.375000   47.783867   -112.314553
 0.380000   47.212949   -115.119355
 0.385000   46.632674   -116.839434
 0.390000   46.044555   -118.241808
 0.395000   45.450256   -119.577825
 0.400000   44.848777   -120.978436
 0.405000   44.240471   -121.868969
 0.410000   43.630087   -122.286223
 0.415000   43.017609   -122.440158
 0.420000   42.405685   -121.618763
 0.425000   41.801422   -120.494064
 0.430000   41.200745   -119.325492
 0.435000   40.608167   -117.343821
 0.440000   40.027307   -115.116023
 0.445000   39.457006   -113.244657
 0.450000   38.894860   -111.353555
 0.455000   38.343471   -109.694640
 0.460000   37.797914   -108.462299
 0.465000   37.258848   -107.238280
 0.470000   36.725531   -106.212084
 0.475000   36.196727   -105.388935
 0.480000   35.671641   -104.669725
 0.485000   35.150030   -104.218211
 0.490000   34.629459   -104.373015
 0.495000   34.106300   -105.354987
 0.500000   33.575909   -107.177337
 0.505000   33.034526   -109.541452
 0.510000   32.480495   -112.332600
 0.515000   31.911200   -115.594342
 0.520000   31.324551   -118.603675
 0.525000   30.725163   -121.152859
 0.530000   30.113023   -123.283097
 0.535000   29.492332   -124.243862
 0.540000   28.870584   -124.116991
 0.545000   28.251163   -123.013900
 0.550000   27.640445   -120.470434
 0.555000   27.046458   -116.544333
 0.560000   26.475002   -111.630644
 0.565000   25.930152   -105.789147
 0.570000   25.417110   -99.183332
 0.575000   24.938318   -91.976582
 0.580000   24.497345   -84.491364
 0.585000   24.093405   -77.110512
 0.590000   23.726240   -69.860033
 0.595000   23.394805   -62.840627
 0.600000   23.097833   -56.237336
 0.605000   22.832431   -50.286660
 0.610000   22.594967   -45.096228
 0.615000   22.381469   -40.523746
 0.620000   22.189729   -36.214068
 0.625000   22.019328   -32.638210
 0.630000   21.863347   -29.599563
 0.635000   21.723333   -26.580306
 0.640000   21.597544   -24.184697
 0.645000   21.481486   -22.232919
 0.650000   21.375215   -20.318886
 0.655000   21.278297   -19.186907
 0.660000   21.183346   -18.951030
 0.665000   21.088786   -18.969524
 0.670000   20.993651   -19.118510
 0.675000   20.897601   -19.153196
 0.680000   20.802119   -19.151504
 0.685000   20.706086   -18.465732
 0.690000   20.617461   -16.609107
 0.695000   20.539995   -14.233192
 0.700000   20.475129   -11.466871
 0.705000   20.425327   -8.330049
 0.710000   20.391829   -4.905610
 0.715000   20.376270   -1.294254
 0.720000   20.378886   2.053456
 0.725000   20.396805   4.854225
 0.730000   20.427429   7.164778
 0.735000   20.468453   8.981647
 0.740000   20.517245   10.131929
 0.745000   20.569772   10.589888
 0.750000   20.623144   10.702298
 0.755000   20.676795   9.979257
 0.760000   20.722936   8.305121
 0.765000   20.759846   5.981809
 0.770000   20.782755   2.435621
 0.775000   20.784202   -1.959238
 0.780000   20.763162   -6.063165
 0.785000   20.723571   -10.831249
 0.790000   20.654850   -16.905971
 0.795000   20.554511   -23.729068
 0.800000   20.417559   -31.728834
 0.805000   20.237223   -40.705449
 0.810000   20.010505   -50.109344
 0.815000   19.736129   -60.588285
 0.820000   19.404622   -72.104764
 0.825000   19.015082   -83.913389
 0.830000   18.565488   -96.187225
 0.835000   18.053209   -109.192790
 0.840000   17.473560   -123.550387
 0.845000   16.817706   -139.688677
 0.850000   16.076673   -157.893042
 0.855000   15.238775   -179.116556
 0.860000   14.285508   -204.270864
 0.865000   13.196066   -232.787936
 0.870000   11.957628   -265.360517
 0.875000   10.542461   -305.073936
 0.880000   8.906889   -355.589237
 0.885000   6.986569   -419.532382
 0.890000   4.711565   -498.220191
 0.895000   2.004367   -594.010499
 0.900000   -1.228540   -726.091060
 0.905000   -5.256544   -909.366414
 0.910000   -10.322204   -1155.867629
 0.915000   -16.815220   -1490.630285
 0.920000   -25.228507   -1938.504621
 0.925000   -36.200266   -2551.174472
 0.930000   -50.740252   -3311.425111
 0.935000   -69.314517   -4185.570711
 0.940000   -92.595959   -5150.574295
 0.945000   -120.820260   -6064.030827
 0.950000   -153.236267   -6657.892923
 0.955000   -187.399189   -6525.000755
 0.960000   -218.486275   -5135.799182
 0.965000   -238.757181   -2312.931761
 0.970000   -241.615592   1454.678592
 0.975000   -224.210395   5168.003158
 0.980000   -189.935561   7723.755534
 0.985000   -146.972840   8593.738730
 0.990000   -103.998173   7960.118577
 0.995000   -67.371654   6469.647819
 1.000000   -39.301695   4758.335795
201 psinorm omepp() domepp/dpsiN
 0.000000   0.163890   82.082778
 0.005000   0.653284   113.675077
 0.010000   1.300640   128.831736
 0.015000   1.941602   127.531521
 0.020000   2.575955   126.189497
 0.025000   3.203496   124.806997
 0.030000   3.824025   123.385362
 0.035000   4.437350   121.925943
 0.040000   5.043285   120.430097
 0.045000   5.641651   118.899188
 0.050000   6.232277   117.334585
 0.055000   6.814997   115.737659
 0.060000   7.389653   114.109784
 0.065000   7.956095   112.452333
 0.070000   8.514177   110.766682
 0.075000   9.063762   109.054200
 0.080000   9.604719   107.316256
 0.085000   10.136924   105.554214
 0.090000   10.660261   103.769432
 0.095000   11.174618   101.963262
 0.100000   11.679893   100.137047
 0.105000   12.175989   98.292123
 0.110000   12.662815   96.429814
 0.115000   13.140287   94.551434
 0.120000   13.608329   92.658285
 0.125000   14.066870   90.751656
 0.130000   14.515846   88.832822
 0.135000   14.955198   86.903045
 0.140000   15.384876   84.963569
 0.145000   15.804834   83.015624
 0.150000   16.215032   81.060421
 0.155000   16.615438   79.099154
 0.160000   17.006024   77.132999
 0.165000   17.386768   75.163112
 0.170000   17.757655   73.190631
 0.175000   18.118674   71.216672
 0.180000   18.469822   69.242330
 0.185000   18.811098   67.268679
 0.190000   19.142508   65.296772
 0.195000   19.464065   63.327640
 0.200000   19.775785   61.362288
 0.205000   20.077688   59.401702
 0.210000   20.369802   57.446843
 0.215000   20.652157   55.498647
 0.220000   20.924788   53.558027
 0.225000   21.187737   51.625873
 0.230000   21.441047   49.703048
 0.235000   21.684767   47.790393
 0.240000   21.918951   45.888721
 0.245000   22.143655   43.998824
 0.250000   22.358939   42.121465
 0.255000   22.564869   40.257385
 0.260000   22.761513   38.407298
 0.265000   22.948942   36.571893
 0.270000   23.127232   34.751835
 0.275000   23.296461   32.947763
 0.280000   23.456710   31.160292
 0.285000   23.608064   29.390009
 0.290000   23.750610   27.637480
 0.295000   23.884438   25.903244
 0.300000   24.009642   24.187817
 0.305000   24.126316   22.491688
 0.310000   24.234559   20.815325
 0.315000   24.334470   19.159169
 0.320000   24.426151   17.523640
 0.325000   24.509706   15.909132
 0.330000   24.585242   14.316018
 0.335000   24.652866   12.744645
 0.340000   24.712688   11.195342
 0.345000   24.764820   9.668410
 0.350000   24.809373   8.164132
 0.355000   24.846461   6.682769
 0.360000   24.876200   5.224558
 0.365000   24.898707   3.789717
 0.370000   24.914097   2.378444
 0.375000   24.922491   0.990914
 0.380000   24.924007   -0.372714
 0.385000   24.918764   -1.712306
 0.390000   24.906884   -3.027741
 0.395000   24.888487   -4.318920
 0.400000   24.863694   -5.585764
 0.405000   24.832629   -6.828207
 0.410000   24.795412   -8.046206
 0.415000   24.752167   -9.239730
 0.420000   24.703015   -10.408767
 0.425000   24.648079   -11.553323
 0.430000   24.587482   -12.673416
 0.435000   24.521345   -13.769081
 0.440000   24.449791   -14.840369
 0.445000   24.372941   -15.887344
 0.450000   24.290918   -16.910084
 0.455000   24.203840   -17.908680
 0.460000   24.111831   -18.883240
 0.465000   24.015008   -19.833878
 0.470000   23.913492   -20.760727
 0.475000   23.807401   -21.663926
 0.480000   23.696853   -22.543631
 0.485000   23.581965   -23.400003
 0.490000   23.462853   -24.233219
 0.495000   23.339632   -25.043462
 0.500000   23.212418   -25.830928
 0.505000   23.081323   -26.595819
 0.510000   22.946460   -27.338348
 0.515000   22.807940   -28.058736
 0.520000   22.665872   -28.757212
 0.525000   22.520367   -29.434014
 0.530000   22.371532   -30.089384
 0.535000   22.219474   -30.723574
 0.540000   22.064297   -31.336841
 0.545000   21.906105   -31.929450
 0.550000   21.745002   -32.501668
 0.555000   21.581089   -33.053772
 0.560000   21.414464   -33.586041
 0.565000   21.245228   -34.098760
 0.570000   21.073477   -34.592218
 0.575000   20.899306   -35.066708
 0.580000   20.722810   -35.522528
 0.585000   20.544081   -35.959977
 0.590000   20.363210   -36.379360
 0.595000   20.180287   -36.780982
 0.600000   19.995400   -37.165153
 0.605000   19.808636   -37.532184
 0.610000   19.620078   -37.882387
 0.615000   19.429812   -38.216078
 0.620000   19.237917   -38.533571
 0.625000   19.044476   -38.835183
 0.630000   18.849566   -39.121233
 0.635000   18.653264   -39.392036
 0.640000   18.455645   -39.647911
 0.645000   18.256784   -39.889174
 0.650000   18.056754   -40.116141
 0.655000   17.855623   -40.329125
 0.660000   17.653462   -40.528438
 0.665000   17.450339   -40.714388
 0.670000   17.246318   -40.887280
 0.675000   17.041466   -41.047412
 0.680000   16.835844   -41.195076
 0.685000   16.629515   -41.330555
 0.690000   16.422539   -41.454120
 0.695000   16.214974   -41.566031
 0.700000   16.006878   -41.666525
 0.705000   15.798309   -41.755819
 0.710000   15.589320   -41.834099
 0.715000   15.379968   -41.901512
 0.720000   15.170305   -41.958159
 0.725000   14.960386   -42.004073
 0.730000   14.750264   -42.039210
 0.735000   14.539994   -42.063418
 0.740000   14.329630   -42.076410
 0.745000   14.119230   -42.077724
 0.750000   13.908853   -42.066672
 0.755000   13.698563   -42.042270
 0.760000   13.488430   -42.003157
 0.765000   13.278532   -41.947476
 0.770000   13.068956   -41.872733
 0.775000   12.859804   -41.775608
 0.780000   12.651199   -41.651702
 0.785000   12.443287   -41.495226
 0.790000   12.236247   -41.298579
 0.795000   12.030301   -41.051812
 0.800000   11.825729   -40.741917
 0.805000   11.622882   -40.351917
 0.810000   11.422210   -39.859663
 0.815000   11.224286   -39.236265
 0.820000   11.029847   -38.444039
 0.825000   10.839845   -37.433796
 0.830000   10.655509   -36.141262
 0.835000   10.478433   -34.482317
 0.840000   10.310686   -32.346623
 0.845000   10.154966   -29.589020
 0.850000   10.014796   -26.017793
 0.855000   9.894789   -21.378510
 0.860000   9.801011   -15.331449
 0.865000   9.741474   -7.419673
 0.870000   9.726814   2.976760
 0.875000   9.771242   16.707353
 0.880000   9.893888   34.949080
 0.885000   10.120732   59.351865
 0.890000   10.487406   92.256126
 0.895000   11.043294   137.018564
 0.900000   11.857592   198.497279
 0.905000   13.028266   283.762026
 0.910000   14.695212   403.097716
 0.915000   17.059244   571.323805
 0.920000   20.408450   809.271091
 0.925000   25.151955   1144.745474
 0.930000   31.855905   1611.099104
 0.935000   41.262946   2239.144020
 0.940000   54.247345   3034.678921
 0.945000   71.609735   3932.481929
 0.950000   93.572164   4729.006345
 0.955000   118.899798   5037.374805
 0.960000   143.945912   4370.400676
 0.965000   162.603805   2439.888447
 0.970000   168.344797   -469.035850
 0.975000   157.913446   -3458.938648
 0.980000   133.755410   -5520.817938
 0.985000   102.705267   -6154.702978
 0.990000   72.208381   -5547.348841
 0.995000   47.231779   -4281.868691
 1.000000   29.389694   -2854.965282
201 psinorm kpol(km/s/T) dkpol/dpsiN
 0.000000   0.000163   272.964789
 0.005000   1.119363   174.715225
 0.010000   1.747315   123.079922
 0.015000   2.350162   121.339015
 0.020000   2.960705   122.994234
 0.025000   3.580105   123.703475
 0.030000   4.197740   121.924256
 0.035000   4.799347   118.571364
 0.040000   5.383454   114.164693
 0.045000   5.940994   108.277904
 0.050000   6.466233   101.709659
 0.055000   6.958091   95.062239
 0.060000   7.416855   88.823987
 0.065000   7.846331   83.915155
 0.070000   8.256007   80.539996
 0.075000   8.651731   78.082239
 0.080000   9.036829   75.948814
 0.085000   9.411219   73.851571
 0.090000   9.775345   71.916627
 0.095000   10.130385   69.908502
 0.100000   10.474430   67.913362
 0.105000   10.809519   65.967415
 0.110000   11.134104   64.014921
 0.115000   11.449668   61.995536
 0.120000   11.754059   59.910817
 0.125000   12.048776   57.896384
 0.130000   12.333023   55.861114
 0.135000   12.607387   53.672910
 0.140000   12.869752   51.488434
 0.145000   13.122271   49.218147
 0.150000   13.361934   46.739043
 0.155000   13.589662   43.953906
 0.160000   13.801473   40.930362
 0.165000   13.998966   37.741590
 0.170000   14.178889   34.212893
 0.175000   14.341094   30.510507
 0.180000   14.483994   26.520203
 0.185000   14.606296   22.519466
 0.190000   14.709189   18.385265
 0.195000   14.790149   14.242454
 0.200000   14.851613   10.304443
 0.205000   14.893194   6.335837
 0.210000   14.914971   2.767033
 0.215000   14.920864   -0.487699
 0.220000   14.910094   -3.562190
 0.225000   14.885242   -6.325100
 0.230000   14.846843   -9.051561
 0.235000   14.794726   -11.491851
 0.240000   14.731925   -13.886880
 0.245000   14.655858   -16.505040
 0.250000   14.566875   -18.901714
 0.255000   14.466840   -21.358954
 0.260000   14.353285   -23.925343
 0.265000   14.227587   -26.273539
 0.270000   14.090550   -28.705528
 0.275000   13.940532   -31.141125
 0.280000   13.779138   -33.434727
 0.285000   13.606184   -35.881332
 0.290000   13.420325   -38.304008
 0.295000   13.223144   -40.646231
 0.300000   13.013863   -43.186089
 0.305000   12.791283   -45.669105
 0.310000   12.557172   -48.032164
 0.315000   12.310962   -50.547848
 0.320000   12.051693   -52.988063
 0.325000   11.781081   -55.235896
 0.330000   11.499334   -57.551513
 0.335000   11.205566   -59.794093
 0.340000   10.901393   -61.745526
 0.345000   10.588111   -63.704319
 0.350000   10.264350   -65.755881
 0.355000   9.930552   -67.650412
 0.360000   9.587846   -69.663949
 0.365000   9.233913   -71.950011
 0.370000   8.868346   -74.140310
 0.375000   8.492509   -76.413215
 0.380000   8.104214   -79.010011
 0.385000   7.702409   -81.575219
 0.390000   7.288462   -84.055034
 0.395000   6.861859   -86.652761
 0.400000   6.421934   -89.223572
 0.405000   5.969623   -91.518524
 0.410000   5.506749   -93.544994
 0.415000   5.034173   -95.183335
 0.420000   4.554915   -96.158997
 0.425000   4.072583   -96.525511
 0.430000   3.589660   -96.342408
 0.435000   3.109159   -95.546980
 0.440000   2.634190   -94.079100
 0.445000   2.168368   -92.228982
 0.450000   1.711901   -90.224980
 0.455000   1.266118   -87.887123
 0.460000   0.833029   -85.444743
 0.465000   0.411671   -83.142329
 0.470000   0.001606   -81.001725
 0.475000   -0.398346   -79.309132
 0.480000   -0.791485   -78.312298
 0.485000   -1.181469   -78.344428
 0.490000   -1.574929   -79.807583
 0.495000   -1.979545   -82.830046
 0.500000   -2.403230   -87.254699
 0.505000   -2.852092   -92.472385
 0.510000   -3.327954   -98.163703
 0.515000   -3.833729   -104.546928
 0.520000   -4.373423   -110.719637
 0.525000   -4.940925   -116.170682
 0.530000   -5.535130   -120.738600
 0.535000   -6.148311   -123.539547
 0.540000   -6.770525   -124.508767
 0.545000   -7.393399   -123.798119
 0.550000   -8.008507   -120.988056
 0.555000   -8.603280   -115.899986
 0.560000   -9.167506   -108.958443
 0.565000   -9.692864   -100.830016
 0.570000   -10.175807   -91.721718
 0.575000   -10.610081   -81.700212
 0.580000   -10.992809   -71.667079
 0.585000   -11.326752   -62.066582
 0.590000   -11.613474   -53.071084
 0.595000   -11.857463   -45.003588
 0.600000   -12.063510   -37.904385
 0.605000   -12.236507   -31.879088
 0.610000   -12.382301   -26.920861
 0.615000   -12.505715   -22.861473
 0.620000   -12.610916   -19.758252
 0.625000   -12.703298   -17.361162
 0.630000   -12.784528   -15.200229
 0.635000   -12.855300   -13.163747
 0.640000   -12.916165   -11.354982
 0.645000   -12.968850   -9.622102
 0.650000   -13.012386   -7.791205
 0.655000   -13.046762   -5.986259
 0.660000   -13.072249   -4.394145
 0.665000   -13.090703   -2.860021
 0.670000   -13.100849   -1.229556
 0.675000   -13.102999   0.320118
 0.680000   -13.097648   1.689144
 0.685000   -13.086108   3.010368
 0.690000   -13.067544   4.381345
 0.695000   -13.042294   5.650850
 0.700000   -13.011036   6.762100
 0.705000   -12.974673   7.830135
 0.710000   -12.932734   8.906600
 0.715000   -12.885607   9.864725
 0.720000   -12.834087   10.680350
 0.725000   -12.778804   11.453251
 0.730000   -12.719554   12.203296
 0.735000   -12.656771   12.837352
 0.740000   -12.591181   13.391001
 0.745000   -12.522861   14.020362
 0.750000   -12.450977   14.870608
 0.755000   -12.374155   15.902133
 0.760000   -12.291956   17.101866
 0.765000   -12.203136   18.478838
 0.770000   -12.107168   19.886423
 0.775000   -12.004272   21.215136
 0.780000   -11.895016   22.375182
 0.785000   -11.780520   23.082092
 0.790000   -11.664195   23.117888
 0.795000   -11.549341   22.327242
 0.800000   -11.440923   20.579877
 0.805000   -11.343542   17.901107
 0.810000   -11.261912   14.240550
 0.815000   -11.201137   9.613112
 0.820000   -11.165781   4.202899
 0.825000   -11.159108   -1.751226
 0.830000   -11.183293   -8.021632
 0.835000   -11.239324   -14.321094
 0.840000   -11.326504   -20.373207
 0.845000   -11.443056   -26.013933
 0.850000   -11.586643   -31.114566
 0.855000   -11.754202   -35.623198
 0.860000   -11.942875   -39.609849
 0.865000   -12.150300   -43.110812
 0.870000   -12.373983   -46.556805
 0.875000   -12.615868   -50.425447
 0.880000   -12.878238   -55.050110
 0.885000   -13.166369   -60.839725
 0.890000   -13.486635   -68.050039
 0.895000   -13.846870   -77.484808
 0.900000   -14.261483   -89.347640
 0.905000   -14.740346   -104.297292
 0.910000   -15.304456   -123.951917
 0.915000   -15.979865   -148.681172
 0.920000   -16.791268   -178.895301
 0.925000   -17.768818   -217.353141
 0.930000   -18.964799   -257.786400
 0.935000   -20.346682   -286.041251
 0.940000   -21.825212   -297.225086
 0.945000   -23.318933   -280.856186
 0.950000   -24.633774   -219.015448
 0.955000   -25.509088   -92.967498
 0.960000   -25.563448   91.741059
 0.965000   -24.591677   310.761715
 0.970000   -22.455831   540.760830
 0.975000   -19.184069   745.715144
 0.980000   -14.998680   902.703121
 0.985000   -10.157038   1000.000647
 0.990000   -4.998673   1032.406734
 0.995000   0.167030   1015.516451
 1.000000   5.156491   980.268107
201 psinorm omghb() domghb/dpsiN
 0.000000   -0.000026   1.048822
 0.005000   0.005218   1.048588
 0.010000   0.010460   1.119032
 0.015000   0.016408   1.207930
 0.020000   0.022539   1.242404
 0.025000   0.028832   1.278451
 0.030000   0.035324   1.336435
 0.035000   0.042196   1.401218
 0.040000   0.049336   1.469337
 0.045000   0.056890   1.527500
 0.050000   0.064611   1.554400
 0.055000   0.072434   1.560790
 0.060000   0.080219   1.527553
 0.065000   0.087709   1.468962
 0.070000   0.094909   1.393017
 0.075000   0.101640   1.288136
 0.080000   0.107790   1.176820
 0.085000   0.113408   1.087970
 0.090000   0.118670   0.990580
 0.095000   0.123314   0.867771
 0.100000   0.127347   0.730437
 0.105000   0.130618   0.581419
 0.110000   0.133162   0.425141
 0.115000   0.134869   0.224535
 0.120000   0.135407   0.053494
 0.125000   0.135404   -0.102363
 0.130000   0.134383   -0.256842
 0.135000   0.132836   -0.355082
 0.140000   0.130832   -0.439889
 0.145000   0.128437   -0.520806
 0.150000   0.125624   -0.550432
 0.155000   0.122933   -0.557042
 0.160000   0.120054   -0.573813
 0.165000   0.117194   -0.525063
 0.170000   0.114803   -0.516862
 0.175000   0.112026   -0.538823
 0.180000   0.109415   -0.567818
 0.185000   0.106348   -0.653426
 0.190000   0.102881   -0.667231
 0.195000   0.099675   -0.651554
 0.200000   0.096365   -0.675078
 0.205000   0.092925   -0.722013
 0.210000   0.089145   -0.743673
 0.215000   0.085488   -0.689686
 0.220000   0.082248   -0.633566
 0.225000   0.079152   -0.727060
 0.230000   0.074978   -0.785580
 0.235000   0.071296   -0.733501
 0.240000   0.067643   -0.765807
 0.245000   0.063638   -0.813224
 0.250000   0.059510   -0.795353
 0.255000   0.055685   -0.871444
 0.260000   0.050796   -0.865258
 0.265000   0.047032   -0.679838
 0.270000   0.043998   -0.570337
 0.275000   0.041329   -0.519032
 0.280000   0.038807   -0.527164
 0.285000   0.036057   -0.361322
 0.290000   0.035194   -0.245428
 0.295000   0.033603   -0.265405
 0.300000   0.032540   -0.071454
 0.305000   0.032888   0.255148
 0.310000   0.035092   0.380883
 0.315000   0.036697   0.835035
 0.320000   0.043442   1.139387
 0.325000   0.048091   1.013586
 0.330000   0.053578   1.214676
 0.335000   0.060238   1.369246
 0.340000   0.067270   1.478757
 0.345000   0.075025   1.642622
 0.350000   0.083696   1.675874
 0.355000   0.091784   1.684492
 0.360000   0.100541   1.803090
 0.365000   0.109815   1.701426
 0.370000   0.117556   1.529682
 0.375000   0.125112   1.241859
 0.380000   0.129974   0.996205
 0.385000   0.135074   0.997669
 0.390000   0.139951   0.950931
 0.395000   0.144583   0.915576
 0.400000   0.149107   0.808083
 0.405000   0.152664   0.736083
 0.410000   0.156467   0.728102
 0.415000   0.159945   0.571883
 0.420000   0.162186   0.275337
 0.425000   0.162698   0.211364
 0.430000   0.164300   0.177414
 0.435000   0.164473   0.054322
 0.440000   0.164843   0.079547
 0.445000   0.165268   0.067610
 0.450000   0.165519   0.003884
 0.455000   0.165307   0.107180
 0.460000   0.166591   0.221042
 0.465000   0.167517   0.223840
 0.470000   0.168829   0.260845
 0.475000   0.170126   0.247356
 0.480000   0.171303   0.308766
 0.485000   0.173213   0.453189
 0.490000   0.175835   0.602261
 0.495000   0.179236   0.802128
 0.500000   0.183856   1.040068
 0.505000   0.189637   1.198432
 0.510000   0.195840   1.351033
 0.515000   0.203147   1.339259
 0.520000   0.209233   1.166083
 0.525000   0.214808   1.120751
 0.530000   0.220441   0.908086
 0.535000   0.223889   0.539333
 0.540000   0.225834   0.262653
 0.545000   0.226515   -0.120098
 0.550000   0.224633   -0.573881
 0.555000   0.220776   -0.917772
 0.560000   0.215455   -1.257766
 0.565000   0.208199   -1.548398
 0.570000   0.199971   -1.729346
 0.575000   0.190905   -1.872755
 0.580000   0.181244   -1.919093
 0.585000   0.171714   -1.974059
 0.590000   0.161503   -1.972129
 0.595000   0.151993   -1.831979
 0.600000   0.143183   -1.665419
 0.605000   0.135339   -1.509486
 0.610000   0.128088   -1.318447
 0.615000   0.122154   -1.194226
 0.620000   0.116146   -1.002237
 0.625000   0.112132   -0.820372
 0.630000   0.107942   -0.841933
 0.635000   0.103713   -0.761972
 0.640000   0.100323   -0.527723
 0.645000   0.098436   -0.438182
 0.650000   0.095941   -0.322216
 0.655000   0.095213   -0.086544
 0.660000   0.095075   0.027698
 0.665000   0.095490   0.151887
 0.670000   0.096594   0.184648
 0.675000   0.097337   0.133233
 0.680000   0.097927   -0.043991
 0.685000   0.096897   -0.345168
 0.690000   0.094475   -0.566781
 0.695000   0.091229   -0.716224
 0.700000   0.087313   -0.918502
 0.705000   0.082044   -1.053138
 0.710000   0.076781   -1.092200
 0.715000   0.071122   -1.078888
 0.720000   0.065993   -0.992592
 0.725000   0.061196   -0.852881
 0.730000   0.057464   -0.600626
 0.735000   0.055190   -0.393926
 0.740000   0.053524   -0.299116
 0.745000   0.052199   -0.174855
 0.750000   0.051776   0.080632
 0.755000   0.053005   0.654137
 0.760000   0.058317   0.751726
 0.765000   0.060522   0.762404
 0.770000   0.065941   1.222760
 0.775000   0.072750   1.428963
 0.780000   0.080231   1.607014
 0.785000   0.088820   2.077081
 0.790000   0.101002   2.105028
 0.795000   0.109870   2.184564
 0.800000   0.122847   2.789374
 0.805000   0.137764   3.097464
 0.810000   0.153822   3.365712
 0.815000   0.171421   3.667017
 0.820000   0.190492   3.751074
 0.825000   0.208932   3.793738
 0.830000   0.228430   3.955138
 0.835000   0.248483   4.090409
 0.840000   0.269334   4.453805
 0.845000   0.293021   5.017900
 0.850000   0.319513   5.610953
 0.855000   0.349131   6.234393
 0.860000   0.381857   6.791838
 0.865000   0.417049   7.840257
 0.870000   0.460259   9.188982
 0.875000   0.508939   10.193315
 0.880000   0.562192   11.792646
 0.885000   0.626866   14.670308
 0.890000   0.708895   17.896486
 0.895000   0.805830   22.939149
 0.900000   0.938287   29.391276
 0.905000   1.099743   38.172378
 0.910000   1.320011   53.572909
 0.915000   1.635472   70.590481
 0.920000   2.025915   86.732657
 0.925000   2.502799   97.852423
 0.930000   3.004440   97.699018
 0.935000   3.479789   89.638506
 0.940000   3.900825   55.078980
 0.945000   4.030579   -33.447697
 0.950000   3.566348   -132.173826
 0.955000   2.708841   -214.319694
 0.960000   1.423151   -288.697782
 0.965000   -0.178137   -329.301822
 0.970000   -1.869867   -322.043942
 0.975000   -3.398577   -250.018983
 0.980000   -4.370057   -139.123068
 0.985000   -4.789807   -37.477102
 0.990000   -4.744828   43.309506
 0.995000   -4.356712   96.411448
 1.000000   -3.780714   133.987976
201 psinorm nz1(10^20/m^3) dnz1/dpsiN
 0.000000   0.019760   0.000003
 0.005000   0.019759   -0.000462
 0.010000   0.019755   -0.000932
 0.015000   0.019749   -0.001410
 0.020000   0.019741   -0.001896
 0.025000   0.019730   -0.002385
 0.030000   0.019717   -0.002876
 0.035000   0.019702   -0.003366
 0.040000   0.019683   -0.003850
 0.045000   0.019663   -0.004327
 0.050000   0.019640   -0.004793
 0.055000   0.019615   -0.005245
 0.060000   0.019588   -0.005681
 0.065000   0.019558   -0.006098
 0.070000   0.019527   -0.006493
 0.075000   0.019493   -0.006866
 0.080000   0.019458   -0.007217
 0.085000   0.019421   -0.007544
 0.090000   0.019383   -0.007847
 0.095000   0.019343   -0.008126
 0.100000   0.019301   -0.008378
 0.105000   0.019259   -0.008603
 0.110000   0.019215   -0.008801
 0.115000   0.019171   -0.008972
 0.120000   0.019126   -0.009114
 0.125000   0.019080   -0.009228
 0.130000   0.019033   -0.009313
 0.135000   0.018987   -0.009370
 0.140000   0.018940   -0.009401
 0.145000   0.018893   -0.009405
 0.150000   0.018846   -0.009384
 0.155000   0.018799   -0.009337
 0.160000   0.018752   -0.009264
 0.165000   0.018706   -0.009164
 0.170000   0.018661   -0.009040
 0.175000   0.018616   -0.008891
 0.180000   0.018572   -0.008717
 0.185000   0.018529   -0.008521
 0.190000   0.018487   -0.008301
 0.195000   0.018446   -0.008059
 0.200000   0.018406   -0.007795
 0.205000   0.018368   -0.007509
 0.210000   0.018331   -0.007203
 0.215000   0.018296   -0.006876
 0.220000   0.018262   -0.006530
 0.225000   0.018230   -0.006166
 0.230000   0.018200   -0.005784
 0.235000   0.018173   -0.005385
 0.240000   0.018147   -0.004970
 0.245000   0.018123   -0.004541
 0.250000   0.018101   -0.004098
 0.255000   0.018082   -0.003643
 0.260000   0.018065   -0.003176
 0.265000   0.018050   -0.002700
 0.270000   0.018038   -0.002215
 0.275000   0.018028   -0.001723
 0.280000   0.018021   -0.001225
 0.285000   0.018016   -0.000724
 0.290000   0.018013   -0.000219
 0.295000   0.018013   0.000286
 0.300000   0.018016   0.000790
 0.305000   0.018021   0.001293
 0.310000   0.018029   0.001793
 0.315000   0.018039   0.002290
 0.320000   0.018052   0.002785
 0.325000   0.018067   0.003278
 0.330000   0.018085   0.003768
 0.335000   0.018105   0.004255
 0.340000   0.018127   0.004740
 0.345000   0.018152   0.005222
 0.350000   0.018180   0.005700
 0.355000   0.018209   0.006170
 0.360000   0.018241   0.006632
 0.365000   0.018276   0.007084
 0.370000   0.018312   0.007523
 0.375000   0.018351   0.007945
 0.380000   0.018392   0.008345
 0.385000   0.018434   0.008717
 0.390000   0.018479   0.009058
 0.395000   0.018525   0.009366
 0.400000   0.018572   0.009637
 0.405000   0.018621   0.009869
 0.410000   0.018671   0.010062
 0.415000   0.018722   0.010219
 0.420000   0.018773   0.010340
 0.425000   0.018825   0.010423
 0.430000   0.018877   0.010470
 0.435000   0.018930   0.010484
 0.440000   0.018982   0.010464
 0.445000   0.019035   0.010415
 0.450000   0.019086   0.010338
 0.455000   0.019138   0.010232
 0.460000   0.019189   0.010100
 0.465000   0.019239   0.009945
 0.470000   0.019288   0.009767
 0.475000   0.019337   0.009567
 0.480000   0.019384   0.009344
 0.485000   0.019430   0.009095
 0.490000   0.019475   0.008819
 0.495000   0.019518   0.008511
 0.500000   0.019560   0.008174
 0.505000   0.019600   0.007810
 0.510000   0.019638   0.007422
 0.515000   0.019674   0.007013
 0.520000   0.019708   0.006586
 0.525000   0.019740   0.006144
 0.530000   0.019770   0.005690
 0.535000   0.019797   0.005226
 0.540000   0.019822   0.004755
 0.545000   0.019844   0.004280
 0.550000   0.019865   0.003801
 0.555000   0.019883   0.003322
 0.560000   0.019898   0.002845
 0.565000   0.019911   0.002371
 0.570000   0.019922   0.001902
 0.575000   0.019930   0.001440
 0.580000   0.019936   0.000985
 0.585000   0.019940   0.000540
 0.590000   0.019941   0.000107
 0.595000   0.019941   -0.000312
 0.600000   0.019938   -0.000715
 0.605000   0.019934   -0.001099
 0.610000   0.019927   -0.001462
 0.615000   0.019919   -0.001803
 0.620000   0.019909   -0.002122
 0.625000   0.019898   -0.002417
 0.630000   0.019885   -0.002686
 0.635000   0.019871   -0.002929
 0.640000   0.019856   -0.003145
 0.645000   0.019840   -0.003330
 0.650000   0.019823   -0.003483
 0.655000   0.019805   -0.003606
 0.660000   0.019786   -0.003699
 0.665000   0.019768   -0.003762
 0.670000   0.019749   -0.003797
 0.675000   0.019730   -0.003797
 0.680000   0.019711   -0.003753
 0.685000   0.019692   -0.003660
 0.690000   0.019674   -0.003504
 0.695000   0.019657   -0.003282
 0.700000   0.019641   -0.002985
 0.705000   0.019627   -0.002604
 0.710000   0.019615   -0.002130
 0.715000   0.019606   -0.001564
 0.720000   0.019600   -0.000905
 0.725000   0.019597   -0.000155
 0.730000   0.019598   0.000678
 0.735000   0.019604   0.001586
 0.740000   0.019614   0.002557
 0.745000   0.019629   0.003574
 0.750000   0.019650   0.004624
 0.755000   0.019676   0.005691
 0.760000   0.019707   0.006748
 0.765000   0.019743   0.007786
 0.770000   0.019785   0.008798
 0.775000   0.019831   0.009767
 0.780000   0.019882   0.010691
 0.785000   0.019938   0.011566
 0.790000   0.019998   0.012362
 0.795000   0.020062   0.013095
 0.800000   0.020129   0.013789
 0.805000   0.020199   0.014438
 0.810000   0.020273   0.015056
 0.815000   0.020350   0.015661
 0.820000   0.020430   0.016263
 0.825000   0.020513   0.016905
 0.830000   0.020599   0.017610
 0.835000   0.020689   0.018368
 0.840000   0.020783   0.019165
 0.845000   0.020880   0.019983
 0.850000   0.020982   0.020835
 0.855000   0.021089   0.021704
 0.860000   0.021199   0.022578
 0.865000   0.021315   0.023600
 0.870000   0.021435   0.024933
 0.875000   0.021564   0.026676
 0.880000   0.021702   0.029084
 0.885000   0.021855   0.032260
 0.890000   0.022025   0.035805
 0.895000   0.022213   0.039267
 0.900000   0.022417   0.041590
 0.905000   0.022629   0.040825
 0.910000   0.022826   0.034300
 0.915000   0.022972   0.017162
 0.920000   0.022997   -0.017238
 0.925000   0.022799   -0.075215
 0.930000   0.022245   -0.160424
 0.935000   0.021195   -0.270276
 0.940000   0.019542   -0.393171
 0.945000   0.017263   -0.505593
 0.950000   0.014486   -0.574572
 0.955000   0.011518   -0.578943
 0.960000   0.008697   -0.521893
 0.965000   0.006299   -0.424968
 0.970000   0.004447   -0.317231
 0.975000   0.003126   -0.220833
 0.980000   0.002239   -0.146300
 0.985000   0.001663   -0.094283
 0.990000   0.001296   -0.060013
 0.995000   0.001063   -0.038110
 1.000000   0.000915   -0.021139
201 psinorm vtor1(km/s) dvtor1/dpsiN
 0.000000   268.961275   641.904130
 0.005000   270.623148   22.845007
 0.010000   269.189725   -348.280170
 0.015000   267.140346   -446.583802
 0.020000   264.723887   -508.401990
 0.025000   262.056326   -551.188140
 0.030000   259.212006   -582.921869
 0.035000   256.227107   -608.928931
 0.040000   253.122716   -629.978504
 0.045000   249.927322   -646.722077
 0.050000   246.655496   -661.069059
 0.055000   243.316632   -673.538292
 0.060000   239.920113   -683.539285
 0.065000   236.481239   -690.780925
 0.070000   233.012303   -695.717350
 0.075000   229.524066   -697.892509
 0.080000   226.033378   -697.140143
 0.085000   222.552664   -693.996570
 0.090000   219.093413   -688.849993
 0.095000   215.664164   -681.684621
 0.100000   212.276566   -672.301946
 0.105000   208.941145   -660.841835
 0.110000   205.668148   -646.922735
 0.115000   202.471917   -630.217227
 0.120000   199.365976   -610.838128
 0.125000   196.363536   -589.349952
 0.130000   193.472476   -565.885501
 0.135000   190.704681   -541.215227
 0.140000   188.060324   -517.008962
 0.145000   185.534591   -493.520570
 0.150000   183.125118   -470.557224
 0.155000   180.829019   -448.469885
 0.160000   178.640419   -427.666491
 0.165000   176.552354   -408.307854
 0.170000   174.557341   -390.096041
 0.175000   172.651394   -372.411385
 0.180000   170.833227   -354.793052
 0.185000   169.103463   -336.744280
 0.190000   167.465784   -318.012938
 0.195000   165.923334   -298.693528
 0.200000   164.478849   -279.136090
 0.205000   163.131973   -259.789791
 0.210000   161.880951   -240.883047
 0.215000   160.723143   -222.771660
 0.220000   159.653234   -205.656079
 0.225000   158.666582   -189.465994
 0.230000   157.758574   -174.562217
 0.235000   156.920960   -161.086680
 0.240000   156.147708   -148.766416
 0.245000   155.433295   -137.694489
 0.250000   154.770763   -128.001884
 0.255000   154.153277   -119.577981
 0.260000   153.574983   -112.599651
 0.265000   153.027280   -107.129866
 0.270000   152.503684   -102.891288
 0.275000   151.998367   -99.740661
 0.280000   151.506278   -97.471156
 0.285000   151.023656   -95.849671
 0.290000   150.547781   -94.704860
 0.295000   150.076607   -93.954087
 0.300000   149.608240   -93.571318
 0.305000   149.140894   -93.532657
 0.310000   148.672914   -93.798659
 0.315000   148.202907   -94.313926
 0.320000   147.729774   -95.241448
 0.325000   147.250493   -96.780167
 0.330000   146.761973   -99.026321
 0.335000   146.260230   -102.161533
 0.340000   145.740357   -106.249220
 0.345000   145.197737   -111.448237
 0.350000   144.625875   -117.550035
 0.355000   144.022237   -124.163463
 0.360000   143.384240   -131.280201
 0.365000   142.709435   -138.758822
 0.370000   141.996652   -146.174667
 0.375000   141.247688   -153.360897
 0.380000   140.463043   -159.966829
 0.385000   139.648020   -165.532262
 0.390000   138.807720   -170.034451
 0.395000   137.947676   -173.287224
 0.400000   137.074848   -175.119254
 0.405000   136.196483   -175.334652
 0.410000   135.321502   -173.963285
 0.415000   134.456850   -171.384851
 0.420000   133.607653   -167.798348
 0.425000   132.778867   -163.232304
 0.430000   131.975330   -158.283508
 0.435000   131.196032   -153.350085
 0.440000   130.441829   -148.597916
 0.445000   129.710052   -144.476167
 0.450000   128.997068   -141.005073
 0.455000   128.300002   -138.165827
 0.460000   127.615409   -136.049941
 0.465000   126.939502   -134.527112
 0.470000   126.270138   -133.169829
 0.475000   125.607804   -131.538151
 0.480000   124.954757   -129.465455
 0.485000   124.313149   -126.962766
 0.490000   123.685129   -123.978841
 0.495000   123.073361   -120.518641
 0.500000   122.479943   -116.649690
 0.505000   121.906864   -112.482202
 0.510000   121.355121   -108.143387
 0.515000   120.825430   -103.646463
 0.520000   120.318656   -99.171944
 0.525000   119.833711   -94.968349
 0.530000   119.368973   -91.201133
 0.535000   118.921700   -88.053193
 0.540000   118.488441   -85.537759
 0.545000   118.066322   -83.645419
 0.550000   117.651986   -82.398624
 0.555000   117.242336   -81.735409
 0.560000   116.834632   -81.658111
 0.565000   116.425755   -81.994470
 0.570000   116.014688   -82.559260
 0.575000   115.600162   -83.372205
 0.580000   115.180966   -84.298442
 0.585000   114.757178   -85.211664
 0.590000   114.328849   -86.110928
 0.595000   113.896068   -86.965076
 0.600000   113.459198   -87.764117
 0.605000   113.018427   -88.462510
 0.610000   112.574573   -88.987472
 0.615000   112.128552   -89.395535
 0.620000   111.680618   -89.680666
 0.625000   111.231746   -90.008185
 0.630000   110.780536   -90.592599
 0.635000   110.325820   -91.436670
 0.640000   109.866169   -92.668421
 0.645000   109.399136   -94.440335
 0.650000   108.921766   -96.802776
 0.655000   108.431108   -99.732730
 0.660000   107.924439   -103.167625
 0.665000   107.399432   -107.050760
 0.670000   106.853931   -111.281564
 0.675000   106.286616   -115.479428
 0.680000   105.699137   -119.421315
 0.685000   105.092403   -123.053393
 0.690000   104.468603   -126.235111
 0.695000   103.830052   -128.940278
 0.700000   103.179200   -131.065963
 0.705000   102.519392   -132.531506
 0.710000   101.853885   -133.342556
 0.715000   101.185966   -133.544547
 0.720000   100.518439   -133.246702
 0.725000   99.853499   -132.510691
 0.730000   99.193332   -131.241047
 0.735000   98.541089   -129.771416
 0.740000   97.895618   -128.556945
 0.745000   97.255519   -127.999292
 0.750000   96.615625   -128.658780
 0.755000   95.968932   -130.829197
 0.760000   95.307333   -135.161478
 0.765000   94.617317   -141.440127
 0.770000   93.892932   -149.017495
 0.775000   93.127142   -157.842472
 0.780000   92.314507   -167.521672
 0.785000   91.451925   -177.914581
 0.790000   90.535362   -189.552455
 0.795000   89.556401   -201.778612
 0.800000   88.517576   -213.939829
 0.805000   87.417002   -226.433541
 0.810000   86.253240   -239.117499
 0.815000   85.025827   -251.879032
 0.820000   83.734450   -264.228343
 0.825000   82.383544   -275.675808
 0.830000   80.977692   -286.447647
 0.835000   79.519068   -297.029389
 0.840000   78.007398   -308.251010
 0.845000   76.436557   -320.928502
 0.850000   74.798113   -335.812169
 0.855000   73.078436   -354.903105
 0.860000   71.249082   -380.054886
 0.865000   69.277887   -412.324912
 0.870000   67.125833   -451.961235
 0.875000   64.758275   -498.664584
 0.880000   62.139187   -554.288469
 0.885000   59.215390   -617.224790
 0.890000   55.966939   -680.406693
 0.895000   52.411323   -739.504013
 0.900000   48.571899   -790.749197
 0.905000   44.503831   -829.535887
 0.910000   40.276540   -852.883069
 0.915000   35.975000   -856.317816
 0.920000   31.713362   -837.343734
 0.925000   27.601563   -797.626324
 0.930000   23.737098   -740.209441
 0.935000   20.199468   -668.747895
 0.940000   17.049620   -586.511148
 0.945000   14.334357   -497.634205
 0.950000   12.073277   -408.771472
 0.955000   10.246642   -324.013023
 0.960000   8.833147   -244.713073
 0.965000   7.799512   -172.537024
 0.970000   7.107777   -108.085565
 0.975000   6.718656   -51.563700
 0.980000   6.592140   -2.817981
 0.985000   6.690476   38.698110
 0.990000   6.979121   73.355730
 0.995000   7.424033   101.242289
 1.000000   7.991544   125.761955
201 psinorm vpol1(km/s) dvpol1/dpsiN
 0.000000   0.000001   9.604389
 0.005000   0.053792   11.912085
 0.010000   0.119122   14.236209
 0.015000   0.196154   16.540320
 0.020000   0.284525   18.713269
 0.025000   0.383287   20.633401
 0.030000   0.490859   22.121221
 0.035000   0.604499   23.170614
 0.040000   0.722565   23.866310
 0.045000   0.843162   24.201597
 0.050000   0.964581   24.239366
 0.055000   1.085556   24.050027
 0.060000   1.205081   23.758114
 0.065000   1.323137   23.580927
 0.070000   1.440891   23.556403
 0.075000   1.558701   23.592649
 0.080000   1.676817   23.660220
 0.085000   1.795303   23.707814
 0.090000   1.913895   23.704859
 0.095000   2.032352   23.668966
 0.100000   2.150585   23.606001
 0.105000   2.268412   23.506292
 0.110000   2.385648   23.370342
 0.115000   2.502115   23.197483
 0.120000   2.617623   22.990590
 0.125000   2.732021   22.751959
 0.130000   2.845142   22.477595
 0.135000   2.956797   22.164788
 0.140000   3.066790   21.810966
 0.145000   3.174907   21.406450
 0.150000   3.280855   20.925756
 0.155000   3.384164   20.349810
 0.160000   3.484353   19.679983
 0.165000   3.580964   18.918007
 0.170000   3.673533   18.069561
 0.175000   3.761660   17.119987
 0.180000   3.844733   16.076842
 0.185000   3.922428   14.970588
 0.190000   3.994439   13.809362
 0.195000   4.060522   12.614454
 0.200000   4.120583   11.416988
 0.205000   4.174692   10.223594
 0.210000   4.222819   9.075351
 0.215000   4.265445   7.999149
 0.220000   4.302811   6.968952
 0.225000   4.335135   5.982786
 0.230000   4.362638   5.033592
 0.235000   4.385471   4.103462
 0.240000   4.403673   3.169782
 0.245000   4.417169   2.219152
 0.250000   4.425865   1.251203
 0.255000   4.429681   0.270116
 0.260000   4.428566   -0.717951
 0.265000   4.422501   -1.708969
 0.270000   4.411476   -2.702555
 0.275000   4.395475   -3.701230
 0.280000   4.374464   -4.708373
 0.285000   4.348392   -5.727443
 0.290000   4.317189   -6.763101
 0.295000   4.280761   -7.817941
 0.300000   4.239010   -8.887605
 0.305000   4.191885   -9.967193
 0.310000   4.139338   -11.055062
 0.315000   4.081334   -12.144176
 0.320000   4.017896   -13.228083
 0.325000   3.949053   -14.299551
 0.330000   3.874901   -15.348472
 0.335000   3.795569   -16.368123
 0.340000   3.711219   -17.352529
 0.345000   3.622043   -18.308314
 0.350000   3.528136   -19.257747
 0.355000   3.429466   -20.225428
 0.360000   3.325882   -21.221939
 0.365000   3.217246   -22.249882
 0.370000   3.103383   -23.318051
 0.375000   2.984066   -24.422366
 0.380000   2.859160   -25.575931
 0.385000   2.728307   -26.760083
 0.390000   2.591559   -27.940158
 0.395000   2.448905   -29.124369
 0.400000   2.300315   -30.295684
 0.405000   2.145948   -31.408801
 0.410000   1.986227   -32.410182
 0.415000   1.821846   -33.235291
 0.420000   1.653874   -33.853451
 0.425000   1.483312   -34.248712
 0.430000   1.311387   -34.404431
 0.435000   1.139268   -34.336113
 0.440000   0.968026   -34.024572
 0.445000   0.799022   -33.549477
 0.450000   0.632531   -32.994094
 0.455000   0.469081   -32.313920
 0.460000   0.309392   -31.581168
 0.465000   0.153269   -30.879248
 0.470000   0.000599   -30.228305
 0.475000   -0.149014   -29.732025
 0.480000   -0.296721   -29.486221
 0.485000   -0.443876   -29.624547
 0.490000   -0.592966   -30.289736
 0.495000   -0.746773   -31.536239
 0.500000   -0.908329   -33.324611
 0.505000   -1.080020   -35.423376
 0.510000   -1.262562   -37.683632
 0.515000   -1.456856   -40.212761
 0.520000   -1.664690   -42.693834
 0.525000   -1.883794   -44.892064
 0.530000   -2.113611   -46.730637
 0.535000   -2.351101   -47.909577
 0.540000   -2.592706   -48.413228
 0.545000   -2.835233   -48.228935
 0.550000   -3.074996   -47.212005
 0.555000   -3.307353   -45.349938
 0.560000   -3.528495   -42.781625
 0.565000   -3.735169   -39.672472
 0.570000   -3.925220   -36.167539
 0.575000   -4.096845   -32.365363
 0.580000   -4.248874   -28.528153
 0.585000   -4.382126   -24.785863
 0.590000   -4.496732   -21.282764
 0.595000   -4.594954   -18.187654
 0.600000   -4.678609   -15.424126
 0.605000   -4.749195   -13.027964
 0.610000   -4.808888   -11.075689
 0.615000   -4.859952   -9.510241
 0.620000   -4.903991   -8.264359
 0.625000   -4.942595   -7.264998
 0.630000   -4.976641   -6.404619
 0.635000   -5.006642   -5.616490
 0.640000   -5.032806   -4.858094
 0.645000   -5.055223   -4.116865
 0.650000   -5.073974   -3.394007
 0.655000   -5.089163   -2.691588
 0.660000   -5.100890   -2.009977
 0.665000   -5.109262   -1.350211
 0.670000   -5.114392   -0.713825
 0.675000   -5.116401   -0.101120
 0.680000   -5.115403   0.487105
 0.685000   -5.111530   1.049323
 0.690000   -5.104910   1.585337
 0.695000   -5.095676   2.094101
 0.700000   -5.083969   2.574233
 0.705000   -5.069934   3.025088
 0.710000   -5.053718   3.445982
 0.715000   -5.035474   3.835629
 0.720000   -5.015362   4.193441
 0.725000   -4.993540   4.519239
 0.730000   -4.970170   4.811890
 0.735000   -4.945421   5.075380
 0.740000   -4.919416   5.324281
 0.745000   -4.892178   5.586126
 0.750000   -4.863555   5.916932
 0.755000   -4.833009   6.334224
 0.760000   -4.800212   6.828296
 0.765000   -4.764726   7.375171
 0.770000   -4.726461   7.922097
 0.775000   -4.685505   8.451736
 0.780000   -4.641943   8.922051
 0.785000   -4.596284   9.201178
 0.790000   -4.549932   9.211211
 0.795000   -4.504172   8.909293
 0.800000   -4.460839   8.238128
 0.805000   -4.421791   7.193834
 0.810000   -4.388900   5.763955
 0.815000   -4.364151   3.964264
 0.820000   -4.349258   1.862481
 0.825000   -4.345526   -0.455324
 0.830000   -4.353811   -2.895916
 0.835000   -4.374486   -5.345758
 0.840000   -4.407268   -7.697443
 0.845000   -4.451460   -9.887423
 0.850000   -4.506143   -11.865702
 0.855000   -4.570117   -13.619663
 0.860000   -4.642339   -15.170460
 0.865000   -4.721822   -16.524269
 0.870000   -4.807582   -17.854933
 0.875000   -4.900371   -19.366484
 0.880000   -5.001247   -21.172348
 0.885000   -5.112094   -23.412410
 0.890000   -5.235371   -26.201484
 0.895000   -5.374109   -29.884301
 0.900000   -5.534214   -34.509939
 0.905000   -5.719209   -40.300702
 0.910000   -5.937221   -47.913309
 0.915000   -6.198342   -57.549066
 0.920000   -6.512712   -69.314485
 0.925000   -6.891487   -84.221993
 0.930000   -7.354932   -99.912043
 0.935000   -7.890607   -112.521666
 0.940000   -8.480148   -118.716582
 0.945000   -9.077773   -112.765170
 0.950000   -9.607800   -89.051535
 0.955000   -9.968288   -42.797008
 0.960000   -10.035770   26.978441
 0.965000   -9.698504   113.949428
 0.970000   -8.896276   206.435360
 0.975000   -7.634150   291.121869
 0.980000   -5.985057   357.044086
 0.985000   -4.063709   397.992934
 0.990000   -2.005128   413.088445
 0.995000   0.067175   407.819600
 1.000000   2.073068   394.537716
3 N Z A of ION SPECIES
 6.000000   6.000000   12.010700
 1.000000   1.000000   2.000000
 1.000000   1.000000   2.000000
