201 psinorm ne(10^20/m^3) dne/dpsiN
 0.000000   0.631912   -0.880748
 0.005000   0.627535   -0.870245
 0.010000   0.623210   -0.859809
 0.015000   0.618937   -0.849507
 0.020000   0.614715   -0.839335
 0.025000   0.610543   -0.829291
 0.030000   0.606422   -0.819375
 0.035000   0.602350   -0.809583
 0.040000   0.598326   -0.799915
 0.045000   0.594350   -0.790367
 0.050000   0.590422   -0.780939
 0.055000   0.586541   -0.771629
 0.060000   0.582706   -0.762434
 0.065000   0.578917   -0.753354
 0.070000   0.575172   -0.744386
 0.075000   0.571473   -0.735528
 0.080000   0.567817   -0.726780
 0.085000   0.564205   -0.718139
 0.090000   0.560636   -0.709603
 0.095000   0.557109   -0.701172
 0.100000   0.553624   -0.692844
 0.105000   0.550180   -0.684617
 0.110000   0.546778   -0.676489
 0.115000   0.543416   -0.668459
 0.120000   0.540093   -0.660527
 0.125000   0.536810   -0.652689
 0.130000   0.533566   -0.644945
 0.135000   0.530361   -0.637294
 0.140000   0.527193   -0.629734
 0.145000   0.524064   -0.622263
 0.150000   0.520971   -0.614881
 0.155000   0.517915   -0.607586
 0.160000   0.514895   -0.600377
 0.165000   0.511911   -0.593253
 0.170000   0.508962   -0.586211
 0.175000   0.506049   -0.579252
 0.180000   0.503170   -0.572374
 0.185000   0.500325   -0.565575
 0.190000   0.497514   -0.558854
 0.195000   0.494737   -0.552211
 0.200000   0.491992   -0.545645
 0.205000   0.489280   -0.539153
 0.210000   0.486600   -0.532735
 0.215000   0.483953   -0.526390
 0.220000   0.481337   -0.520117
 0.225000   0.478752   -0.513915
 0.230000   0.476197   -0.507782
 0.235000   0.473674   -0.501718
 0.240000   0.471180   -0.495721
 0.245000   0.468717   -0.489792
 0.250000   0.466282   -0.483928
 0.255000   0.463877   -0.478128
 0.260000   0.461501   -0.472393
 0.265000   0.459153   -0.466720
 0.270000   0.456834   -0.461109
 0.275000   0.454542   -0.455560
 0.280000   0.452278   -0.450070
 0.285000   0.450042   -0.444640
 0.290000   0.447832   -0.439267
 0.295000   0.445649   -0.433953
 0.300000   0.443492   -0.428695
 0.305000   0.441362   -0.423493
 0.310000   0.439257   -0.418345
 0.315000   0.437178   -0.413252
 0.320000   0.435125   -0.408213
 0.325000   0.433096   -0.403226
 0.330000   0.431093   -0.398290
 0.335000   0.429113   -0.393406
 0.340000   0.427159   -0.388572
 0.345000   0.425228   -0.383788
 0.350000   0.423321   -0.379052
 0.355000   0.421437   -0.374365
 0.360000   0.419577   -0.369724
 0.365000   0.417740   -0.365131
 0.370000   0.415926   -0.360583
 0.375000   0.414134   -0.356081
 0.380000   0.412365   -0.351624
 0.385000   0.410618   -0.347210
 0.390000   0.408893   -0.342840
 0.395000   0.407190   -0.338512
 0.400000   0.405508   -0.334226
 0.405000   0.403847   -0.329982
 0.410000   0.402208   -0.325778
 0.415000   0.400589   -0.321615
 0.420000   0.398992   -0.317491
 0.425000   0.397415   -0.313406
 0.430000   0.395858   -0.309359
 0.435000   0.394321   -0.305351
 0.440000   0.392804   -0.301379
 0.445000   0.391307   -0.297444
 0.450000   0.389830   -0.293545
 0.455000   0.388372   -0.289682
 0.460000   0.386933   -0.285853
 0.465000   0.385513   -0.282059
 0.470000   0.384112   -0.278299
 0.475000   0.382730   -0.274572
 0.480000   0.381367   -0.270878
 0.485000   0.380021   -0.267217
 0.490000   0.378694   -0.263587
 0.495000   0.377386   -0.259989
 0.500000   0.376095   -0.256421
 0.505000   0.374821   -0.252884
 0.510000   0.373566   -0.249377
 0.515000   0.372328   -0.245899
 0.520000   0.371107   -0.242450
 0.525000   0.369903   -0.239030
 0.530000   0.368716   -0.235637
 0.535000   0.367547   -0.232273
 0.540000   0.366394   -0.228935
 0.545000   0.365257   -0.225624
 0.550000   0.364137   -0.222339
 0.555000   0.363034   -0.219080
 0.560000   0.361947   -0.215847
 0.565000   0.360875   -0.212638
 0.570000   0.359820   -0.209454
 0.575000   0.358781   -0.206295
 0.580000   0.357757   -0.203158
 0.585000   0.356749   -0.200046
 0.590000   0.355757   -0.196956
 0.595000   0.354780   -0.193889
 0.600000   0.353818   -0.190844
 0.605000   0.352871   -0.187820
 0.610000   0.351940   -0.184818
 0.615000   0.351023   -0.181837
 0.620000   0.350121   -0.178877
 0.625000   0.349234   -0.175937
 0.630000   0.348362   -0.173017
 0.635000   0.347504   -0.170116
 0.640000   0.346661   -0.167235
 0.645000   0.345832   -0.164372
 0.650000   0.345017   -0.161528
 0.655000   0.344217   -0.158703
 0.660000   0.343430   -0.155894
 0.665000   0.342658   -0.153104
 0.670000   0.341899   -0.150330
 0.675000   0.341154   -0.147574
 0.680000   0.340423   -0.144833
 0.685000   0.339706   -0.142109
 0.690000   0.339002   -0.139401
 0.695000   0.338312   -0.136708
 0.700000   0.337635   -0.134030
 0.705000   0.336972   -0.131367
 0.710000   0.336322   -0.128719
 0.715000   0.335685   -0.126085
 0.720000   0.335061   -0.123464
 0.725000   0.334450   -0.120858
 0.730000   0.333852   -0.118264
 0.735000   0.333267   -0.115684
 0.740000   0.332695   -0.113117
 0.745000   0.332136   -0.110561
 0.750000   0.331590   -0.108018
 0.755000   0.331056   -0.105487
 0.760000   0.330535   -0.102967
 0.765000   0.330026   -0.100459
 0.770000   0.329530   -0.097961
 0.775000   0.329047   -0.095474
 0.780000   0.328575   -0.092998
 0.785000   0.328117   -0.090532
 0.790000   0.327670   -0.088075
 0.795000   0.327236   -0.085628
 0.800000   0.326814   -0.083190
 0.805000   0.326404   -0.080762
 0.810000   0.326006   -0.078341
 0.815000   0.325621   -0.075929
 0.820000   0.325247   -0.073524
 0.825000   0.324885   -0.071127
 0.830000   0.324536   -0.068735
 0.835000   0.324198   -0.066348
 0.840000   0.323872   -0.063963
 0.845000   0.323558   -0.061576
 0.850000   0.323256   -0.059183
 0.855000   0.322967   -0.056774
 0.860000   0.322689   -0.054334
 0.865000   0.322423   -0.051842
 0.870000   0.322170   -0.049265
 0.875000   0.321931   -0.046553
 0.880000   0.321705   -0.043638
 0.885000   0.321494   -0.040433
 0.890000   0.321300   -0.036850
 0.895000   0.321126   -0.032855
 0.900000   0.320972   -0.028608
 0.905000   0.320840   -0.024813
 0.910000   0.320724   -0.023489
 0.915000   0.320605   -0.029620
 0.920000   0.320428   -0.054516
 0.925000   0.320060   -0.122201
 0.930000   0.319206   -0.280191
 0.935000   0.317258   -0.613049
 0.940000   0.313075   -1.244442
 0.945000   0.304813   -2.285063
 0.950000   0.290224   -3.675798
 0.955000   0.268055   -5.015569
 0.960000   0.240069   -5.703568
 0.965000   0.211020   -5.457509
 0.970000   0.185494   -4.567784
 0.975000   0.165342   -3.539702
 0.980000   0.150097   -2.684831
 0.985000   0.138493   -2.072337
 0.990000   0.129373   -1.657610
 0.995000   0.121917   -1.377052
 1.000000   0.115603   -1.148778
201 psinorm te(KeV) dte/dpsiN
 0.000000   3.717800   -2.622988
 0.005000   3.704634   -2.643318
 0.010000   3.691367   -2.663505
 0.015000   3.677999   -2.683405
 0.020000   3.664532   -2.703018
 0.025000   3.650969   -2.722343
 0.030000   3.637309   -2.741376
 0.035000   3.623555   -2.760119
 0.040000   3.609708   -2.778569
 0.045000   3.595769   -2.796725
 0.050000   3.581741   -2.814587
 0.055000   3.567623   -2.832153
 0.060000   3.553419   -2.849422
 0.065000   3.539129   -2.866394
 0.070000   3.524755   -2.883067
 0.075000   3.510298   -2.899441
 0.080000   3.495761   -2.915515
 0.085000   3.481143   -2.931289
 0.090000   3.466448   -2.946761
 0.095000   3.451676   -2.961932
 0.100000   3.436829   -2.976800
 0.105000   3.421908   -2.991365
 0.110000   3.406915   -3.005627
 0.115000   3.391851   -3.019586
 0.120000   3.376719   -3.033240
 0.125000   3.361519   -3.046590
 0.130000   3.346253   -3.059635
 0.135000   3.330923   -3.072376
 0.140000   3.315529   -3.084812
 0.145000   3.300075   -3.096943
 0.150000   3.284560   -3.108769
 0.155000   3.268987   -3.120290
 0.160000   3.253357   -3.131506
 0.165000   3.237672   -3.142417
 0.170000   3.221933   -3.153024
 0.175000   3.206142   -3.163326
 0.180000   3.190300   -3.173324
 0.185000   3.174408   -3.183018
 0.190000   3.158469   -3.192408
 0.195000   3.142484   -3.201496
 0.200000   3.126454   -3.210280
 0.205000   3.110381   -3.218763
 0.210000   3.094267   -3.226944
 0.215000   3.078112   -3.234824
 0.220000   3.061919   -3.242403
 0.225000   3.045688   -3.249682
 0.230000   3.029422   -3.256663
 0.235000   3.013121   -3.263345
 0.240000   2.996788   -3.269729
 0.245000   2.980424   -3.275817
 0.250000   2.964030   -3.281609
 0.255000   2.947608   -3.287106
 0.260000   2.931159   -3.292310
 0.265000   2.914685   -3.297220
 0.270000   2.898187   -3.301839
 0.275000   2.881667   -3.306167
 0.280000   2.865125   -3.310205
 0.285000   2.848564   -3.313955
 0.290000   2.831986   -3.317418
 0.295000   2.815390   -3.320594
 0.300000   2.798780   -3.323486
 0.305000   2.782155   -3.326095
 0.310000   2.765519   -3.328422
 0.315000   2.748871   -3.330469
 0.320000   2.732214   -3.332236
 0.325000   2.715549   -3.333726
 0.330000   2.698877   -3.334939
 0.335000   2.682199   -3.335878
 0.340000   2.665518   -3.336544
 0.345000   2.648834   -3.336939
 0.350000   2.632149   -3.337064
 0.355000   2.615463   -3.336921
 0.360000   2.598779   -3.336512
 0.365000   2.582098   -3.335838
 0.370000   2.565421   -3.334901
 0.375000   2.548749   -3.333704
 0.380000   2.532084   -3.332247
 0.385000   2.515427   -3.330533
 0.390000   2.498779   -3.328564
 0.395000   2.482141   -3.326341
 0.400000   2.465515   -3.323867
 0.405000   2.448902   -3.321143
 0.410000   2.432304   -3.318172
 0.415000   2.415721   -3.314956
 0.420000   2.399154   -3.311496
 0.425000   2.382606   -3.307794
 0.430000   2.366076   -3.303854
 0.435000   2.349567   -3.299676
 0.440000   2.333080   -3.295264
 0.445000   2.316615   -3.290619
 0.450000   2.300173   -3.285743
 0.455000   2.283757   -3.280639
 0.460000   2.267367   -3.275309
 0.465000   2.251004   -3.269755
 0.470000   2.234669   -3.263980
 0.475000   2.218364   -3.257985
 0.480000   2.202090   -3.251773
 0.485000   2.185847   -3.245347
 0.490000   2.169636   -3.238709
 0.495000   2.153459   -3.231861
 0.500000   2.137318   -3.224805
 0.505000   2.121211   -3.217545
 0.510000   2.105142   -3.210081
 0.515000   2.089111   -3.202418
 0.520000   2.073118   -3.194557
 0.525000   2.057165   -3.186500
 0.530000   2.041253   -3.178251
 0.535000   2.025383   -3.169811
 0.540000   2.009555   -3.161184
 0.545000   1.993771   -3.152371
 0.550000   1.978031   -3.143375
 0.555000   1.962337   -3.134199
 0.560000   1.946689   -3.124845
 0.565000   1.931089   -3.115316
 0.570000   1.915536   -3.105614
 0.575000   1.900032   -3.095742
 0.580000   1.884579   -3.085702
 0.585000   1.869175   -3.075498
 0.590000   1.853824   -3.065131
 0.595000   1.838524   -3.054603
 0.600000   1.823278   -3.043919
 0.605000   1.808085   -3.033080
 0.610000   1.792947   -3.022089
 0.615000   1.777864   -3.010948
 0.620000   1.762837   -2.999659
 0.625000   1.747867   -2.988227
 0.630000   1.732955   -2.976652
 0.635000   1.718101   -2.964938
 0.640000   1.703306   -2.953087
 0.645000   1.688570   -2.941102
 0.650000   1.673895   -2.928985
 0.655000   1.659280   -2.916738
 0.660000   1.644727   -2.904364
 0.665000   1.630236   -2.891865
 0.670000   1.615809   -2.879243
 0.675000   1.601444   -2.866502
 0.680000   1.587144   -2.853642
 0.685000   1.572908   -2.840665
 0.690000   1.558737   -2.827575
 0.695000   1.544632   -2.814371
 0.700000   1.530593   -2.801055
 0.705000   1.516621   -2.787629
 0.710000   1.502717   -2.774094
 0.715000   1.488880   -2.760448
 0.720000   1.475112   -2.746692
 0.725000   1.461413   -2.732825
 0.730000   1.447784   -2.718845
 0.735000   1.434225   -2.704748
 0.740000   1.420737   -2.690530
 0.745000   1.407320   -2.676186
 0.750000   1.393975   -2.661705
 0.755000   1.380703   -2.647079
 0.760000   1.367504   -2.632293
 0.765000   1.354380   -2.617330
 0.770000   1.341331   -2.602168
 0.775000   1.328358   -2.586780
 0.780000   1.315463   -2.571132
 0.785000   1.302647   -2.555184
 0.790000   1.289911   -2.538885
 0.795000   1.277258   -2.522175
 0.800000   1.264689   -2.504983
 0.805000   1.252208   -2.487224
 0.810000   1.239817   -2.468800
 0.815000   1.227520   -2.449598
 0.820000   1.215321   -2.429491
 0.825000   1.203225   -2.408342
 0.830000   1.191238   -2.386005
 0.835000   1.179365   -2.362338
 0.840000   1.167614   -2.337218
 0.845000   1.155993   -2.310566
 0.850000   1.144509   -2.282388
 0.855000   1.133169   -2.252833
 0.860000   1.121980   -2.222290
 0.865000   1.110946   -2.191517
 0.870000   1.100065   -2.161842
 0.875000   1.089328   -2.135448
 0.880000   1.078711   -2.115780
 0.885000   1.068170   -2.108124
 0.890000   1.057629   -2.120407
 0.895000   1.046966   -2.164295
 0.900000   1.035986   -2.256643
 0.905000   1.024399   -2.421325
 0.910000   1.011773   -2.691370
 0.915000   0.997486   -3.111069
 0.920000   0.980663   -3.737231
 0.925000   0.960113   -4.637873
 0.930000   0.934284   -5.885295
 0.935000   0.901260   -7.539052
 0.940000   0.858893   -9.614073
 0.945000   0.805120   -12.033250
 0.950000   0.738561   -14.576315
 0.955000   0.659357   -16.858180
 0.960000   0.569979   -18.385615
 0.965000   0.475500   -18.718416
 0.970000   0.382795   -17.680210
 0.975000   0.298698   -15.479611
 0.980000   0.227999   -12.629280
 0.985000   0.172406   -9.707863
 0.990000   0.130920   -7.137078
 0.995000   0.101035   -5.101813
 1.000000   0.079902   -3.351296
201 psinorm ni(10^20/m^3) dni/dpsiN
 0.000000   0.414623   -0.999167
 0.005000   0.409841   -0.913846
 0.010000   0.405485   -0.840943
 0.015000   0.401431   -0.783531
 0.020000   0.397650   -0.731524
 0.025000   0.394116   -0.683934
 0.030000   0.390810   -0.640492
 0.035000   0.387711   -0.600944
 0.040000   0.384801   -0.564857
 0.045000   0.382063   -0.531271
 0.050000   0.379488   -0.500478
 0.055000   0.377058   -0.472642
 0.060000   0.374762   -0.447218
 0.065000   0.372586   -0.423866
 0.070000   0.370523   -0.402702
 0.075000   0.368559   -0.383609
 0.080000   0.366687   -0.365961
 0.085000   0.364899   -0.350148
 0.090000   0.363185   -0.335956
 0.095000   0.361539   -0.323069
 0.100000   0.359955   -0.311409
 0.105000   0.358425   -0.301129
 0.110000   0.356943   -0.291988
 0.115000   0.355505   -0.283680
 0.120000   0.354107   -0.276352
 0.125000   0.352742   -0.269895
 0.130000   0.351408   -0.264237
 0.135000   0.350100   -0.259323
 0.140000   0.348814   -0.255012
 0.145000   0.347549   -0.251281
 0.150000   0.346302   -0.248209
 0.155000   0.345067   -0.245730
 0.160000   0.343844   -0.243709
 0.165000   0.342630   -0.242115
 0.170000   0.341423   -0.240963
 0.175000   0.340221   -0.240220
 0.180000   0.339021   -0.240073
 0.185000   0.337820   -0.240557
 0.190000   0.336615   -0.241146
 0.195000   0.335408   -0.241733
 0.200000   0.334198   -0.242440
 0.205000   0.332984   -0.243130
 0.210000   0.331767   -0.243756
 0.215000   0.330547   -0.244291
 0.220000   0.329324   -0.244816
 0.225000   0.328098   -0.245524
 0.230000   0.326869   -0.246071
 0.235000   0.325638   -0.246329
 0.240000   0.324405   -0.246634
 0.245000   0.323171   -0.247012
 0.250000   0.321935   -0.247519
 0.255000   0.320696   -0.248600
 0.260000   0.319449   -0.249835
 0.265000   0.318198   -0.250853
 0.270000   0.316941   -0.252146
 0.275000   0.315676   -0.253758
 0.280000   0.314403   -0.255965
 0.285000   0.313117   -0.258533
 0.290000   0.311818   -0.260912
 0.295000   0.310508   -0.263205
 0.300000   0.309186   -0.265537
 0.305000   0.307852   -0.268106
 0.310000   0.306505   -0.270646
 0.315000   0.305146   -0.272822
 0.320000   0.303776   -0.274682
 0.325000   0.302399   -0.276207
 0.330000   0.301014   -0.277639
 0.335000   0.299623   -0.278763
 0.340000   0.298227   -0.279457
 0.345000   0.296828   -0.279973
 0.350000   0.295427   -0.280493
 0.355000   0.294023   -0.281066
 0.360000   0.292616   -0.281498
 0.365000   0.291208   -0.281822
 0.370000   0.289798   -0.282149
 0.375000   0.288387   -0.282573
 0.380000   0.286972   -0.282935
 0.385000   0.285557   -0.283117
 0.390000   0.284141   -0.283232
 0.395000   0.282725   -0.283326
 0.400000   0.281308   -0.283304
 0.405000   0.279892   -0.283031
 0.410000   0.278478   -0.282556
 0.415000   0.277066   -0.281934
 0.420000   0.275658   -0.281171
 0.425000   0.274255   -0.280181
 0.430000   0.272856   -0.278969
 0.435000   0.271465   -0.277610
 0.440000   0.270080   -0.276191
 0.445000   0.268703   -0.274641
 0.450000   0.267334   -0.272891
 0.455000   0.265974   -0.271009
 0.460000   0.264624   -0.269028
 0.465000   0.263284   -0.266895
 0.470000   0.261955   -0.264495
 0.475000   0.260639   -0.261786
 0.480000   0.259337   -0.258779
 0.485000   0.258051   -0.255462
 0.490000   0.256782   -0.251755
 0.495000   0.255533   -0.247643
 0.500000   0.254306   -0.243147
 0.505000   0.253102   -0.238334
 0.510000   0.251923   -0.233194
 0.515000   0.250770   -0.227707
 0.520000   0.249646   -0.221955
 0.525000   0.248551   -0.216016
 0.530000   0.247485   -0.209892
 0.535000   0.246452   -0.203571
 0.540000   0.245450   -0.197104
 0.545000   0.244481   -0.190510
 0.550000   0.243545   -0.183832
 0.555000   0.242642   -0.177016
 0.560000   0.241774   -0.170012
 0.565000   0.240942   -0.162852
 0.570000   0.240146   -0.155562
 0.575000   0.239386   -0.148153
 0.580000   0.238664   -0.140600
 0.585000   0.237980   -0.132934
 0.590000   0.237335   -0.125205
 0.595000   0.236728   -0.117465
 0.600000   0.236160   -0.109700
 0.605000   0.235631   -0.101896
 0.610000   0.235141   -0.094095
 0.615000   0.234690   -0.086306
 0.620000   0.234278   -0.078543
 0.625000   0.233905   -0.070795
 0.630000   0.233570   -0.063059
 0.635000   0.233274   -0.055367
 0.640000   0.233017   -0.047739
 0.645000   0.232797   -0.040196
 0.650000   0.232615   -0.032733
 0.655000   0.232470   -0.025399
 0.660000   0.232361   -0.018279
 0.665000   0.232287   -0.011334
 0.670000   0.232248   -0.004377
 0.675000   0.232243   0.002929
 0.680000   0.232277   0.011454
 0.685000   0.232358   0.021649
 0.690000   0.232493   0.033047
 0.695000   0.232688   0.045388
 0.700000   0.232947   0.058529
 0.705000   0.233273   0.072162
 0.710000   0.233669   0.086540
 0.715000   0.234139   0.100864
 0.720000   0.234677   0.113538
 0.725000   0.235274   0.124295
 0.730000   0.235920   0.132993
 0.735000   0.236604   0.139190
 0.740000   0.237312   0.142573
 0.745000   0.238030   0.142512
 0.750000   0.238737   0.138817
 0.755000   0.239418   0.132174
 0.760000   0.240059   0.123216
 0.765000   0.240650   0.112524
 0.770000   0.241184   0.100426
 0.775000   0.241655   0.087468
 0.780000   0.242059   0.074964
 0.785000   0.242404   0.063489
 0.790000   0.242694   0.052941
 0.795000   0.242934   0.043483
 0.800000   0.243129   0.035121
 0.805000   0.243285   0.027934
 0.810000   0.243408   0.022036
 0.815000   0.243505   0.017048
 0.820000   0.243579   0.012510
 0.825000   0.243630   0.008285
 0.830000   0.243661   0.004328
 0.835000   0.243674   0.000657
 0.840000   0.243668   -0.002691
 0.845000   0.243647   -0.005722
 0.850000   0.243611   -0.008459
 0.855000   0.243562   -0.010894
 0.860000   0.243502   -0.013027
 0.865000   0.243432   -0.014795
 0.870000   0.243354   -0.016109
 0.875000   0.243271   -0.016910
 0.880000   0.243185   -0.017092
 0.885000   0.243100   -0.016503
 0.890000   0.243020   -0.014958
 0.895000   0.242950   -0.012385
 0.900000   0.242896   -0.008664
 0.905000   0.242864   -0.003958
 0.910000   0.242856   0.000415
 0.915000   0.242868   0.000696
 0.920000   0.242863   -0.012354
 0.925000   0.242744   -0.058496
 0.930000   0.242278   -0.179189
 0.935000   0.240952   -0.451309
 0.940000   0.237765   -0.988620
 0.945000   0.231066   -1.891899
 0.950000   0.218846   -3.096240
 0.955000   0.200104   -4.196415
 0.960000   0.176882   -4.618854
 0.965000   0.153915   -4.137690
 0.970000   0.135505   -3.094754
 0.975000   0.122968   -2.033149
 0.980000   0.115174   -1.268590
 0.985000   0.110282   -0.837212
 0.990000   0.106802   -0.646490
 0.995000   0.103817   -0.586185
 1.000000   0.100940   -0.564622
201 psinorm ti(KeV) dti/dpsiN
 0.000000   5.389922   0.003626
 0.005000   5.389163   -0.307261
 0.010000   5.386849   -0.623398
 0.015000   5.382929   -0.949642
 0.020000   5.377353   -1.285057
 0.025000   5.370078   -1.628418
 0.030000   5.361069   -1.978226
 0.035000   5.350296   -2.332749
 0.040000   5.337741   -2.689401
 0.045000   5.323402   -3.046327
 0.050000   5.307278   -3.402279
 0.055000   5.289379   -3.755406
 0.060000   5.269724   -4.104328
 0.065000   5.248336   -4.448059
 0.070000   5.225243   -4.784853
 0.075000   5.200487   -5.114568
 0.080000   5.174098   -5.437255
 0.085000   5.146115   -5.751075
 0.090000   5.116587   -6.054962
 0.095000   5.085565   -6.348221
 0.100000   5.053105   -6.629362
 0.105000   5.019272   -6.899378
 0.110000   4.984111   -7.160727
 0.115000   4.947664   -7.413402
 0.120000   4.909977   -7.656916
 0.125000   4.871095   -7.890523
 0.130000   4.831072   -8.112602
 0.135000   4.789969   -8.320986
 0.140000   4.747862   -8.514422
 0.145000   4.704825   -8.692559
 0.150000   4.660936   -8.854933
 0.155000   4.616276   -9.001070
 0.160000   4.570925   -9.129984
 0.165000   4.524976   -9.241041
 0.170000   4.478515   -9.335335
 0.175000   4.431622   -9.413587
 0.180000   4.384379   -9.476105
 0.185000   4.336861   -9.524241
 0.190000   4.289137   -9.559927
 0.195000   4.241262   -9.586672
 0.200000   4.193270   -9.606799
 0.205000   4.145194   -9.619986
 0.210000   4.097070   -9.626141
 0.215000   4.048933   -9.625528
 0.220000   4.000815   -9.619409
 0.225000   3.952739   -9.609905
 0.230000   3.904716   -9.591544
 0.235000   3.856823   -9.559290
 0.240000   3.809123   -9.513972
 0.245000   3.761683   -9.454795
 0.250000   3.714575   -9.382128
 0.255000   3.667862   -9.297072
 0.260000   3.621604   -9.196927
 0.265000   3.575893   -9.080914
 0.270000   3.530795   -8.951641
 0.275000   3.486376   -8.809404
 0.280000   3.442701   -8.654096
 0.285000   3.399836   -8.480969
 0.290000   3.357891   -8.288813
 0.295000   3.316947   -8.081736
 0.300000   3.277074   -7.863240
 0.305000   3.238315   -7.639093
 0.310000   3.200683   -7.415566
 0.315000   3.164159   -7.196525
 0.320000   3.128718   -6.990933
 0.325000   3.094250   -6.801924
 0.330000   3.060699   -6.624101
 0.335000   3.028009   -6.457034
 0.340000   2.996128   -6.300123
 0.345000   2.965008   -6.157870
 0.350000   2.934550   -6.026315
 0.355000   2.904745   -5.896755
 0.360000   2.875582   -5.767966
 0.365000   2.847065   -5.636690
 0.370000   2.819215   -5.499325
 0.375000   2.792072   -5.354454
 0.380000   2.765671   -5.197144
 0.385000   2.740100   -5.026231
 0.390000   2.715408   -4.847410
 0.395000   2.691626   -4.663329
 0.400000   2.668775   -4.476123
 0.405000   2.646865   -4.285181
 0.410000   2.625923   -4.094977
 0.415000   2.605915   -3.913415
 0.420000   2.586789   -3.740960
 0.425000   2.568506   -3.576545
 0.430000   2.551024   -3.420451
 0.435000   2.534301   -3.270616
 0.440000   2.518317   -3.128773
 0.445000   2.503013   -3.000108
 0.450000   2.488316   -2.884018
 0.455000   2.474173   -2.778639
 0.460000   2.460530   -2.683982
 0.465000   2.447333   -2.599702
 0.470000   2.434533   -2.526850
 0.475000   2.422065   -2.465937
 0.480000   2.409874   -2.414222
 0.485000   2.397923   -2.368763
 0.490000   2.386186   -2.327650
 0.495000   2.374646   -2.289557
 0.500000   2.363290   -2.254139
 0.505000   2.352105   -2.222017
 0.510000   2.341070   -2.193581
 0.515000   2.330169   -2.168677
 0.520000   2.319383   -2.147178
 0.525000   2.308697   -2.128806
 0.530000   2.298095   -2.113132
 0.535000   2.287566   -2.100625
 0.540000   2.277089   -2.091520
 0.545000   2.266651   -2.085288
 0.550000   2.256236   -2.081796
 0.555000   2.245833   -2.080847
 0.560000   2.235428   -2.082151
 0.565000   2.225011   -2.086116
 0.570000   2.214567   -2.092815
 0.575000   2.204083   -2.101709
 0.580000   2.193550   -2.112719
 0.585000   2.182956   -2.125860
 0.590000   2.172291   -2.141920
 0.595000   2.161537   -2.160966
 0.600000   2.150681   -2.182297
 0.605000   2.139714   -2.205758
 0.610000   2.128624   -2.231072
 0.615000   2.117403   -2.257926
 0.620000   2.106044   -2.287482
 0.625000   2.094528   -2.317938
 0.630000   2.082865   -2.347066
 0.635000   2.071057   -2.375617
 0.640000   2.059109   -2.403206
 0.645000   2.047025   -2.429369
 0.650000   2.034815   -2.454807
 0.655000   2.022477   -2.479120
 0.660000   2.010024   -2.502076
 0.665000   1.997457   -2.524788
 0.670000   1.984776   -2.546865
 0.675000   1.971988   -2.567297
 0.680000   1.959103   -2.585205
 0.685000   1.946136   -2.598067
 0.690000   1.933122   -2.604698
 0.695000   1.920089   -2.606783
 0.700000   1.907055   -2.605212
 0.705000   1.894037   -2.600496
 0.710000   1.881050   -2.592584
 0.715000   1.868111   -2.581689
 0.720000   1.855233   -2.568726
 0.725000   1.842424   -2.554062
 0.730000   1.829692   -2.537810
 0.735000   1.817046   -2.520331
 0.740000   1.804489   -2.501919
 0.745000   1.792026   -2.484942
 0.750000   1.779639   -2.472581
 0.755000   1.767301   -2.465244
 0.760000   1.754987   -2.461947
 0.765000   1.742681   -2.461449
 0.770000   1.730373   -2.462603
 0.775000   1.718055   -2.463569
 0.780000   1.705737   -2.462178
 0.785000   1.693433   -2.458577
 0.790000   1.681151   -2.453689
 0.795000   1.668896   -2.447704
 0.800000   1.656674   -2.441027
 0.805000   1.644486   -2.435476
 0.810000   1.632319   -2.434059
 0.815000   1.620146   -2.438303
 0.820000   1.607936   -2.448355
 0.825000   1.595662   -2.464241
 0.830000   1.583294   -2.486254
 0.835000   1.570799   -2.514795
 0.840000   1.558146   -2.547970
 0.845000   1.545320   -2.588173
 0.850000   1.532264   -2.641626
 0.855000   1.518903   -2.711525
 0.860000   1.505149   -2.801024
 0.865000   1.490893   -2.919726
 0.870000   1.475952   -3.058793
 0.875000   1.460305   -3.209237
 0.880000   1.443859   -3.379045
 0.885000   1.426515   -3.569293
 0.890000   1.408166   -3.782310
 0.895000   1.388692   -4.044980
 0.900000   1.367717   -4.353606
 0.905000   1.345156   -4.696222
 0.910000   1.320754   -5.092744
 0.915000   1.294228   -5.549426
 0.920000   1.265260   -6.073125
 0.925000   1.233497   -6.712114
 0.930000   1.198139   -7.427319
 0.935000   1.159224   -8.157696
 0.940000   1.116562   -8.920327
 0.945000   1.070021   -9.696058
 0.950000   1.019601   -10.453214
 0.955000   0.965488   -11.179573
 0.960000   0.907806   -11.787920
 0.965000   0.847609   -12.189696
 0.970000   0.785909   -12.378713
 0.975000   0.723822   -12.331587
 0.980000   0.662593   -12.032034
 0.985000   0.603502   -11.472092
 0.990000   0.547872   -10.667544
 0.995000   0.496826   -9.680946
 1.000000   0.451062   -8.624592
201 psinorm nb(10^20/m^3) dnb/dpsiN
 0.000000   0.082531   0.118384
 0.005000   0.082950   0.049147
 0.010000   0.083022   -0.007696
 0.015000   0.082873   -0.049104
 0.020000   0.082531   -0.085184
 0.025000   0.082021   -0.116941
 0.030000   0.081362   -0.144672
 0.035000   0.080574   -0.168653
 0.040000   0.079675   -0.189349
 0.045000   0.078681   -0.207738
 0.050000   0.077598   -0.223535
 0.055000   0.076445   -0.236599
 0.060000   0.075232   -0.247494
 0.065000   0.073970   -0.256575
 0.070000   0.072666   -0.263752
 0.075000   0.071333   -0.269127
 0.080000   0.069975   -0.273305
 0.085000   0.068600   -0.275899
 0.090000   0.067216   -0.277127
 0.095000   0.065829   -0.277300
 0.100000   0.064443   -0.276483
 0.105000   0.063064   -0.274537
 0.110000   0.061698   -0.271741
 0.115000   0.060346   -0.268430
 0.120000   0.059013   -0.264467
 0.125000   0.057702   -0.259965
 0.130000   0.056414   -0.254993
 0.135000   0.055152   -0.249604
 0.140000   0.053918   -0.243947
 0.145000   0.052712   -0.238051
 0.150000   0.051537   -0.231839
 0.155000   0.050394   -0.225383
 0.160000   0.049283   -0.218824
 0.165000   0.048206   -0.212217
 0.170000   0.047161   -0.205572
 0.175000   0.046150   -0.198930
 0.180000   0.045172   -0.192105
 0.185000   0.044229   -0.185057
 0.190000   0.043321   -0.178320
 0.195000   0.042446   -0.171985
 0.200000   0.041601   -0.165797
 0.205000   0.040788   -0.159778
 0.210000   0.040004   -0.153940
 0.215000   0.039248   -0.148279
 0.220000   0.038521   -0.142699
 0.225000   0.037821   -0.136985
 0.230000   0.037151   -0.131593
 0.235000   0.036505   -0.126742
 0.240000   0.035884   -0.122086
 0.245000   0.035285   -0.117627
 0.250000   0.034707   -0.113326
 0.255000   0.034151   -0.108741
 0.260000   0.033620   -0.104419
 0.265000   0.033107   -0.100803
 0.270000   0.032612   -0.097349
 0.275000   0.032134   -0.094018
 0.280000   0.031672   -0.090523
 0.285000   0.031228   -0.087142
 0.290000   0.030800   -0.084319
 0.295000   0.030385   -0.081790
 0.300000   0.029982   -0.079401
 0.305000   0.029591   -0.076888
 0.310000   0.029213   -0.074458
 0.315000   0.028847   -0.072464
 0.320000   0.028489   -0.070686
 0.325000   0.028140   -0.069007
 0.330000   0.027799   -0.067264
 0.335000   0.027467   -0.065682
 0.340000   0.027142   -0.064406
 0.345000   0.026823   -0.063206
 0.350000   0.026510   -0.061977
 0.355000   0.026203   -0.060750
 0.360000   0.025902   -0.059727
 0.365000   0.025606   -0.058866
 0.370000   0.025314   -0.058047
 0.375000   0.025026   -0.057162
 0.380000   0.024742   -0.056357
 0.385000   0.024462   -0.055731
 0.390000   0.024185   -0.055134
 0.395000   0.023911   -0.054492
 0.400000   0.023640   -0.053873
 0.405000   0.023372   -0.053381
 0.410000   0.023106   -0.052940
 0.415000   0.022842   -0.052476
 0.420000   0.022581   -0.051977
 0.425000   0.022323   -0.051531
 0.430000   0.022066   -0.051146
 0.435000   0.021811   -0.050761
 0.440000   0.021558   -0.050317
 0.445000   0.021308   -0.049891
 0.450000   0.021059   -0.049544
 0.455000   0.020813   -0.049200
 0.460000   0.020567   -0.048810
 0.465000   0.020325   -0.048416
 0.470000   0.020083   -0.048088
 0.475000   0.019844   -0.047783
 0.480000   0.019605   -0.047453
 0.485000   0.019369   -0.047099
 0.490000   0.019134   -0.046782
 0.495000   0.018901   -0.046501
 0.500000   0.018669   -0.046218
 0.505000   0.018439   -0.045888
 0.510000   0.018211   -0.045562
 0.515000   0.017983   -0.045286
 0.520000   0.017758   -0.045013
 0.525000   0.017533   -0.044693
 0.530000   0.017311   -0.044351
 0.535000   0.017090   -0.044053
 0.540000   0.016870   -0.043778
 0.545000   0.016652   -0.043497
 0.550000   0.016435   -0.043175
 0.555000   0.016220   -0.042863
 0.560000   0.016007   -0.042602
 0.565000   0.015794   -0.042347
 0.570000   0.015583   -0.042073
 0.575000   0.015374   -0.041787
 0.580000   0.015165   -0.041534
 0.585000   0.014958   -0.041311
 0.590000   0.014752   -0.041098
 0.595000   0.014547   -0.040871
 0.600000   0.014344   -0.040659
 0.605000   0.014141   -0.040489
 0.610000   0.013939   -0.040332
 0.615000   0.013737   -0.040184
 0.620000   0.013537   -0.040034
 0.625000   0.013337   -0.039897
 0.630000   0.013138   -0.039794
 0.635000   0.012939   -0.039709
 0.640000   0.012741   -0.039637
 0.645000   0.012543   -0.039576
 0.650000   0.012345   -0.039532
 0.655000   0.012147   -0.039509
 0.660000   0.011950   -0.039500
 0.665000   0.011752   -0.039504
 0.670000   0.011555   -0.039519
 0.675000   0.011357   -0.039551
 0.680000   0.011159   -0.039598
 0.685000   0.010961   -0.039653
 0.690000   0.010763   -0.039716
 0.695000   0.010564   -0.039789
 0.700000   0.010365   -0.039874
 0.705000   0.010165   -0.039970
 0.710000   0.009965   -0.040066
 0.715000   0.009765   -0.040154
 0.720000   0.009564   -0.040240
 0.725000   0.009362   -0.040321
 0.730000   0.009160   -0.040397
 0.735000   0.008958   -0.040471
 0.740000   0.008756   -0.040532
 0.745000   0.008553   -0.040576
 0.750000   0.008350   -0.040609
 0.755000   0.008147   -0.040628
 0.760000   0.007944   -0.040631
 0.765000   0.007741   -0.040620
 0.770000   0.007538   -0.040592
 0.775000   0.007335   -0.040550
 0.780000   0.007132   -0.040500
 0.785000   0.006930   -0.040438
 0.790000   0.006728   -0.040361
 0.795000   0.006526   -0.040270
 0.800000   0.006325   -0.040161
 0.805000   0.006124   -0.040031
 0.810000   0.005925   -0.039865
 0.815000   0.005726   -0.039671
 0.820000   0.005528   -0.039453
 0.825000   0.005331   -0.039203
 0.830000   0.005136   -0.038918
 0.835000   0.004942   -0.038597
 0.840000   0.004750   -0.038238
 0.845000   0.004560   -0.037838
 0.850000   0.004372   -0.037394
 0.855000   0.004186   -0.036906
 0.860000   0.004002   -0.036347
 0.865000   0.003822   -0.035750
 0.870000   0.003645   -0.035179
 0.875000   0.003470   -0.034650
 0.880000   0.003298   -0.034173
 0.885000   0.003129   -0.033753
 0.890000   0.002961   -0.033394
 0.895000   0.002795   -0.033105
 0.900000   0.002630   -0.032903
 0.905000   0.002466   -0.032806
 0.910000   0.002302   -0.032829
 0.915000   0.002137   -0.032960
 0.920000   0.001972   -0.033126
 0.925000   0.001806   -0.033214
 0.930000   0.001640   -0.033088
 0.935000   0.001475   -0.032586
 0.940000   0.001314   -0.031553
 0.945000   0.001160   -0.029978
 0.950000   0.001014   -0.028123
 0.955000   0.000879   -0.026389
 0.960000   0.000751   -0.024865
 0.965000   0.000630   -0.023134
 0.970000   0.000519   -0.020746
 0.975000   0.000422   -0.017746
 0.980000   0.000342   -0.014702
 0.985000   0.000275   -0.012403
 0.990000   0.000218   -0.011234
 0.995000   0.000163   -0.011310
 1.000000   0.000105   -0.012078
201 psinorm pb(KPa) dpb/dpsiN
 0.000000   33.159384   27.520828
 0.005000   33.238882   4.278458
 0.010000   33.202168   -15.836792
 0.015000   33.080514   -31.636405
 0.020000   32.885804   -45.292028
 0.025000   32.627594   -57.175610
 0.030000   32.314048   -67.462610
 0.035000   31.952968   -76.282775
 0.040000   31.551220   -83.822819
 0.045000   31.114740   -90.459812
 0.050000   30.646622   -96.094832
 0.055000   30.153791   -100.685393
 0.060000   29.639768   -104.451136
 0.065000   29.109280   -107.524956
 0.070000   28.564519   -109.881459
 0.075000   28.010465   -111.566212
 0.080000   27.448857   -112.795054
 0.085000   26.882515   -113.431148
 0.090000   26.314545   -113.563118
 0.095000   25.746884   -113.301955
 0.100000   25.181526   -112.670792
 0.105000   24.620176   -111.597878
 0.110000   24.065547   -110.213908
 0.115000   23.518037   -108.670363
 0.120000   22.978843   -106.895697
 0.125000   22.449080   -104.927035
 0.130000   21.929573   -102.790267
 0.135000   21.421177   -100.516304
 0.140000   20.924410   -98.178405
 0.145000   20.439393   -95.766425
 0.150000   19.966746   -93.214958
 0.155000   19.507243   -90.560676
 0.160000   19.061139   -87.876932
 0.165000   18.628474   -85.184889
 0.170000   18.209290   -82.487471
 0.175000   17.803599   -79.798073
 0.180000   17.411309   -77.023283
 0.185000   17.033366   -74.168513
 0.190000   16.669624   -71.466331
 0.195000   16.318703   -68.932563
 0.200000   15.980299   -66.463058
 0.205000   15.654073   -64.065165
 0.210000   15.339647   -61.742826
 0.215000   15.036644   -59.494239
 0.220000   14.744704   -57.282300
 0.225000   14.463821   -55.046769
 0.230000   14.194237   -52.940676
 0.235000   13.934414   -51.023913
 0.240000   13.683998   -49.182241
 0.245000   13.442592   -47.418840
 0.250000   13.209809   -45.718555
 0.255000   12.985407   -43.916246
 0.260000   12.770647   -42.216762
 0.265000   12.563239   -40.783862
 0.270000   12.362808   -39.411019
 0.275000   12.169129   -38.076898
 0.280000   11.982039   -36.679195
 0.285000   11.802337   -35.337048
 0.290000   11.628669   -34.214149
 0.295000   11.460195   -33.203021
 0.300000   11.296639   -32.246347
 0.305000   11.137732   -31.246049
 0.310000   10.984178   -30.279576
 0.315000   10.834936   -29.478580
 0.320000   10.689392   -28.760601
 0.325000   10.547330   -28.081404
 0.330000   10.408578   -27.400399
 0.335000   10.273326   -26.783503
 0.340000   10.140743   -26.263548
 0.345000   10.010691   -25.771030
 0.350000   9.883033   -25.269272
 0.355000   9.757998   -24.770482
 0.360000   9.635328   -24.348522
 0.365000   9.514513   -23.988027
 0.370000   9.395448   -23.644529
 0.375000   9.278067   -23.279640
 0.380000   9.162651   -22.945931
 0.385000   9.048608   -22.675718
 0.390000   8.935894   -22.414380
 0.395000   8.824464   -22.136812
 0.400000   8.714526   -21.872447
 0.405000   8.605740   -21.656958
 0.410000   8.497956   -21.458840
 0.415000   8.391151   -21.252143
 0.420000   8.285435   -21.032647
 0.425000   8.180825   -20.830943
 0.430000   8.077126   -20.650347
 0.435000   7.974321   -20.470798
 0.440000   7.872418   -20.270326
 0.445000   7.771618   -20.078210
 0.450000   7.671636   -19.914532
 0.455000   7.572473   -19.750666
 0.460000   7.474129   -19.573284
 0.465000   7.376740   -19.400252
 0.470000   7.280126   -19.253277
 0.475000   7.184207   -19.116366
 0.480000   7.088963   -18.973964
 0.485000   6.994468   -18.827910
 0.490000   6.900684   -18.696013
 0.495000   6.807507   -18.575289
 0.500000   6.714931   -18.455146
 0.505000   6.622956   -18.322237
 0.510000   6.531708   -18.192688
 0.515000   6.441029   -18.078594
 0.520000   6.350922   -17.962999
 0.525000   6.261399   -17.831858
 0.530000   6.172604   -17.693772
 0.535000   6.084461   -17.567848
 0.540000   5.996925   -17.446184
 0.545000   5.910000   -17.321978
 0.550000   5.823706   -17.185724
 0.555000   5.738142   -17.053100
 0.560000   5.653175   -16.933727
 0.565000   5.568805   -16.813683
 0.570000   5.485038   -16.686257
 0.575000   5.401943   -16.558284
 0.580000   5.319455   -16.440796
 0.585000   5.237535   -16.327814
 0.590000   5.156177   -16.216551
 0.595000   5.075369   -16.101972
 0.600000   4.995157   -15.994628
 0.605000   4.915423   -15.899730
 0.610000   4.836160   -15.805893
 0.615000   4.757364   -15.713911
 0.620000   4.679021   -15.621795
 0.625000   4.601146   -15.533713
 0.630000   4.523683   -15.454599
 0.635000   4.446600   -15.380885
 0.640000   4.369875   -15.311242
 0.645000   4.293487   -15.245339
 0.650000   4.217421   -15.184683
 0.655000   4.141641   -15.129935
 0.660000   4.066122   -15.079203
 0.665000   3.990849   -15.031754
 0.670000   3.915804   -14.988080
 0.675000   3.840968   -14.949647
 0.680000   3.766308   -14.915142
 0.685000   3.691816   -14.882455
 0.690000   3.617483   -14.852059
 0.695000   3.543296   -14.824386
 0.700000   3.469239   -14.800597
 0.705000   3.395290   -14.780173
 0.710000   3.321438   -14.758276
 0.715000   3.247707   -14.733109
 0.720000   3.174107   -14.705804
 0.725000   3.100649   -14.675917
 0.730000   3.027347   -14.643905
 0.735000   2.954210   -14.610018
 0.740000   2.881247   -14.570535
 0.745000   2.808505   -14.524131
 0.750000   2.736006   -14.473010
 0.755000   2.663775   -14.416235
 0.760000   2.591844   -14.352053
 0.765000   2.520254   -14.281898
 0.770000   2.449025   -14.205412
 0.775000   2.378200   -14.124647
 0.780000   2.307778   -14.043325
 0.785000   2.237767   -13.959470
 0.790000   2.168183   -13.871669
 0.795000   2.099050   -13.779703
 0.800000   2.030386   -13.683451
 0.805000   1.962215   -13.580778
 0.810000   1.894579   -13.466561
 0.815000   1.827550   -13.343883
 0.820000   1.761140   -13.214948
 0.825000   1.695400   -13.075899
 0.830000   1.630381   -12.926474
 0.835000   1.566136   -12.765872
 0.840000   1.502722   -12.593462
 0.845000   1.440201   -12.408311
 0.850000   1.378639   -12.209610
 0.855000   1.318105   -11.997132
 0.860000   1.258668   -11.762495
 0.865000   1.200480   -11.515314
 0.870000   1.143515   -11.273212
 0.875000   1.087748   -11.036931
 0.880000   1.033145   -10.809281
 0.885000   0.979655   -10.593012
 0.890000   0.927215   -10.390997
 0.895000   0.875745   -10.208161
 0.900000   0.825134   -10.052192
 0.905000   0.775223   -9.933052
 0.910000   0.725803   -9.860986
 0.915000   0.676613   -9.840720
 0.920000   0.627396   -9.862927
 0.925000   0.577984   -9.903512
 0.930000   0.528361   -9.924064
 0.935000   0.478743   -9.863985
 0.940000   0.429721   -9.649307
 0.945000   0.382250   -9.241889
 0.950000   0.337302   -8.710544
 0.955000   0.295145   -8.235348
 0.960000   0.254948   -7.953597
 0.965000   0.215609   -7.771142
 0.970000   0.177237   -7.418786
 0.975000   0.141421   -6.722328
 0.980000   0.110014   -5.722327
 0.985000   0.084198   -4.648289
 0.990000   0.063531   -3.729468
 0.995000   0.046903   -3.188959
 1.000000   0.031641   -2.915763
201 psinorm ptot(KPa) dptot/dpsiN
 0.000000   108.544452   -137.776773
 0.005000   107.812374   -155.054297
 0.010000   106.993909   -170.287748
 0.015000   106.109497   -182.564635
 0.020000   105.168263   -193.183654
 0.025000   104.177660   -202.427541
 0.030000   103.143987   -210.442023
 0.035000   102.073240   -217.326703
 0.040000   100.970720   -223.216962
 0.045000   99.841070   -228.398628
 0.050000   98.686734   -232.792501
 0.055000   97.513145   -236.360271
 0.060000   96.323131   -239.268181
 0.065000   95.120464   -241.615932
 0.070000   93.906972   -243.377776
 0.075000   92.686686   -244.590254
 0.080000   91.461069   -245.418189
 0.085000   90.232504   -245.746596
 0.090000   89.003603   -245.639968
 0.095000   87.776104   -245.179397
 0.100000   86.551809   -244.373224
 0.105000   85.332372   -243.167768
 0.110000   84.120132   -241.688537
 0.115000   82.915487   -240.061706
 0.120000   81.719515   -238.224020
 0.125000   80.533246   -236.199024
 0.130000   79.357524   -233.996880
 0.135000   78.193278   -231.631047
 0.140000   77.041214   -229.156331
 0.145000   75.901714   -226.558885
 0.150000   74.775625   -223.776458
 0.155000   73.663950   -220.837856
 0.160000   72.567247   -217.800690
 0.165000   71.485943   -214.680272
 0.170000   70.420444   -211.486973
 0.175000   69.371073   -208.236142
 0.180000   68.338082   -204.849482
 0.185000   67.322578   -201.342249
 0.190000   66.324660   -197.921527
 0.195000   65.343363   -194.616562
 0.200000   64.378494   -191.346984
 0.205000   63.429893   -188.110796
 0.210000   62.497386   -184.909263
 0.215000   61.580800   -181.741459
 0.220000   60.679972   -178.583376
 0.225000   59.794967   -175.399358
 0.230000   58.925978   -172.289612
 0.235000   58.072071   -169.278372
 0.240000   57.233194   -166.278676
 0.245000   56.409284   -163.291663
 0.250000   55.600278   -160.308284
 0.255000   54.806201   -157.196083
 0.260000   54.028317   -154.119787
 0.265000   53.265003   -151.217669
 0.270000   52.516140   -148.327663
 0.275000   51.781727   -145.432891
 0.280000   51.061811   -142.446123
 0.285000   50.357265   -139.448327
 0.290000   49.667328   -136.568941
 0.295000   48.991576   -133.731316
 0.300000   48.330015   -130.904905
 0.305000   47.682527   -128.033439
 0.310000   47.049681   -125.214023
 0.315000   46.430387   -122.581171
 0.320000   45.823869   -120.102766
 0.325000   45.229359   -117.750330
 0.330000   44.646366   -115.466056
 0.335000   44.074698   -113.302500
 0.340000   43.513341   -111.282885
 0.345000   42.961870   -109.371854
 0.350000   42.419622   -107.519885
 0.355000   41.886671   -105.696539
 0.360000   41.362657   -103.960262
 0.365000   40.847068   -102.281345
 0.370000   40.339843   -100.603124
 0.375000   39.841037   -98.885033
 0.380000   39.350993   -97.149362
 0.385000   38.869543   -95.418749
 0.390000   38.396805   -93.672647
 0.395000   37.932817   -91.901552
 0.400000   37.477790   -90.141568
 0.405000   37.031401   -88.420366
 0.410000   36.593586   -86.730205
 0.415000   36.164099   -85.084809
 0.420000   35.742738   -83.481639
 0.425000   35.329283   -81.942002
 0.430000   34.923318   -80.469919
 0.435000   34.524583   -79.038153
 0.440000   34.132937   -77.635316
 0.445000   33.748230   -76.310700
 0.450000   33.369830   -75.077809
 0.455000   32.997452   -73.901212
 0.460000   32.630817   -72.768113
 0.465000   32.269771   -71.691815
 0.470000   31.913899   -70.693646
 0.475000   31.562835   -69.757902
 0.480000   31.216320   -68.856673
 0.485000   30.874268   -67.977863
 0.490000   30.536542   -67.127485
 0.495000   30.202993   -66.296166
 0.500000   29.873580   -65.472582
 0.505000   29.548267   -64.648353
 0.510000   29.227096   -63.840502
 0.515000   28.909862   -63.059410
 0.520000   28.596502   -62.290236
 0.525000   28.286960   -61.520243
 0.530000   27.981300   -60.756008
 0.535000   27.679400   -60.017629
 0.540000   27.381124   -59.299709
 0.545000   27.086403   -58.593843
 0.550000   26.795185   -57.891277
 0.555000   26.507490   -57.204780
 0.560000   26.223137   -56.540973
 0.565000   25.942080   -55.888753
 0.570000   25.664250   -55.242565
 0.575000   25.389654   -54.607213
 0.580000   25.118178   -53.992398
 0.585000   24.849730   -53.393095
 0.590000   24.584247   -52.811294
 0.595000   24.321618   -52.243764
 0.600000   24.061809   -51.697598
 0.605000   23.804642   -51.176798
 0.610000   23.550041   -50.670185
 0.615000   23.297940   -50.177584
 0.620000   23.048265   -49.702140
 0.625000   22.800918   -49.240374
 0.630000   22.555862   -48.788126
 0.635000   22.313037   -48.345903
 0.640000   22.072403   -47.911440
 0.645000   21.833923   -47.483207
 0.650000   21.597570   -47.065336
 0.655000   21.363269   -46.658254
 0.660000   21.130988   -46.261426
 0.665000   20.900655   -45.877431
 0.670000   20.672214   -45.500221
 0.675000   20.445653   -45.118417
 0.680000   20.221029   -44.704864
 0.685000   19.998604   -44.236611
 0.690000   19.778663   -43.722562
 0.695000   19.561379   -43.177370
 0.700000   19.346890   -42.609961
 0.705000   19.135279   -42.030083
 0.710000   18.926589   -41.426735
 0.715000   18.721012   -40.819126
 0.720000   18.518398   -40.251258
 0.725000   18.318499   -39.729492
 0.730000   18.121103   -39.256672
 0.735000   17.925932   -38.843644
 0.740000   17.732666   -38.493593
 0.745000   17.540996   -38.227794
 0.750000   17.350388   -38.063567
 0.755000   17.160361   -37.983152
 0.760000   16.970557   -37.964185
 0.765000   16.780719   -37.988004
 0.770000   16.590677   -38.040818
 0.775000   16.400311   -38.103661
 0.780000   16.209640   -38.140768
 0.785000   16.018903   -38.137724
 0.790000   15.828263   -38.099636
 0.795000   15.637907   -38.023711
 0.800000   15.448026   -37.911646
 0.805000   15.258790   -37.767349
 0.810000   15.070352   -37.595887
 0.815000   14.882831   -37.414943
 0.820000   14.696203   -37.237080
 0.825000   14.510460   -37.061056
 0.830000   14.325592   -36.888132
 0.835000   14.141579   -36.718218
 0.840000   13.958410   -36.541560
 0.845000   13.776164   -36.366848
 0.850000   13.594742   -36.219368
 0.855000   13.413970   -36.112534
 0.860000   13.233616   -36.052773
 0.865000   13.053442   -36.091241
 0.870000   12.872704   -36.213562
 0.875000   12.691307   -36.392868
 0.880000   12.508775   -36.679342
 0.885000   12.324513   -37.103189
 0.890000   12.137743   -37.713155
 0.895000   11.947382   -38.683208
 0.900000   11.750911   -40.095037
 0.905000   11.546431   -42.050681
 0.910000   11.330404   -44.874942
 0.915000   11.097682   -48.982015
 0.920000   10.840584   -55.029852
 0.925000   10.547383   -64.235520
 0.930000   10.198229   -78.071388
 0.935000   9.766669   -98.621277
 0.940000   9.212016   -128.379023
 0.945000   8.482879   -167.386836
 0.950000   7.538148   -208.769149
 0.955000   6.395188   -236.683520
 0.960000   5.171313   -235.393707
 0.965000   4.041251   -204.638437
 0.970000   3.124928   -160.142965
 0.975000   2.439821   -118.276196
 0.980000   1.942166   -86.171962
 0.985000   1.578101   -63.707160
 0.990000   1.305095   -48.366194
 0.995000   1.094439   -37.845421
 1.000000   0.926641   -29.274094
201 psinorm omeg(kRad/s) domeg/dpsiN
 0.000000   72.432236   0.032267
 0.005000   72.431763   -0.221353
 0.010000   72.430022   -0.529061
 0.015000   72.426473   -0.956368
 0.020000   72.420459   -1.523023
 0.025000   72.411242   -2.243089
 0.030000   72.398028   -3.124116
 0.035000   72.380001   -4.164903
 0.040000   72.356379   -5.341769
 0.045000   72.326583   -6.628789
 0.050000   72.290091   -8.003463
 0.055000   72.246549   -9.430294
 0.060000   72.195788   -10.874623
 0.065000   72.137803   -12.306818
 0.070000   72.072720   -13.664421
 0.075000   72.001158   -14.963854
 0.080000   71.923081   -16.260721
 0.085000   71.838551   -17.542743
 0.090000   71.747654   -18.817238
 0.095000   71.650379   -20.103463
 0.100000   71.546619   -21.397089
 0.105000   71.436408   -22.727087
 0.110000   71.319348   -24.130161
 0.115000   71.195106   -25.596984
 0.120000   71.063378   -27.128532
 0.125000   70.923821   -28.728837
 0.130000   70.776090   -30.391563
 0.135000   70.619905   -32.107573
 0.140000   70.455014   -33.873005
 0.145000   70.281175   -35.686306
 0.150000   70.098151   -37.543550
 0.155000   69.905740   -39.434772
 0.160000   69.703804   -41.343162
 0.165000   69.492308   -43.240135
 0.170000   69.271402   -45.105362
 0.175000   69.041255   -46.931398
 0.180000   68.802088   -48.699390
 0.185000   68.554261   -50.378646
 0.190000   68.298302   -51.906279
 0.195000   68.035198   -53.201888
 0.200000   67.766283   -54.293266
 0.205000   67.492265   -55.215483
 0.210000   67.214128   -55.942110
 0.215000   66.932844   -56.478244
 0.220000   66.649346   -56.799878
 0.225000   66.364845   -56.871327
 0.230000   66.080632   -56.840238
 0.235000   65.796443   -56.771453
 0.240000   65.512918   -56.580717
 0.245000   65.230636   -56.286323
 0.250000   64.950055   -55.901440
 0.255000   64.671621   -55.429176
 0.260000   64.395763   -55.050793
 0.265000   64.121113   -54.861149
 0.270000   63.847151   -54.791224
 0.275000   63.573201   -54.865450
 0.280000   63.298497   -55.096312
 0.285000   63.022238   -55.485282
 0.290000   62.743644   -55.923542
 0.295000   62.463003   -56.308232
 0.300000   62.180562   -56.639909
 0.305000   61.896604   -56.912235
 0.310000   61.611439   -57.119834
 0.315000   61.325405   -57.260452
 0.320000   61.038835   -57.313026
 0.325000   60.752275   -57.269999
 0.330000   60.466135   -57.144947
 0.335000   60.180826   -56.937824
 0.340000   59.896757   -56.649477
 0.345000   59.614331   -56.257022
 0.350000   59.334186   -55.777915
 0.355000   59.056552   -55.247810
 0.360000   58.781708   -54.659575
 0.365000   58.509956   -54.012755
 0.370000   58.241581   -53.310054
 0.375000   57.976855   -52.522382
 0.380000   57.716357   -51.682483
 0.385000   57.460031   -50.848994
 0.390000   57.207867   -50.012606
 0.395000   56.959904   -49.183985
 0.400000   56.716027   -48.405411
 0.405000   56.475850   -47.814366
 0.410000   56.237884   -47.655497
 0.415000   55.999295   -47.992247
 0.420000   55.757961   -48.729998
 0.425000   55.511995   -49.814260
 0.430000   55.259818   -51.179658
 0.435000   55.000199   -52.935887
 0.440000   54.730460   -54.980728
 0.445000   54.450392   -56.884608
 0.450000   54.161613   -58.556130
 0.455000   53.864830   -60.049642
 0.460000   53.561117   -61.294360
 0.465000   53.251887   -62.329447
 0.470000   52.937823   -63.043709
 0.475000   52.621450   -63.134081
 0.480000   52.306482   -62.625523
 0.485000   51.995194   -61.678633
 0.490000   51.689695   -60.341341
 0.495000   51.391781   -58.690917
 0.500000   51.102786   -56.821177
 0.505000   50.823569   -54.845469
 0.510000   50.554332   -52.852287
 0.515000   50.295046   -50.881339
 0.520000   50.045518   -48.965000
 0.525000   49.805396   -47.119549
 0.530000   49.574323   -45.344706
 0.535000   49.351949   -43.722538
 0.540000   49.137097   -42.308431
 0.545000   48.928865   -41.082080
 0.550000   48.726277   -40.056809
 0.555000   48.528297   -39.238602
 0.560000   48.333891   -38.625497
 0.565000   48.142042   -38.271725
 0.570000   47.951173   -38.201748
 0.575000   47.760024   -38.382959
 0.580000   47.567344   -38.808690
 0.585000   47.371937   -39.460789
 0.590000   47.172736   -40.299827
 0.595000   46.968939   -41.292994
 0.600000   46.759806   -42.436043
 0.605000   46.544579   -43.727167
 0.610000   46.322534   -45.158813
 0.615000   46.092991   -46.721968
 0.620000   45.855315   -48.381075
 0.625000   45.609180   -50.148874
 0.630000   45.353826   -52.046738
 0.635000   45.088712   -54.047191
 0.640000   44.813354   -56.141080
 0.645000   44.527302   -58.321317
 0.650000   44.230141   -60.574210
 0.655000   43.921560   -62.929902
 0.660000   43.600842   -65.414462
 0.665000   43.267415   -67.993793
 0.670000   42.920904   -70.605699
 0.675000   42.561358   -73.140164
 0.680000   42.189502   -75.348455
 0.685000   41.807873   -77.017309
 0.690000   41.419329   -78.202116
 0.695000   41.025852   -79.028312
 0.700000   40.629046   -79.584272
 0.705000   40.230010   -79.969331
 0.710000   39.829353   -80.198436
 0.715000   39.428025   -80.421292
 0.720000   39.025140   -80.816346
 0.725000   38.619862   -81.342412
 0.730000   38.211716   -81.973296
 0.735000   37.800129   -82.730122
 0.740000   37.384414   -83.737984
 0.745000   36.962749   -85.275985
 0.750000   36.531654   -87.438132
 0.755000   36.088368   -90.141592
 0.760000   35.630239   -93.270420
 0.765000   35.155663   -96.579427
 0.770000   34.664444   -99.976539
 0.775000   34.155898   -103.152923
 0.780000   33.632915   -105.304868
 0.785000   33.102849   -106.212773
 0.790000   32.570787   -106.057779
 0.795000   32.042272   -104.782129
 0.800000   31.522966   -102.455490
 0.805000   31.017717   -99.230527
 0.810000   30.530661   -95.189018
 0.815000   30.065826   -90.546084
 0.820000   29.625200   -85.573422
 0.825000   29.210092   -80.419386
 0.830000   28.821006   -75.274435
 0.835000   28.457348   -70.356915
 0.840000   28.117437   -65.905641
 0.845000   27.798291   -62.327006
 0.850000   27.494167   -60.061523
 0.855000   27.197676   -59.443543
 0.860000   26.899731   -60.892412
 0.865000   26.588752   -65.237491
 0.870000   26.247357   -72.856857
 0.875000   25.860184   -84.215718
 0.880000   25.405199   -100.446883
 0.885000   24.855715   -122.428913
 0.890000   24.180910   -150.856337
 0.895000   23.347151   -186.932028
 0.900000   22.311590   -229.306161
 0.905000   21.054090   -275.442960
 0.910000   19.557160   -323.478888
 0.915000   17.819301   -369.698746
 0.920000   15.860173   -409.522666
 0.925000   13.724074   -437.980006
 0.930000   11.480373   -449.021326
 0.935000   9.233861   -439.171759
 0.940000   7.088655   -409.046780
 0.945000   5.143393   -360.932020
 0.950000   3.479335   -299.262258
 0.955000   2.150771   -229.299579
 0.960000   1.186339   -158.406170
 0.965000   0.566709   -93.364048
 0.970000   0.252699   -37.490989
 0.975000   0.191799   7.237011
 0.980000   0.325069   40.209904
 0.985000   0.593898   61.607107
 0.990000   0.941140   72.810580
 0.995000   1.322004   76.036740
 1.000000   1.701507   75.764669
201 psinorm omegp(kRad/s) domegp/dpsiN
 0.000000   -0.019048   148.380066
 0.005000   0.562638   84.294505
 0.010000   0.823897   48.293784
 0.015000   1.045576   42.585394
 0.020000   1.249751   39.807988
 0.025000   1.443656   37.622377
 0.030000   1.625975   35.604571
 0.035000   1.799702   34.055707
 0.040000   1.966532   32.818820
 0.045000   2.127890   31.845059
 0.050000   2.284982   31.316062
 0.055000   2.441051   31.313785
 0.060000   2.598120   31.579573
 0.065000   2.756846   31.869644
 0.070000   2.916817   32.094837
 0.075000   3.077795   32.140457
 0.080000   3.238221   31.846295
 0.085000   3.396258   31.328814
 0.090000   3.551509   30.820851
 0.095000   3.704466   30.442971
 0.100000   3.855939   30.143393
 0.105000   4.005900   30.010817
 0.110000   4.156047   30.041892
 0.115000   4.306319   30.232463
 0.120000   4.458372   30.515545
 0.125000   4.611474   30.733872
 0.130000   4.765711   30.566875
 0.135000   4.917143   29.974394
 0.140000   5.065454   29.048211
 0.145000   5.207625   27.624396
 0.150000   5.341698   25.670418
 0.155000   5.464329   23.437855
 0.160000   5.576077   20.919329
 0.165000   5.673523   18.096394
 0.170000   5.757041   15.220374
 0.175000   5.825726   12.126419
 0.180000   5.878305   9.268992
 0.185000   5.918416   6.838199
 0.190000   5.946687   4.753219
 0.195000   5.965949   3.084181
 0.200000   5.977529   1.645118
 0.205000   5.982400   0.570327
 0.210000   5.983232   -0.427295
 0.215000   5.978127   -1.529688
 0.220000   5.967935   -2.576268
 0.225000   5.952364   -3.736795
 0.230000   5.930567   -4.800621
 0.235000   5.904358   -5.837141
 0.240000   5.872196   -7.062249
 0.245000   5.833735   -8.094483
 0.250000   5.791251   -9.085973
 0.255000   5.742876   -10.223119
 0.260000   5.689020   -11.253502
 0.265000   5.630341   -12.409519
 0.270000   5.564925   -13.735651
 0.275000   5.492984   -15.190175
 0.280000   5.413023   -16.942259
 0.285000   5.323562   -18.927671
 0.290000   5.223746   -21.087493
 0.295000   5.112687   -23.573870
 0.300000   4.988008   -26.193646
 0.305000   4.850750   -28.720558
 0.310000   4.700802   -31.328447
 0.315000   4.537466   -33.806477
 0.320000   4.362737   -35.826559
 0.325000   4.179200   -37.388789
 0.330000   3.988849   -38.491671
 0.335000   3.794283   -39.144579
 0.340000   3.597404   -39.505464
 0.345000   3.399229   -39.662021
 0.350000   3.200783   -39.563189
 0.355000   3.003597   -39.629242
 0.360000   2.804491   -40.212192
 0.365000   2.601475   -41.103378
 0.370000   2.393457   -42.375008
 0.375000   2.177725   -44.034365
 0.380000   1.953113   -45.838521
 0.385000   1.719340   -47.489016
 0.390000   1.478223   -48.822530
 0.395000   1.231114   -49.922208
 0.400000   0.979001   -50.938851
 0.405000   0.721726   -52.309464
 0.410000   0.455907   -55.285083
 0.415000   0.168875   -60.365969
 0.420000   -0.147753   -67.096496
 0.425000   -0.502090   -75.356590
 0.430000   -0.901319   -84.950896
 0.435000   -1.351599   -95.783854
 0.440000   -1.859158   -107.927338
 0.445000   -2.430872   -119.301291
 0.450000   -3.052170   -128.281837
 0.455000   -3.713691   -134.911919
 0.460000   -4.401290   -138.420411
 0.465000   -5.097895   -138.228556
 0.470000   -5.783575   -133.336279
 0.475000   -6.431258   -124.229618
 0.480000   -7.025871   -112.648637
 0.485000   -7.557744   -99.496571
 0.490000   -8.020837   -85.563306
 0.495000   -8.413377   -71.251730
 0.500000   -8.733354   -57.767174
 0.505000   -8.991049   -46.875624
 0.510000   -9.202111   -38.640256
 0.515000   -9.377451   -32.627003
 0.520000   -9.528381   -28.535849
 0.525000   -9.662810   -25.834910
 0.530000   -9.786730   -23.976739
 0.535000   -9.902577   -22.398441
 0.540000   -10.010714   -20.758771
 0.545000   -10.110165   -19.027416
 0.550000   -10.200988   -17.335396
 0.555000   -10.283519   -15.634728
 0.560000   -10.357336   -13.859122
 0.565000   -10.422110   -12.030917
 0.570000   -10.477645   -10.256941
 0.575000   -10.524679   -8.488783
 0.580000   -10.562533   -6.620671
 0.585000   -10.590886   -4.793079
 0.590000   -10.610463   -3.057245
 0.595000   -10.621459   -1.307664
 0.600000   -10.623540   0.435097
 0.605000   -10.617108   2.070443
 0.610000   -10.602836   3.640653
 0.615000   -10.580701   5.206686
 0.620000   -10.550769   6.730499
 0.625000   -10.513396   8.168596
 0.630000   -10.469083   9.573581
 0.635000   -10.417660   10.948310
 0.640000   -10.359600   12.241845
 0.645000   -10.295242   13.502623
 0.650000   -10.224573   14.736844
 0.655000   -10.147873   15.916039
 0.660000   -10.065413   17.027405
 0.665000   -9.977599   18.077824
 0.670000   -9.884635   19.162831
 0.675000   -9.785971   20.494040
 0.680000   -9.679694   22.330613
 0.685000   -9.562665   24.809220
 0.690000   -9.431602   27.974939
 0.695000   -9.282916   31.800921
 0.700000   -9.113593   36.455841
 0.705000   -8.918357   41.774989
 0.710000   -8.695843   46.906803
 0.715000   -8.449289   51.422623
 0.720000   -8.181617   55.116340
 0.725000   -7.898126   57.603543
 0.730000   -7.605581   58.528555
 0.735000   -7.312840   57.443924
 0.740000   -7.031142   54.432615
 0.745000   -6.768514   50.011757
 0.750000   -6.531025   44.582245
 0.755000   -6.322692   38.617264
 0.760000   -6.144852   32.369504
 0.765000   -5.998996   26.605439
 0.770000   -5.878798   21.967974
 0.775000   -5.779317   18.241194
 0.780000   -5.696386   15.215490
 0.785000   -5.627162   12.675707
 0.790000   -5.569629   10.318545
 0.795000   -5.523976   7.708594
 0.800000   -5.492543   4.541623
 0.805000   -5.478560   0.682399
 0.810000   -5.485719   -3.820800
 0.815000   -5.516768   -8.802042
 0.820000   -5.573739   -14.094989
 0.825000   -5.657718   -19.452965
 0.830000   -5.768269   -24.632815
 0.835000   -5.904046   -29.396260
 0.840000   -6.062231   -33.522807
 0.845000   -6.239274   -36.859037
 0.850000   -6.430822   -39.295611
 0.855000   -6.632230   -41.126066
 0.860000   -6.842082   -42.809087
 0.865000   -7.060321   -44.609014
 0.870000   -7.288173   -46.655494
 0.875000   -7.526876   -49.053831
 0.880000   -7.778711   -51.863199
 0.885000   -8.045508   -54.711447
 0.890000   -8.325825   -57.206612
 0.895000   -8.617574   -59.323310
 0.900000   -8.919058   -61.126606
 0.905000   -9.228840   -62.751338
 0.910000   -9.546572   -64.047396
 0.915000   -9.869314   -63.695620
 0.920000   -10.183528   -60.280683
 0.925000   -10.472121   -50.174600
 0.930000   -10.685274   -33.030597
 0.935000   -10.802427   -7.837169
 0.940000   -10.763646   31.806023
 0.945000   -10.484367   87.724965
 0.950000   -9.886396   147.430485
 0.955000   -9.010062   191.718577
 0.960000   -7.969210   205.356986
 0.965000   -6.956492   184.010577
 0.970000   -6.129104   154.840537
 0.975000   -5.408087   174.063850
 0.980000   -4.388466   287.717720
 0.985000   -2.530910   480.004493
 0.990000   0.411579   661.245431
 0.995000   4.081545   708.892832
 1.000000   7.500507   658.692193
201 psinorm omgvb(kRad/s) domgvb/dpsiN
 0.000000   72.413188   148.412333
 0.005000   72.994401   84.073152
 0.010000   73.253919   47.764723
 0.015000   73.472049   41.629026
 0.020000   73.670210   38.284966
 0.025000   73.854898   35.379288
 0.030000   74.024002   32.480455
 0.035000   74.179703   29.890804
 0.040000   74.322910   27.477050
 0.045000   74.454473   25.216270
 0.050000   74.575073   23.312599
 0.055000   74.687599   21.883491
 0.060000   74.793908   20.704950
 0.065000   74.894649   19.562826
 0.070000   74.989536   18.430415
 0.075000   75.078953   17.176603
 0.080000   75.161302   15.585574
 0.085000   75.234809   13.786071
 0.090000   75.299163   12.003613
 0.095000   75.354845   10.339508
 0.100000   75.402558   8.746304
 0.105000   75.442308   7.283730
 0.110000   75.475395   5.911731
 0.115000   75.501425   4.635479
 0.120000   75.521750   3.387013
 0.125000   75.535295   2.005035
 0.130000   75.541801   0.175311
 0.135000   75.537049   -2.133179
 0.140000   75.520469   -4.824794
 0.145000   75.488801   -8.061910
 0.150000   75.439850   -11.873132
 0.155000   75.370069   -15.996917
 0.160000   75.279881   -20.423833
 0.165000   75.165831   -25.143742
 0.170000   75.028443   -29.884988
 0.175000   74.866981   -34.804978
 0.180000   74.680393   -39.430398
 0.185000   74.472677   -43.540447
 0.190000   74.244989   -47.153059
 0.195000   74.001146   -50.117706
 0.200000   73.743812   -52.648149
 0.205000   73.474665   -54.645156
 0.210000   73.197360   -56.369405
 0.215000   72.910971   -58.007932
 0.220000   72.617281   -59.376145
 0.225000   72.317210   -60.608122
 0.230000   72.011200   -61.640859
 0.235000   71.700801   -62.608594
 0.240000   71.385114   -63.642966
 0.245000   71.064371   -64.380806
 0.250000   70.741306   -64.987414
 0.255000   70.414497   -65.652294
 0.260000   70.084783   -66.304295
 0.265000   69.751454   -67.270668
 0.270000   69.412076   -68.526875
 0.275000   69.066185   -70.055625
 0.280000   68.711520   -72.038571
 0.285000   68.345800   -74.412953
 0.290000   67.967390   -77.011035
 0.295000   67.575689   -79.882102
 0.300000   67.168569   -82.833555
 0.305000   66.747354   -85.632793
 0.310000   66.312241   -88.448281
 0.315000   65.862871   -91.066929
 0.320000   65.401572   -93.139586
 0.325000   64.931475   -94.658788
 0.330000   64.454984   -95.636618
 0.335000   63.975109   -96.082404
 0.340000   63.494160   -96.154942
 0.345000   63.013560   -95.919043
 0.350000   62.534970   -95.341104
 0.355000   62.060149   -94.877051
 0.360000   61.586199   -94.871767
 0.365000   61.111431   -95.116132
 0.370000   60.635038   -95.685062
 0.375000   60.154580   -96.556746
 0.380000   59.669470   -97.521004
 0.385000   59.179370   -98.338010
 0.390000   58.686090   -98.835136
 0.395000   58.191019   -99.106193
 0.400000   57.695028   -99.344262
 0.405000   57.197576   -100.123830
 0.410000   56.693790   -102.940580
 0.415000   56.168170   -108.358215
 0.420000   55.610208   -115.826494
 0.425000   55.009905   -125.170850
 0.430000   54.358499   -136.130554
 0.435000   53.648600   -148.719741
 0.440000   52.871302   -162.908066
 0.445000   52.019519   -176.185899
 0.450000   51.109443   -186.837967
 0.455000   50.151140   -194.961562
 0.460000   49.159827   -199.714771
 0.465000   48.153992   -200.558003
 0.470000   47.154247   -196.379987
 0.475000   46.190192   -187.363699
 0.480000   45.280610   -175.274160
 0.485000   44.437450   -161.175204
 0.490000   43.668858   -145.904647
 0.495000   42.978404   -129.942647
 0.500000   42.369432   -114.588350
 0.505000   41.832520   -101.721093
 0.510000   41.352221   -91.492543
 0.515000   40.917595   -83.508342
 0.520000   40.517138   -77.500849
 0.525000   40.142587   -72.954459
 0.530000   39.787593   -69.321445
 0.535000   39.449372   -66.120979
 0.540000   39.126383   -63.067202
 0.545000   38.818700   -60.109496
 0.550000   38.525288   -57.392205
 0.555000   38.244778   -54.873330
 0.560000   37.976555   -52.484619
 0.565000   37.719932   -50.302641
 0.570000   37.473529   -48.458688
 0.575000   37.235345   -46.871742
 0.580000   37.004811   -45.429361
 0.585000   36.781051   -44.253868
 0.590000   36.562272   -43.357072
 0.595000   36.347481   -42.600658
 0.600000   36.136266   -42.000946
 0.605000   35.927471   -41.656724
 0.610000   35.719699   -41.518161
 0.615000   35.512290   -41.515282
 0.620000   35.304546   -41.650576
 0.625000   35.095784   -41.980278
 0.630000   34.884743   -42.473157
 0.635000   34.671052   -43.098881
 0.640000   34.453754   -43.899235
 0.645000   34.232060   -44.818694
 0.650000   34.005567   -45.837366
 0.655000   33.773686   -47.013863
 0.660000   33.535429   -48.387056
 0.665000   33.289816   -49.915969
 0.670000   33.036269   -51.442868
 0.675000   32.775387   -52.646125
 0.680000   32.509808   -53.017842
 0.685000   32.245209   -52.208089
 0.690000   31.987727   -50.227178
 0.695000   31.742937   -47.227391
 0.700000   31.515453   -43.128431
 0.705000   31.311652   -38.194342
 0.710000   31.133509   -33.291633
 0.715000   30.978736   -28.998669
 0.720000   30.843523   -25.700006
 0.725000   30.721736   -23.738869
 0.730000   30.606134   -23.444741
 0.735000   30.487289   -25.286197
 0.740000   30.353272   -29.305368
 0.745000   30.194235   -35.264227
 0.750000   30.000630   -42.855886
 0.755000   29.765676   -51.524328
 0.760000   29.485387   -60.900916
 0.765000   29.156667   -69.973988
 0.770000   28.785647   -78.008565
 0.775000   28.376581   -84.911729
 0.780000   27.936529   -90.089377
 0.785000   27.475688   -93.537066
 0.790000   27.001159   -95.739234
 0.795000   26.518295   -97.073535
 0.800000   26.030423   -97.913867
 0.805000   25.539156   -98.548129
 0.810000   25.044942   -99.009818
 0.815000   24.549058   -99.348125
 0.820000   24.051461   -99.668411
 0.825000   23.552374   -99.872351
 0.830000   23.052737   -99.907251
 0.835000   22.553302   -99.753174
 0.840000   22.055206   -99.428448
 0.845000   21.559017   -99.186043
 0.850000   21.063345   -99.357134
 0.855000   20.565446   -100.569609
 0.860000   20.057649   -103.701499
 0.865000   19.528431   -109.846505
 0.870000   18.959184   -119.512351
 0.875000   18.333307   -133.269549
 0.880000   17.626489   -152.310083
 0.885000   16.810207   -177.140360
 0.890000   15.855085   -208.062949
 0.895000   14.729577   -246.255338
 0.900000   13.392532   -290.432768
 0.905000   11.825249   -338.194298
 0.910000   10.010589   -387.526284
 0.915000   7.949987   -433.394367
 0.920000   5.676645   -469.803349
 0.925000   3.251953   -488.154606
 0.930000   0.795099   -482.051923
 0.935000   -1.568566   -447.008928
 0.940000   -3.674990   -377.240757
 0.945000   -5.340974   -273.207055
 0.950000   -6.407061   -151.831773
 0.955000   -6.859291   -37.581002
 0.960000   -6.782871   46.950816
 0.965000   -6.389783   90.646529
 0.970000   -5.876406   117.349548
 0.975000   -5.216288   181.300861
 0.980000   -4.063397   327.927623
 0.985000   -1.937012   541.611600
 0.990000   1.352719   734.056012
 0.995000   5.403549   784.929572
 1.000000   9.202015   734.456863
201 psinorm omgpp(kRad/s) domgpp/dpsiN
 0.000000   -0.077620   -38.698231
 0.005000   -0.314052   -55.874387
 0.010000   -0.636364   -65.247879
 0.015000   -0.966530   -66.710605
 0.020000   -1.303470   -67.919230
 0.025000   -1.645723   -68.802346
 0.030000   -1.991494   -69.365588
 0.035000   -2.339379   -69.600803
 0.040000   -2.687502   -69.470741
 0.045000   -3.034086   -68.991544
 0.050000   -3.377417   -68.114313
 0.055000   -3.715229   -66.862157
 0.060000   -4.046039   -65.584077
 0.065000   -4.371070   -64.233922
 0.070000   -4.688378   -62.615759
 0.075000   -4.997228   -60.858825
 0.080000   -5.296966   -58.924915
 0.085000   -5.586477   -56.815070
 0.090000   -5.865117   -54.849401
 0.095000   -6.134971   -52.892588
 0.100000   -6.394043   -50.712476
 0.105000   -6.642095   -48.490218
 0.110000   -6.878945   -46.235101
 0.115000   -7.104446   -43.997056
 0.120000   -7.318915   -41.697118
 0.125000   -7.521418   -39.144756
 0.130000   -7.710363   -36.353259
 0.135000   -7.884950   -33.413953
 0.140000   -8.044502   -30.356259
 0.145000   -8.188513   -27.129289
 0.150000   -8.315795   -23.843125
 0.155000   -8.426944   -20.559624
 0.160000   -8.521392   -17.178501
 0.165000   -8.598729   -13.719684
 0.170000   -8.658588   -10.196489
 0.175000   -8.700694   -6.324117
 0.180000   -8.721830   -2.871582
 0.185000   -8.729410   -0.154156
 0.190000   -8.723371   2.417072
 0.195000   -8.705239   4.637772
 0.200000   -8.676993   6.441646
 0.205000   -8.640823   7.386927
 0.210000   -8.603124   7.792482
 0.215000   -8.562898   8.583361
 0.220000   -8.517291   9.710519
 0.225000   -8.465793   11.000742
 0.230000   -8.407283   12.540456
 0.235000   -8.340388   13.836964
 0.240000   -8.268913   16.031457
 0.245000   -8.180073   19.305054
 0.250000   -8.075863   22.171720
 0.255000   -7.958356   24.860598
 0.260000   -7.827257   27.607667
 0.265000   -7.682280   30.423454
 0.270000   -7.523022   33.637257
 0.275000   -7.345907   36.902165
 0.280000   -7.154001   39.768596
 0.285000   -6.948221   42.478087
 0.290000   -6.729220   44.996423
 0.295000   -6.498257   47.790338
 0.300000   -6.251317   49.751817
 0.305000   -6.000739   49.117041
 0.310000   -5.760146   47.325055
 0.315000   -5.527488   45.542148
 0.320000   -5.304725   43.445530
 0.325000   -5.093033   41.105276
 0.330000   -4.893672   38.255944
 0.335000   -4.710473   35.542710
 0.340000   -4.538245   33.627691
 0.345000   -4.374196   32.163313
 0.350000   -4.216612   31.031098
 0.355000   -4.063885   29.930323
 0.360000   -3.917308   29.084735
 0.365000   -3.773038   29.884037
 0.370000   -3.618468   31.370523
 0.375000   -3.459333   32.231717
 0.380000   -3.296151   32.950515
 0.385000   -3.129828   33.516550
 0.390000   -2.960985   34.198320
 0.395000   -2.787845   34.425490
 0.400000   -2.616730   33.810934
 0.405000   -2.449735   32.793994
 0.410000   -2.288791   31.436708
 0.415000   -2.135368   29.898708
 0.420000   -1.989803   28.654148
 0.425000   -1.848827   26.867118
 0.430000   -1.721132   24.684784
 0.435000   -1.601979   22.970147
 0.440000   -1.491431   21.242118
 0.445000   -1.389558   19.504819
 0.450000   -1.296383   18.087577
 0.455000   -1.208682   16.132652
 0.460000   -1.135056   13.747877
 0.465000   -1.071203   11.757808
 0.470000   -1.017478   9.710648
 0.475000   -0.974097   7.640628
 0.480000   -0.941072   5.617895
 0.485000   -0.917918   3.880638
 0.490000   -0.902265   2.435919
 0.495000   -0.893558   1.029612
 0.500000   -0.891969   -0.383285
 0.505000   -0.897391   -1.756509
 0.510000   -0.909534   -3.058286
 0.515000   -0.927974   -4.212948
 0.520000   -0.951664   -5.217495
 0.525000   -0.980149   -6.130571
 0.530000   -1.012970   -6.950711
 0.535000   -1.049656   -7.686411
 0.540000   -1.089834   -8.315494
 0.545000   -1.132811   -8.915626
 0.550000   -1.178990   -9.563429
 0.555000   -1.228446   -10.210272
 0.560000   -1.281093   -10.849544
 0.565000   -1.336941   -11.482719
 0.570000   -1.395920   -12.079680
 0.575000   -1.457738   -12.636543
 0.580000   -1.522285   -13.144808
 0.585000   -1.589186   -13.584902
 0.590000   -1.658134   -13.967235
 0.595000   -1.728858   -14.291510
 0.600000   -1.801049   -14.618445
 0.605000   -1.875043   -14.939835
 0.610000   -1.950448   -15.098256
 0.615000   -2.026025   -15.146349
 0.620000   -2.101911   -15.173033
 0.625000   -2.177756   -15.127747
 0.630000   -2.253189   -15.095523
 0.635000   -2.328711   -15.018767
 0.640000   -2.403376   -14.600490
 0.645000   -2.474716   -14.039245
 0.650000   -2.543769   -13.569871
 0.655000   -2.610414   -13.077271
 0.660000   -2.674541   -12.627134
 0.665000   -2.736686   -12.531546
 0.670000   -2.799857   -13.073905
 0.675000   -2.867425   -14.521074
 0.680000   -2.945068   -16.732980
 0.685000   -3.034755   -19.214525
 0.690000   -3.137213   -22.101072
 0.695000   -3.255765   -26.280543
 0.700000   -3.400018   -27.772876
 0.705000   -3.533494   -26.678883
 0.710000   -3.666807   -26.228285
 0.715000   -3.795777   -24.850653
 0.720000   -3.915314   -22.547224
 0.725000   -4.021249   -19.959927
 0.730000   -4.114913   -13.583548
 0.735000   -4.157085   -4.879687
 0.740000   -4.163710   2.404868
 0.745000   -4.133036   9.861142
 0.750000   -4.065098   17.088591
 0.755000   -3.962150   24.912712
 0.760000   -3.815971   30.962263
 0.765000   -3.652527   34.093648
 0.770000   -3.475035   36.228336
 0.775000   -3.290244   37.048113
 0.780000   -3.104554   36.662492
 0.785000   -2.923619   36.285236
 0.790000   -2.741701   33.780676
 0.795000   -2.585812   29.478160
 0.800000   -2.446920   26.161516
 0.805000   -2.324197   22.988574
 0.810000   -2.217034   20.022463
 0.815000   -2.123973   17.430500
 0.820000   -2.042729   15.332968
 0.825000   -1.970643   13.674708
 0.830000   -1.905982   12.209820
 0.835000   -1.848545   10.726463
 0.840000   -1.798717   9.100527
 0.845000   -1.757539   6.607469
 0.850000   -1.732643   3.304889
 0.855000   -1.724490   0.201374
 0.860000   -1.730629   -2.798004
 0.865000   -1.752471   -5.943958
 0.870000   -1.790068   -9.120115
 0.875000   -1.843672   -13.363901
 0.880000   -1.923707   -17.713193
 0.885000   -2.020804   -20.756002
 0.890000   -2.131267   -24.675442
 0.895000   -2.267558   -30.557967
 0.900000   -2.436847   -38.025746
 0.905000   -2.647815   -49.050271
 0.910000   -2.927350   -63.661014
 0.915000   -3.284426   -79.129081
 0.920000   -3.718641   -99.386292
 0.925000   -4.278289   -128.752804
 0.930000   -5.006169   -167.921739
 0.935000   -5.957506   -224.197239
 0.940000   -7.248141   -301.367780
 0.945000   -8.971184   -378.259565
 0.950000   -11.030737   -448.958497
 0.955000   -13.460769   -511.327870
 0.960000   -16.144015   -538.206939
 0.965000   -18.842838   -511.648728
 0.970000   -21.260503   -411.489465
 0.975000   -22.957733   -210.956517
 0.980000   -23.370068   33.428336
 0.985000   -22.623449   245.587050
 0.990000   -20.914197   404.084296
 0.995000   -18.582606   490.514868
 1.000000   -16.009049   538.908213
201 psinorm omgeb(kRad/s) domgeb/dpsiN
 0.000000   72.335568   109.714103
 0.005000   72.680350   28.198765
 0.010000   72.617555   -17.483156
 0.015000   72.505518   -25.081579
 0.020000   72.366740   -29.634264
 0.025000   72.209176   -33.423058
 0.030000   72.032509   -36.885133
 0.035000   71.840324   -39.709999
 0.040000   71.635409   -41.993691
 0.045000   71.420387   -43.775275
 0.050000   71.197656   -44.801714
 0.055000   70.972370   -44.978666
 0.060000   70.747870   -44.879126
 0.065000   70.523579   -44.671096
 0.070000   70.301159   -44.185344
 0.075000   70.081726   -43.682222
 0.080000   69.864336   -43.339341
 0.085000   69.648332   -43.028999
 0.090000   69.434046   -42.845788
 0.095000   69.219874   -42.553079
 0.100000   69.008516   -41.966172
 0.105000   68.800213   -41.206488
 0.110000   68.596451   -40.323370
 0.115000   68.396979   -39.361577
 0.120000   68.202835   -38.310105
 0.125000   68.013878   -37.139721
 0.130000   67.831438   -36.177948
 0.135000   67.652098   -35.547132
 0.140000   67.475966   -35.181053
 0.145000   67.300288   -35.191199
 0.150000   67.124054   -35.716257
 0.155000   66.943125   -36.556541
 0.160000   66.758489   -37.602334
 0.165000   66.567102   -38.863426
 0.170000   66.369855   -40.081477
 0.175000   66.166287   -41.129096
 0.180000   65.958564   -42.301980
 0.185000   65.743267   -43.694603
 0.190000   65.521618   -44.735987
 0.195000   65.295907   -45.479934
 0.200000   65.066818   -46.206503
 0.205000   64.833842   -47.258229
 0.210000   64.594236   -48.576923
 0.215000   64.348073   -49.424571
 0.220000   64.099990   -49.665626
 0.225000   63.851417   -49.607379
 0.230000   63.603917   -49.100402
 0.235000   63.360413   -48.771631
 0.240000   63.116200   -47.611509
 0.245000   62.884298   -45.075752
 0.250000   62.665443   -42.815694
 0.255000   62.456141   -40.791696
 0.260000   62.257526   -38.696628
 0.265000   62.069175   -36.847214
 0.270000   61.889054   -34.889618
 0.275000   61.720278   -33.153460
 0.280000   61.557519   -32.269975
 0.285000   61.397579   -31.934865
 0.290000   61.238170   -32.014612
 0.295000   61.077433   -32.091763
 0.300000   60.917253   -33.081738
 0.305000   60.746615   -36.515752
 0.310000   60.552095   -41.123226
 0.315000   60.335383   -45.524781
 0.320000   60.096847   -49.694055
 0.325000   59.838442   -53.553512
 0.330000   59.561312   -57.380675
 0.335000   59.264636   -60.539694
 0.340000   58.955915   -62.527251
 0.345000   58.639363   -63.755731
 0.350000   58.318358   -64.310006
 0.355000   57.996263   -64.946729
 0.360000   57.668891   -65.787032
 0.365000   57.338393   -65.232096
 0.370000   57.016570   -64.314539
 0.375000   56.695247   -64.325029
 0.380000   56.373320   -64.570490
 0.385000   56.049542   -64.821460
 0.390000   55.725105   -64.636816
 0.395000   55.403174   -64.680703
 0.400000   55.078298   -65.533328
 0.405000   54.747841   -67.329836
 0.410000   54.405000   -71.503872
 0.415000   54.032802   -78.459507
 0.420000   53.620405   -87.172346
 0.425000   53.161079   -98.303732
 0.430000   52.637367   -111.445769
 0.435000   52.046621   -125.749594
 0.440000   51.379871   -141.665948
 0.445000   50.629962   -156.681080
 0.450000   49.813060   -168.750390
 0.455000   48.942458   -178.828910
 0.460000   48.024771   -185.966894
 0.465000   47.082789   -188.800195
 0.470000   46.136769   -186.669339
 0.475000   45.216095   -179.723071
 0.480000   44.339539   -169.656265
 0.485000   43.519533   -157.294566
 0.490000   42.766593   -143.468728
 0.495000   42.084845   -128.913035
 0.500000   41.477463   -114.971636
 0.505000   40.935129   -103.477602
 0.510000   40.442687   -94.550829
 0.515000   39.989621   -87.721290
 0.520000   39.565474   -82.718344
 0.525000   39.162437   -79.085030
 0.530000   38.774623   -76.272156
 0.535000   38.399716   -73.807390
 0.540000   38.036550   -71.382696
 0.545000   37.685889   -69.025121
 0.550000   37.346298   -66.955635
 0.555000   37.016332   -65.083603
 0.560000   36.695462   -63.334163
 0.565000   36.382991   -61.785360
 0.570000   36.077609   -60.538369
 0.575000   35.777607   -59.508285
 0.580000   35.482526   -58.574169
 0.585000   35.191865   -57.838770
 0.590000   34.904138   -57.324307
 0.595000   34.618622   -56.892168
 0.600000   34.335217   -56.619391
 0.605000   34.052429   -56.596560
 0.610000   33.769251   -56.616417
 0.615000   33.486264   -56.661631
 0.620000   33.202635   -56.823609
 0.625000   32.918028   -57.108025
 0.630000   32.631554   -57.568679
 0.635000   32.342341   -58.117648
 0.640000   32.050378   -58.499725
 0.645000   31.757344   -58.857939
 0.650000   31.461798   -59.407237
 0.655000   31.163272   -60.091134
 0.660000   30.860887   -61.014190
 0.665000   30.553130   -62.447515
 0.670000   30.236412   -64.516772
 0.675000   29.907962   -67.167199
 0.680000   29.564740   -69.750822
 0.685000   29.210454   -71.422614
 0.690000   28.850514   -72.328249
 0.695000   28.487172   -73.507934
 0.700000   28.115435   -70.901308
 0.705000   27.778158   -64.873225
 0.710000   27.466702   -59.519918
 0.715000   27.182959   -53.849323
 0.720000   26.928209   -48.247230
 0.725000   26.700487   -43.698796
 0.730000   26.491221   -37.028289
 0.735000   26.330204   -30.165885
 0.740000   26.189562   -26.900500
 0.745000   26.061199   -25.403085
 0.750000   25.935531   -25.767295
 0.755000   25.803526   -26.611615
 0.760000   25.669415   -29.938654
 0.765000   25.504140   -35.880340
 0.770000   25.310612   -41.780228
 0.775000   25.086337   -47.863616
 0.780000   24.831976   -53.426885
 0.785000   24.552068   -57.251831
 0.790000   24.259457   -61.958558
 0.795000   23.932483   -67.595376
 0.800000   23.583504   -71.752350
 0.805000   23.214959   -75.559555
 0.810000   22.827908   -78.987356
 0.815000   22.425086   -81.917625
 0.820000   22.008732   -84.335443
 0.825000   21.581731   -86.197643
 0.830000   21.146755   -87.697431
 0.835000   20.704757   -89.026712
 0.840000   20.256488   -90.327921
 0.845000   19.801478   -92.578574
 0.850000   19.330703   -96.052245
 0.855000   18.840955   -100.368235
 0.860000   18.327020   -106.499503
 0.865000   17.775960   -115.790463
 0.870000   17.169116   -128.632466
 0.875000   16.489636   -146.633450
 0.880000   15.702781   -170.023275
 0.885000   14.789403   -197.896362
 0.890000   13.723817   -232.738391
 0.895000   12.462019   -276.813305
 0.900000   10.955684   -328.458513
 0.905000   9.177434   -387.244569
 0.910000   7.083239   -451.187298
 0.915000   4.665561   -512.523448
 0.920000   1.958004   -569.189641
 0.925000   -1.026335   -616.907410
 0.930000   -4.211070   -649.973662
 0.935000   -7.526072   -671.206167
 0.940000   -10.923132   -678.608536
 0.945000   -14.312157   -651.466620
 0.950000   -17.437798   -600.790270
 0.955000   -20.320060   -548.908872
 0.960000   -22.926886   -491.256123
 0.965000   -25.232621   -421.002199
 0.970000   -27.136908   -294.139917
 0.975000   -28.174021   -29.655656
 0.980000   -27.433465   361.355959
 0.985000   -24.560461   787.198650
 0.990000   -19.561479   1138.140307
 0.995000   -13.179058   1275.444440
 1.000000   -6.807034   1273.365076
201 psinorm er(kV/m) der/dpsiN
 0.000000   1.093535   1225.025265
 0.005000   6.053120   758.808687
 0.010000   8.681622   464.414613
 0.015000   10.697266   369.410543
 0.020000   12.375727   315.670029
 0.025000   13.853966   280.409705
 0.030000   15.179824   253.133896
 0.035000   16.385305   231.519331
 0.040000   17.495017   213.266224
 0.045000   18.517967   198.765260
 0.050000   19.482670   188.065774
 0.055000   20.398625   176.814029
 0.060000   21.250810   164.056112
 0.065000   22.039186   157.174385
 0.070000   22.822554   152.606756
 0.075000   23.565254   140.633769
 0.080000   24.228892   136.270037
 0.085000   24.927954   132.295373
 0.090000   25.551846   124.310518
 0.095000   26.171059   121.463302
 0.100000   26.766479   114.213147
 0.105000   27.313191   112.078741
 0.110000   27.887266   106.442403
 0.115000   28.377615   103.868176
 0.120000   28.925948   99.955140
 0.125000   29.377166   96.716138
 0.130000   29.893109   94.447725
 0.135000   30.321643   90.088651
 0.140000   30.793996   89.208362
 0.145000   31.213727   83.585855
 0.150000   31.629854   83.420351
 0.155000   32.047930   76.854879
 0.160000   32.398403   77.239760
 0.165000   32.820328   70.123461
 0.170000   33.099638   67.066144
 0.175000   33.490990   68.442375
 0.180000   33.784061   60.102626
 0.185000   34.092016   62.999335
 0.190000   34.414055   54.191617
 0.195000   34.633932   53.375190
 0.200000   34.947807   53.428332
 0.205000   35.168215   45.598387
 0.210000   35.403790   50.044550
 0.215000   35.668661   40.555130
 0.220000   35.809342   38.329215
 0.225000   36.051953   43.836647
 0.230000   36.247708   34.463245
 0.235000   36.396585   36.417088
 0.240000   36.611879   36.120230
 0.245000   36.757788   31.140889
 0.250000   36.923288   37.305435
 0.255000   37.130842   32.651430
 0.260000   37.249802   29.931859
 0.265000   37.430161   37.902723
 0.270000   37.628830   30.284185
 0.275000   37.733002   28.939913
 0.280000   37.918229   36.674769
 0.285000   38.099750   27.958323
 0.290000   38.197812   26.279289
 0.295000   38.362543   32.168343
 0.300000   38.519495   23.682199
 0.305000   38.599365   20.029514
 0.310000   38.719790   22.128170
 0.315000   38.820647   12.329172
 0.320000   38.843082   7.929123
 0.325000   38.899938   9.855699
 0.330000   38.941639   1.428999
 0.335000   38.914228   -2.761765
 0.340000   38.914021   -0.620695
 0.345000   38.908021   -5.613353
 0.350000   38.857888   -8.541750
 0.355000   38.822603   -6.916875
 0.360000   38.788719   -9.653789
 0.365000   38.726066   -12.246640
 0.370000   38.666253   -10.892824
 0.375000   38.617137   -11.296560
 0.380000   38.553287   -14.637352
 0.385000   38.470764   -15.183633
 0.390000   38.401451   -14.256299
 0.395000   38.328201   -17.321942
 0.400000   38.228231   -19.033165
 0.405000   38.137869   -19.159158
 0.410000   38.036640   -24.262935
 0.415000   37.895240   -30.791291
 0.420000   37.728727   -36.575381
 0.425000   37.529486   -45.269560
 0.430000   37.276031   -56.592622
 0.435000   36.963560   -67.555793
 0.440000   36.600473   -78.971444
 0.445000   36.173845   -91.645492
 0.450000   35.684019   -101.648049
 0.455000   35.157365   -109.075284
 0.460000   34.593266   -115.571522
 0.465000   34.001650   -119.243114
 0.470000   33.400835   -118.464718
 0.475000   32.817002   -114.031412
 0.480000   32.260520   -108.222044
 0.485000   31.734782   -100.249175
 0.490000   31.258029   -90.377306
 0.495000   30.831009   -80.719205
 0.500000   30.450837   -71.525493
 0.505000   30.115754   -63.389924
 0.510000   29.816937   -57.132538
 0.515000   29.544429   -53.076485
 0.520000   29.286173   -49.942988
 0.525000   29.044999   -47.200590
 0.530000   28.814167   -45.813092
 0.535000   28.586868   -44.693464
 0.540000   28.367232   -42.956782
 0.545000   28.157300   -41.357421
 0.550000   27.953658   -40.642668
 0.555000   27.750873   -39.610571
 0.560000   27.557552   -38.092423
 0.565000   27.369949   -37.498429
 0.570000   27.182568   -37.173994
 0.575000   26.998209   -36.350168
 0.580000   26.819066   -35.596879
 0.585000   26.642240   -35.895072
 0.590000   26.460115   -35.789181
 0.595000   26.284349   -35.035139
 0.600000   26.109764   -35.268509
 0.605000   25.931664   -35.919845
 0.610000   25.750566   -35.856425
 0.615000   25.573099   -35.582577
 0.620000   25.394740   -36.553546
 0.625000   25.207564   -37.125738
 0.630000   25.023482   -36.945263
 0.635000   24.838111   -37.520313
 0.640000   24.648279   -38.704050
 0.645000   24.451071   -38.983583
 0.650000   24.258443   -38.798566
 0.655000   24.063085   -39.973347
 0.660000   23.858710   -41.308272
 0.665000   23.650002   -42.032954
 0.670000   23.438380   -43.280976
 0.675000   23.217193   -46.407784
 0.680000   22.974303   -48.718383
 0.685000   22.730009   -49.215928
 0.690000   22.482143   -50.104361
 0.695000   22.228965   -52.174205
 0.700000   21.960401   -50.066496
 0.705000   21.728300   -44.435616
 0.710000   21.516045   -40.982772
 0.715000   21.318472   -37.432238
 0.720000   21.141723   -32.491209
 0.725000   20.993560   -28.196664
 0.730000   20.859756   -24.139357
 0.735000   20.752167   -19.230757
 0.740000   20.667448   -15.589654
 0.745000   20.596270   -14.054400
 0.750000   20.526904   -15.902336
 0.755000   20.437247   -16.675009
 0.760000   20.360154   -17.932173
 0.765000   20.257925   -23.041951
 0.770000   20.129735   -28.855514
 0.775000   19.969370   -33.555228
 0.780000   19.794183   -37.158150
 0.785000   19.597788   -40.818557
 0.790000   19.385997   -45.357358
 0.795000   19.144215   -49.649627
 0.800000   18.889501   -52.596030
 0.805000   18.618255   -56.332089
 0.810000   18.326180   -59.642140
 0.815000   18.021833   -61.761934
 0.820000   17.708561   -63.597081
 0.825000   17.385862   -65.835782
 0.830000   17.050203   -67.479948
 0.835000   16.711063   -68.300216
 0.840000   16.367201   -69.395672
 0.845000   16.017106   -71.984321
 0.850000   15.647357   -75.160489
 0.855000   15.265501   -78.394159
 0.860000   14.863416   -83.560686
 0.865000   14.429894   -91.805772
 0.870000   13.945358   -102.579434
 0.875000   13.404100   -117.057001
 0.880000   12.774788   -136.353029
 0.885000   12.040570   -159.749162
 0.890000   11.177296   -188.486116
 0.895000   10.155709   -224.345321
 0.900000   8.933843   -266.800312
 0.905000   7.487706   -315.046285
 0.910000   5.783380   -367.301531
 0.915000   3.814690   -417.666433
 0.920000   1.606716   -465.153599
 0.925000   -0.836846   -505.343421
 0.930000   -3.446718   -533.302028
 0.935000   -6.169866   -552.369209
 0.940000   -8.970410   -569.193142
 0.945000   -11.861797   -557.298043
 0.950000   -14.543391   -511.277654
 0.955000   -16.974574   -464.191531
 0.960000   -19.185306   -442.581208
 0.965000   -21.400386   -400.381132
 0.970000   -23.189117   -270.588610
 0.975000   -24.106272   -30.902199
 0.980000   -23.498139   303.499441
 0.985000   -21.071278   668.792400
 0.990000   -16.810215   971.975598
 0.995000   -11.351522   1091.307408
 1.000000   -5.897141   1090.444808
201 psinorm ommvb() dommvb/dpsiN
 0.000000   -19.891284   26684.326631
 0.005000   80.603533   13513.600104
 0.010000   115.244717   7681.648484
 0.015000   157.420018   8067.057295
 0.020000   195.915290   7101.336149
 0.025000   228.433379   6132.532680
 0.030000   257.240617   5504.955061
 0.035000   283.482930   4960.775583
 0.040000   306.848373   4439.211266
 0.045000   327.875043   4121.723391
 0.050000   348.065607   3651.238641
 0.055000   364.387429   3337.963042
 0.060000   381.445237   3037.414722
 0.065000   394.761576   2629.195094
 0.070000   407.737188   2467.108744
 0.075000   419.432664   2181.856659
 0.080000   429.555755   1903.285168
 0.085000   438.465515   1699.917802
 0.090000   446.554933   1474.395557
 0.095000   453.209471   1245.529230
 0.100000   459.010225   1042.654485
 0.105000   463.636016   829.361166
 0.110000   467.303837   673.087053
 0.115000   470.366886   521.162674
 0.120000   472.515463   352.600581
 0.125000   473.892892   200.519525
 0.130000   474.520659   36.034457
 0.135000   474.253237   -82.221263
 0.140000   473.698446   -156.189442
 0.145000   472.691342   -319.318055
 0.150000   470.505265   -511.497493
 0.155000   467.576367   -631.957444
 0.160000   464.185691   -724.391036
 0.165000   460.332457   -820.226308
 0.170000   455.983428   -907.304518
 0.175000   451.259412   -1020.378446
 0.180000   445.779643   -1125.164951
 0.185000   440.007762   -1150.940378
 0.190000   434.270240   -1161.313916
 0.195000   428.394623   -1194.152933
 0.200000   422.328710   -1291.292382
 0.205000   415.481699   -1463.622346
 0.210000   407.692487   -1422.859268
 0.215000   401.253107   -1290.418945
 0.220000   394.788297   -1255.829862
 0.225000   388.694808   -1210.934711
 0.230000   382.678950   -1237.616064
 0.235000   376.318647   -1395.823293
 0.240000   368.720717   -1508.235760
 0.245000   361.236290   -1351.518430
 0.250000   355.205533   -1188.134509
 0.255000   349.354945   -1158.070590
 0.260000   343.624827   -1133.664296
 0.265000   338.018302   -1302.933832
 0.270000   330.595489   -1338.749667
 0.275000   324.630805   -1112.744404
 0.280000   319.468045   -1001.433385
 0.285000   314.616471   -936.978968
 0.290000   310.098255   -1033.456490
 0.295000   304.281906   -1045.166408
 0.300000   299.646591   -830.049717
 0.305000   295.981409   -717.064626
 0.310000   292.475945   -683.589884
 0.315000   289.145510   -797.584283
 0.320000   284.500102   -759.979342
 0.325000   281.545717   -506.478422
 0.330000   279.435318   -402.847792
 0.335000   277.517239   -435.560954
 0.340000   275.079708   -533.082190
 0.345000   272.186417   -449.327579
 0.350000   270.586432   -304.140244
 0.355000   269.145015   -272.529172
 0.360000   267.861141   -320.352523
 0.365000   265.941489   -298.935007
 0.370000   264.871791   -172.977128
 0.375000   264.211718   -121.405338
 0.380000   263.657737   -132.441724
 0.385000   262.887301   -164.081292
 0.390000   262.016924   -109.650647
 0.395000   261.790794   -33.193207
 0.400000   261.684992   -9.249425
 0.405000   261.698300   -45.102390
 0.410000   261.233968   -33.621319
 0.415000   261.362087   25.443016
 0.420000   261.488399   23.848062
 0.425000   261.600568   -26.688034
 0.430000   261.221518   -47.679902
 0.435000   261.123769   -9.373643
 0.440000   261.127782   -4.864257
 0.445000   261.075126   -35.264286
 0.450000   260.775139   -75.069499
 0.455000   260.324431   -53.791562
 0.460000   260.237223   -14.510730
 0.465000   260.179324   -12.384416
 0.470000   260.113379   -31.372510
 0.475000   259.865599   -2.485563
 0.480000   260.088524   56.154064
 0.485000   260.427139   80.199767
 0.490000   260.890521   74.645264
 0.495000   261.173592   91.150430
 0.500000   261.802025   141.444856
 0.505000   262.588040   164.224437
 0.510000   263.444270   167.631475
 0.515000   264.264355   158.463397
 0.520000   265.028904   167.631289
 0.525000   265.940668   185.264229
 0.530000   266.881546   193.857325
 0.535000   267.879241   166.874859
 0.540000   268.550295   166.223941
 0.545000   269.541481   205.493823
 0.550000   270.605233   215.937881
 0.555000   271.700860   212.535469
 0.560000   272.730588   194.442637
 0.565000   273.645286   208.994342
 0.570000   274.820531   245.003635
 0.575000   276.095322   264.451716
 0.580000   277.465048   251.339249
 0.585000   278.608715   246.754604
 0.590000   279.932594   285.754074
 0.595000   281.466256   320.612468
 0.600000   283.138719   350.468836
 0.605000   284.970944   348.426999
 0.610000   286.622989   355.146676
 0.615000   288.522411   396.509528
 0.620000   290.588084   424.135988
 0.625000   292.763771   447.090284
 0.630000   295.058987   467.383064
 0.635000   297.437601   499.653995
 0.640000   300.055527   542.253737
 0.645000   302.860139   577.012287
 0.650000   305.825650   610.273191
 0.655000   308.962870   647.150507
 0.660000   312.297155   688.892648
 0.665000   315.851797   729.232718
 0.670000   319.589482   765.447111
 0.675000   323.506268   803.469235
 0.680000   327.624174   847.273590
 0.685000   331.979004   904.603008
 0.690000   336.670205   958.643409
 0.695000   341.565438   1000.540955
 0.700000   346.675614   1049.249270
 0.705000   352.057931   1103.593654
 0.710000   357.711551   1159.654859
 0.715000   363.654479   1226.337056
 0.720000   369.974921   1276.852021
 0.725000   376.422999   1314.142395
 0.730000   383.116345   1367.280330
 0.735000   390.095803   1421.825759
 0.740000   397.334603   1473.586265
 0.745000   404.831665   1524.678943
 0.750000   412.581392   1572.650331
 0.755000   420.558169   1605.191484
 0.760000   428.633307   1644.831641
 0.765000   437.006485   1704.868335
 0.770000   445.681990   1768.802232
 0.775000   454.694507   1843.314541
 0.780000   464.115136   1931.567174
 0.785000   474.010179   2001.599894
 0.790000   484.131135   2079.978284
 0.795000   494.809962   2188.192998
 0.800000   506.013065   2288.543981
 0.805000   517.695402   2383.300788
 0.810000   529.846073   2476.068163
 0.815000   542.456083   2567.312900
 0.820000   555.519202   2656.038339
 0.825000   569.016467   2742.265095
 0.830000   582.941852   2765.256548
 0.835000   596.669032   2842.609792
 0.840000   611.367950   2977.712017
 0.845000   626.446153   3049.623183
 0.850000   641.864182   3121.535897
 0.855000   657.661512   3195.598298
 0.860000   673.820165   3263.019517
 0.865000   690.291707   3369.065261
 0.870000   707.510818   3599.023630
 0.875000   726.281943   3949.825903
 0.880000   747.009077   4398.527684
 0.885000   770.267220   4964.552997
 0.890000   796.654607   5687.160496
 0.895000   827.138825   6636.443512
 0.900000   863.019042   7943.033493
 0.905000   906.569160   9834.876236
 0.910000   961.367804   12407.770892
 0.915000   1030.646869   15570.290439
 0.920000   1117.070709   19180.981511
 0.925000   1222.456684   23063.878995
 0.930000   1347.709499   26662.066795
 0.935000   1489.077352   28738.064675
 0.940000   1635.090145   28210.736880
 0.945000   1771.184720   26218.477937
 0.950000   1897.274925   28226.730914
 0.955000   2053.452030   43007.133553
 0.960000   2327.346260   68162.453934
 0.965000   2735.076569   85544.989794
 0.970000   3182.796158   80062.998440
 0.975000   3535.706553   51234.053814
 0.980000   3695.136696   18650.049509
 0.985000   3722.207048   12320.065345
 0.990000   3818.337350   39326.446317
 0.995000   4115.471512   314344.378195
 1.000000   6961.781132   824179.469857
201 psinorm ommpp() dommpp/dpsiN
 0.000000   92.226851   -26574.612528
 0.005000   -7.923183   -13485.401339
 0.010000   -42.627162   -7699.131640
 0.015000   -84.914500   -8092.138874
 0.020000   -123.548551   -7130.970413
 0.025000   -156.224204   -6165.955737
 0.030000   -185.208108   -5541.840194
 0.035000   -211.642606   -5000.485582
 0.040000   -235.212964   -4481.204957
 0.045000   -256.454655   -4165.498666
 0.050000   -276.867951   -3696.040356
 0.055000   -293.415059   -3382.941708
 0.060000   -310.697368   -3082.293848
 0.065000   -324.237997   -2673.866189
 0.070000   -337.436029   -2511.294087
 0.075000   -349.350938   -2225.538881
 0.080000   -359.691418   -1946.624509
 0.085000   -368.817183   -1742.946801
 0.090000   -377.120886   -1517.241345
 0.095000   -383.989597   -1288.082309
 0.100000   -390.001709   -1084.620657
 0.105000   -394.835803   -870.567654
 0.110000   -398.707386   -713.410423
 0.115000   -401.969907   -560.524251
 0.120000   -404.312628   -390.910686
 0.125000   -405.879014   -237.659245
 0.130000   -406.689221   -72.212405
 0.135000   -406.601138   46.674132
 0.140000   -406.222480   121.008389
 0.145000   -405.391055   284.126856
 0.150000   -403.381211   475.781236
 0.155000   -400.633242   595.400903
 0.160000   -397.427202   686.788702
 0.165000   -393.765355   781.362883
 0.170000   -389.613573   867.223041
 0.175000   -385.093125   979.249351
 0.180000   -379.821080   1082.862971
 0.185000   -374.264495   1107.245774
 0.190000   -368.748622   1116.577929
 0.195000   -363.098716   1148.672999
 0.200000   -357.261892   1245.085880
 0.205000   -350.647857   1416.364117
 0.210000   -343.098251   1374.282345
 0.215000   -336.905033   1240.994374
 0.220000   -330.688307   1206.164235
 0.225000   -324.843391   1161.327331
 0.230000   -319.075034   1188.515662
 0.235000   -312.958235   1347.051663
 0.240000   -305.604517   1460.624250
 0.245000   -298.351992   1306.442678
 0.250000   -292.540090   1145.318816
 0.255000   -286.898804   1117.278894
 0.260000   -281.367301   1094.967668
 0.265000   -275.949127   1266.086618
 0.270000   -268.706435   1303.860049
 0.275000   -262.910527   1079.590943
 0.280000   -257.910526   969.163410
 0.285000   -253.218893   905.044103
 0.290000   -248.860085   1001.441878
 0.295000   -243.204474   1013.074645
 0.300000   -238.729338   796.967980
 0.305000   -235.234794   680.548874
 0.310000   -231.923850   642.466658
 0.315000   -228.810127   752.059502
 0.320000   -224.403255   710.285286
 0.325000   -221.707275   452.924910
 0.330000   -219.874005   345.467118
 0.335000   -218.252603   375.021260
 0.340000   -216.123793   470.554939
 0.345000   -213.547054   385.571848
 0.350000   -212.268074   239.830237
 0.355000   -211.148752   207.582444
 0.360000   -210.192250   254.565491
 0.365000   -208.603097   233.702911
 0.370000   -207.855221   108.662589
 0.375000   -207.516471   57.080308
 0.380000   -207.284418   67.871234
 0.385000   -206.837758   99.259832
 0.390000   -206.291819   45.013831
 0.395000   -206.387620   -31.487496
 0.400000   -206.606694   -56.283903
 0.405000   -206.950459   -22.227446
 0.410000   -206.828969   -37.882553
 0.415000   -207.329285   -103.902523
 0.420000   -207.867994   -111.020408
 0.425000   -208.439489   -71.615697
 0.430000   -208.584151   -63.765867
 0.435000   -209.077147   -116.375951
 0.440000   -209.747911   -136.801692
 0.445000   -210.445164   -121.416794
 0.450000   -210.962078   -93.680891
 0.455000   -211.381973   -125.037348
 0.460000   -212.212452   -171.456165
 0.465000   -213.096535   -176.415779
 0.470000   -213.976610   -155.296830
 0.475000   -214.649503   -177.237508
 0.480000   -215.748985   -225.810328
 0.485000   -216.907607   -237.494333
 0.490000   -218.123928   -218.113992
 0.495000   -219.088746   -220.063465
 0.500000   -220.324563   -256.416492
 0.505000   -221.652911   -267.702039
 0.510000   -223.001583   -262.182305
 0.515000   -224.274734   -246.184687
 0.520000   -225.463430   -250.349633
 0.525000   -226.778231   -264.349258
 0.530000   -228.106923   -270.129482
 0.535000   -229.479526   -240.682249
 0.540000   -230.513745   -237.606637
 0.545000   -231.855592   -274.518945
 0.550000   -233.258935   -282.893515
 0.555000   -234.684527   -277.619071
 0.560000   -236.035125   -257.776800
 0.565000   -237.262295   -270.779702
 0.570000   -238.742922   -305.542004
 0.575000   -240.317715   -323.960001
 0.580000   -241.982522   -309.913418
 0.585000   -243.416849   -304.593373
 0.590000   -245.028456   -343.078381
 0.595000   -246.847633   -377.504636
 0.600000   -248.803502   -407.088227
 0.605000   -250.918515   -405.023558
 0.610000   -252.853738   -411.763093
 0.615000   -255.036146   -453.171158
 0.620000   -257.385450   -480.959597
 0.625000   -259.845742   -504.198309
 0.630000   -262.427433   -524.951743
 0.635000   -265.095260   -557.771643
 0.640000   -268.005149   -600.753462
 0.645000   -271.102794   -635.870225
 0.650000   -274.363851   -669.680428
 0.655000   -277.799599   -707.241641
 0.660000   -281.436268   -749.906838
 0.665000   -285.298667   -791.680233
 0.670000   -289.353070   -829.963883
 0.675000   -293.598306   -870.636434
 0.680000   -298.059434   -917.024412
 0.685000   -302.768550   -976.025622
 0.690000   -307.819691   -1030.971658
 0.695000   -313.078266   -1074.048889
 0.700000   -318.560180   -1120.150577
 0.705000   -324.279772   -1168.466879
 0.710000   -330.244848   -1219.174778
 0.715000   -336.471520   -1280.186378
 0.720000   -343.046712   -1325.099250
 0.725000   -349.722513   -1357.841190
 0.730000   -356.625124   -1404.308619
 0.735000   -363.765599   -1451.991644
 0.740000   -371.145040   -1500.486765
 0.745000   -378.770466   -1550.082028
 0.750000   -386.645861   -1598.417626
 0.755000   -394.754643   -1631.803099
 0.760000   -402.963892   -1674.770294
 0.765000   -411.502346   -1740.748675
 0.770000   -420.371378   -1810.582460
 0.775000   -429.608170   -1891.178157
 0.780000   -439.283160   -1984.994059
 0.785000   -449.458111   -2058.851725
 0.790000   -459.871677   -2141.936842
 0.795000   -470.877479   -2255.788374
 0.800000   -482.429561   -2360.296332
 0.805000   -494.480443   -2458.860343
 0.810000   -507.018164   -2555.055518
 0.815000   -520.030998   -2649.230525
 0.820000   -533.510470   -2740.373782
 0.825000   -547.434736   -2828.462738
 0.830000   -561.795097   -2852.953979
 0.835000   -575.964275   -2931.636504
 0.840000   -591.111462   -3068.039938
 0.845000   -606.644675   -3142.201756
 0.850000   -622.533480   -3217.588143
 0.855000   -638.820556   -3295.966533
 0.860000   -655.493145   -3369.519020
 0.865000   -672.515746   -3484.855723
 0.870000   -690.341702   -3727.656097
 0.875000   -709.792307   -4096.459353
 0.880000   -731.306296   -4568.550959
 0.885000   -755.477817   -5162.449360
 0.890000   -782.930789   -5919.898888
 0.895000   -814.676806   -6913.256817
 0.900000   -852.063358   -8271.492006
 0.905000   -897.391726   -10222.120805
 0.910000   -954.284566   -12858.958190
 0.915000   -1025.981308   -16082.813887
 0.920000   -1115.112704   -19750.171153
 0.925000   -1223.483019   -23680.786405
 0.930000   -1351.920569   -27312.040457
 0.935000   -1496.603424   -29409.270842
 0.940000   -1646.013277   -28889.345416
 0.945000   -1785.496878   -26869.944557
 0.950000   -1914.712723   -28827.521183
 0.955000   -2073.772090   -43556.042425
 0.960000   -2350.273147   -68653.710057
 0.965000   -2760.309190   -85965.991993
 0.970000   -3209.933067   -80357.138358
 0.975000   -3563.880574   -51263.709470
 0.980000   -3722.570161   -18288.693550
 0.985000   -3746.767509   -11532.866695
 0.990000   -3837.898828   -38188.306010
 0.995000   -4128.650570   -313068.933755
 1.000000   -6968.588166   -822906.104782
201 psinorm omevb() domevb/dpsiN
 0.000000   44.480765   115.717639
 0.005000   44.874740   41.872282
 0.010000   44.899488   0.109290
 0.015000   44.875833   -7.322234
 0.020000   44.826266   -11.709987
 0.025000   44.758733   -15.335831
 0.030000   44.672907   -18.636951
 0.035000   44.572363   -21.302867
 0.040000   44.459879   -23.429630
 0.045000   44.338067   -25.056316
 0.050000   44.209316   -25.929901
 0.055000   44.078768   -25.956054
 0.060000   43.949755   -25.707780
 0.065000   43.821690   -25.353092
 0.070000   43.696224   -24.722769
 0.075000   43.574463   -24.077173
 0.080000   43.455452   -23.593924
 0.085000   43.338523   -23.145328
 0.090000   43.223999   -22.825988
 0.095000   43.110264   -22.399283
 0.100000   43.000006   -21.680518
 0.105000   42.893458   -20.791126
 0.110000   42.792095   -19.780454
 0.115000   42.695654   -18.693270
 0.120000   42.605162   -17.518575
 0.125000   42.520468   -16.227143
 0.130000   42.442891   -15.146502
 0.135000   42.369003   -14.399004
 0.140000   42.298901   -13.918435
 0.145000   42.229819   -13.816285
 0.150000   42.160738   -14.231247
 0.155000   42.087506   -14.963639
 0.160000   42.011102   -15.903747
 0.165000   41.928469   -17.061364
 0.170000   41.840488   -18.178154
 0.175000   41.746687   -19.126726
 0.180000   41.649221   -20.202781
 0.185000   41.544659   -21.500796
 0.190000   41.434213   -22.449790
 0.195000   41.320162   -23.103570
 0.200000   41.203177   -23.742193
 0.205000   41.082740   -24.708195
 0.210000   40.956095   -25.943388
 0.215000   40.823306   -26.709757
 0.220000   40.688997   -26.871753
 0.225000   40.554588   -26.736666
 0.230000   40.421631   -26.155068
 0.235000   40.293038   -25.753890
 0.240000   40.164092   -24.523577
 0.245000   40.047802   -21.919840
 0.250000   39.944894   -19.594009
 0.255000   39.851862   -17.506444
 0.260000   39.769829   -15.350010
 0.265000   39.698362   -13.441428
 0.270000   39.635415   -11.426856
 0.275000   39.584093   -9.635912
 0.280000   39.539056   -8.699823
 0.285000   39.497095   -8.314288
 0.290000   39.455913   -8.345782
 0.295000   39.413637   -8.376848
 0.300000   39.372144   -9.322898
 0.305000   39.320408   -12.715140
 0.310000   39.244993   -17.282990
 0.315000   39.147578   -21.647062
 0.320000   39.028522   -25.780985
 0.325000   38.889768   -29.607214
 0.330000   38.732450   -33.403267
 0.335000   38.555736   -36.533284
 0.340000   38.367117   -38.493939
 0.345000   38.170796   -39.697607
 0.350000   37.970141   -40.229152
 0.355000   37.768505   -40.845217
 0.360000   37.561689   -41.666925
 0.365000   37.351835   -41.095444
 0.370000   37.150735   -40.163385
 0.375000   36.950202   -40.161405
 0.380000   36.749121   -40.396414
 0.385000   36.546237   -40.638943
 0.390000   36.342731   -40.447856
 0.395000   36.141759   -40.487286
 0.400000   35.937858   -41.337428
 0.405000   35.728385   -43.133415
 0.410000   35.506524   -47.308880
 0.415000   35.255296   -54.267882
 0.420000   34.963845   -62.986012
 0.425000   34.625436   -74.124601
 0.430000   34.222599   -87.275739
 0.435000   33.752678   -101.590549
 0.440000   33.206694   -117.519760
 0.445000   32.577481   -132.549605
 0.450000   31.881198   -144.635472
 0.455000   31.131126   -154.732376
 0.460000   30.333874   -161.890560
 0.465000   29.512220   -164.745859
 0.470000   28.686415   -162.638786
 0.475000   27.885832   -155.718070
 0.480000   27.129235   -145.678570
 0.485000   26.429047   -133.345917
 0.490000   25.795776   -119.550847
 0.495000   25.233538   -105.027629
 0.500000   24.745499   -91.120396
 0.505000   24.322334   -79.662205
 0.510000   23.948877   -70.772932
 0.515000   23.614605   -63.982536
 0.520000   23.309052   -59.020358
 0.525000   23.024401   -55.429422
 0.530000   22.754758   -52.660517
 0.535000   22.497796   -50.241296
 0.540000   22.252345   -47.863704
 0.545000   22.019159   -45.554772
 0.550000   21.796797   -43.535450
 0.555000   21.583805   -41.715088
 0.560000   21.379646   -40.018806
 0.565000   21.183617   -38.524630
 0.570000   20.994400   -37.333715
 0.575000   20.810279   -36.361140
 0.580000   20.630788   -35.485946
 0.585000   20.455420   -34.810864
 0.590000   20.282680   -34.358092
 0.595000   20.111839   -33.988999
 0.600000   19.942790   -33.780602
 0.605000   19.774033   -33.823464
 0.610000   19.604555   -33.910305
 0.615000   19.434930   -34.023772
 0.620000   19.264317   -34.255248
 0.625000   19.092378   -34.610381
 0.630000   18.918214   -35.142945
 0.635000   18.740948   -35.764986
 0.640000   18.560564   -36.221266
 0.645000   18.378735   -36.654779
 0.650000   18.194016   -37.280433
 0.655000   18.005931   -38.041696
 0.660000   17.813599   -39.043079
 0.665000   17.615500   -40.555631
 0.670000   17.408043   -42.704945
 0.675000   17.188451   -45.436176
 0.680000   16.953681   -48.101253
 0.685000   16.707438   -49.855031
 0.690000   16.455131   -50.843039
 0.695000   16.199008   -52.105312
 0.700000   15.934077   -49.581277
 0.705000   15.703195   -43.635530
 0.710000   15.497722   -38.363988
 0.715000   15.319555   -32.774197
 0.720000   15.169980   -27.251472
 0.725000   15.047041   -22.780383
 0.730000   14.942176   -16.184480
 0.735000   14.885196   -9.393053
 0.740000   14.848246   -6.193939
 0.745000   14.823256   -4.756763
 0.750000   14.800678   -5.173562
 0.755000   14.771521   -6.060853
 0.760000   14.740070   -9.418853
 0.765000   14.677332   -15.376604
 0.770000   14.586304   -21.274181
 0.775000   14.464590   -27.332725
 0.780000   14.312976   -32.843680
 0.785000   14.136154   -36.583028
 0.790000   13.947146   -41.164100
 0.795000   13.724513   -46.627425
 0.800000   13.480872   -50.554287
 0.805000   13.218970   -54.065086
 0.810000   12.940221   -57.119891
 0.815000   12.647771   -59.590180
 0.820000   12.344319   -61.451440
 0.825000   12.033256   -62.653193
 0.830000   11.717787   -63.385938
 0.835000   11.399397   -63.847024
 0.840000   11.079317   -64.197821
 0.845000   10.757419   -65.456172
 0.850000   10.424755   -67.968963
 0.855000   10.077729   -71.478667
 0.860000   9.709969   -77.155754
 0.865000   9.306172   -86.651891
 0.870000   8.843450   -100.826697
 0.875000   8.297905   -121.991900
 0.880000   7.623531   -151.425666
 0.885000   6.783648   -189.776258
 0.890000   5.725768   -241.829775
 0.895000   4.365350   -313.263663
 0.900000   2.593132   -407.508567
 0.905000   0.290265   -531.796339
 0.910000   -2.724832   -695.770449
 0.915000   -6.667440   -909.416464
 0.920000   -11.818997   -1197.591334
 0.925000   -18.643353   -1595.314163
 0.930000   -27.772138   -2147.691729
 0.935000   -40.120270   -2900.736896
 0.940000   -56.779507   -3818.944394
 0.945000   -78.309714   -4626.786909
 0.950000   -103.047376   -4748.103452
 0.955000   -125.790749   -3568.022571
 0.960000   -138.727602   -1161.608045
 0.965000   -137.406829   1409.896806
 0.970000   -124.628634   3094.705916
 0.975000   -106.459770   3764.940830
 0.980000   -86.979226   3827.705962
 0.985000   -68.182711   3623.215063
 0.990000   -50.747075   3296.918305
 0.995000   -35.213528   2836.771599
 1.000000   -22.379359   2296.895848
201 psinorm omepp() domepp/dpsiN
 0.000000   27.854802   -6.003537
 0.005000   27.805610   -13.673517
 0.010000   27.718067   -17.592447
 0.015000   27.629685   -17.759345
 0.020000   27.540474   -17.924276
 0.025000   27.450443   -18.087226
 0.030000   27.359602   -18.248182
 0.035000   27.267961   -18.407131
 0.040000   27.175530   -18.564061
 0.045000   27.082320   -18.718958
 0.050000   26.988341   -18.871813
 0.055000   26.893602   -19.022612
 0.060000   26.798115   -19.171346
 0.065000   26.701889   -19.318004
 0.070000   26.604935   -19.462575
 0.075000   26.507263   -19.605049
 0.080000   26.408884   -19.745417
 0.085000   26.309809   -19.883671
 0.090000   26.210047   -20.019800
 0.095000   26.109611   -20.153797
 0.100000   26.008509   -20.285653
 0.105000   25.906754   -20.415362
 0.110000   25.804356   -20.542916
 0.115000   25.701325   -20.668307
 0.120000   25.597673   -20.791530
 0.125000   25.493410   -20.912578
 0.130000   25.388547   -21.031446
 0.135000   25.283095   -21.148128
 0.140000   25.177066   -21.262618
 0.145000   25.070469   -21.374914
 0.150000   24.963316   -21.485010
 0.155000   24.855619   -21.592902
 0.160000   24.747387   -21.698587
 0.165000   24.638633   -21.802062
 0.170000   24.529367   -21.903323
 0.175000   24.419600   -22.002369
 0.180000   24.309343   -22.099198
 0.185000   24.198608   -22.193808
 0.190000   24.087405   -22.286197
 0.195000   23.975746   -22.376364
 0.200000   23.863641   -22.464310
 0.205000   23.751103   -22.550033
 0.210000   23.638141   -22.633535
 0.215000   23.524767   -22.714815
 0.220000   23.410993   -22.793874
 0.225000   23.296829   -22.870713
 0.230000   23.182286   -22.945335
 0.235000   23.067375   -23.017740
 0.240000   22.952108   -23.087932
 0.245000   22.836496   -23.155912
 0.250000   22.720549   -23.221685
 0.255000   22.604279   -23.285252
 0.260000   22.487697   -23.346618
 0.265000   22.370813   -23.405786
 0.270000   22.253639   -23.462762
 0.275000   22.136185   -23.517549
 0.280000   22.018463   -23.570152
 0.285000   21.900484   -23.620577
 0.290000   21.782258   -23.668829
 0.295000   21.663796   -23.714915
 0.300000   21.545109   -23.758840
 0.305000   21.426207   -23.800611
 0.310000   21.307102   -23.840235
 0.315000   21.187805   -23.877719
 0.320000   21.068325   -23.913071
 0.325000   20.948674   -23.946298
 0.330000   20.828862   -23.977408
 0.335000   20.708900   -24.006410
 0.340000   20.588798   -24.033312
 0.345000   20.468567   -24.058124
 0.350000   20.348217   -24.080854
 0.355000   20.227758   -24.101512
 0.360000   20.107202   -24.120108
 0.365000   19.986557   -24.136652
 0.370000   19.865835   -24.151154
 0.375000   19.745046   -24.163625
 0.380000   19.624199   -24.174075
 0.385000   19.503305   -24.182517
 0.390000   19.382374   -24.188960
 0.395000   19.261415   -24.193417
 0.400000   19.140440   -24.195900
 0.405000   19.019456   -24.196421
 0.410000   18.898475   -24.194991
 0.415000   18.777507   -24.191625
 0.420000   18.656559   -24.186334
 0.425000   18.535643   -24.179131
 0.430000   18.414768   -24.170030
 0.435000   18.293943   -24.159045
 0.440000   18.173177   -24.146189
 0.445000   18.052481   -24.131475
 0.450000   17.931863   -24.114919
 0.455000   17.811332   -24.096534
 0.460000   17.690897   -24.076335
 0.465000   17.570568   -24.054336
 0.470000   17.450354   -24.030553
 0.475000   17.330263   -24.005001
 0.480000   17.210304   -23.977694
 0.485000   17.090486   -23.948649
 0.490000   16.970818   -23.917881
 0.495000   16.851307   -23.885406
 0.500000   16.731963   -23.851239
 0.505000   16.612795   -23.815398
 0.510000   16.493809   -23.777897
 0.515000   16.375016   -23.738754
 0.520000   16.256422   -23.697986
 0.525000   16.138036   -23.655608
 0.530000   16.019866   -23.611639
 0.535000   15.901920   -23.566094
 0.540000   15.784205   -23.518992
 0.545000   15.666730   -23.470350
 0.550000   15.549501   -23.420184
 0.555000   15.432528   -23.368514
 0.560000   15.315816   -23.315357
 0.565000   15.199374   -23.260731
 0.570000   15.083209   -23.204654
 0.575000   14.967328   -23.147145
 0.580000   14.851738   -23.088222
 0.585000   14.736445   -23.027906
 0.590000   14.621458   -22.966215
 0.595000   14.506783   -22.903169
 0.600000   14.392427   -22.838789
 0.605000   14.278395   -22.773096
 0.610000   14.164696   -22.706112
 0.615000   14.051334   -22.637859
 0.620000   13.938317   -22.568361
 0.625000   13.825651   -22.497644
 0.630000   13.713341   -22.425735
 0.635000   13.601393   -22.352662
 0.640000   13.489814   -22.278459
 0.645000   13.378609   -22.203160
 0.650000   13.267783   -22.126804
 0.655000   13.157341   -22.049438
 0.660000   13.047288   -21.971111
 0.665000   12.937630   -21.891885
 0.670000   12.828369   -21.811828
 0.675000   12.719511   -21.731023
 0.680000   12.611059   -21.649569
 0.685000   12.503016   -21.567584
 0.690000   12.395383   -21.485210
 0.695000   12.288164   -21.402622
 0.700000   12.181357   -21.320031
 0.705000   12.074963   -21.237695
 0.710000   11.968980   -21.155930
 0.715000   11.863404   -21.075126
 0.720000   11.758229   -20.995758
 0.725000   11.653446   -20.918413
 0.730000   11.549045   -20.843809
 0.735000   11.445008   -20.772831
 0.740000   11.341316   -20.706561
 0.745000   11.237943   -20.646322
 0.750000   11.134853   -20.593733
 0.755000   11.032005   -20.550762
 0.760000   10.929346   -20.519800
 0.765000   10.826807   -20.503737
 0.770000   10.724308   -20.506048
 0.775000   10.621747   -20.530891
 0.780000   10.518999   -20.583205
 0.785000   10.415915   -20.668803
 0.790000   10.312311   -20.794458
 0.795000   10.207970   -20.967951
 0.800000   10.102632   -21.198064
 0.805000   9.995990   -21.494470
 0.810000   9.887687   -21.867465
 0.815000   9.777315   -22.327445
 0.820000   9.664413   -22.884003
 0.825000   9.548475   -23.544449
 0.830000   9.428968   -24.311493
 0.835000   9.305360   -25.179687
 0.840000   9.177171   -26.130099
 0.845000   9.044059   -27.122402
 0.850000   8.905947   -28.083283
 0.855000   8.763226   -28.889568
 0.860000   8.617052   -29.343749
 0.865000   8.469789   -29.138572
 0.870000   8.325666   -27.805769
 0.875000   8.191731   -24.641550
 0.880000   8.079250   -18.597610
 0.885000   8.005755   -8.120104
 0.890000   7.998049   9.091384
 0.895000   8.096669   36.450358
 0.900000   8.362553   79.050054
 0.905000   8.887169   144.551770
 0.910000   9.808071   244.583150
 0.915000   11.333001   396.893016
 0.920000   13.777001   628.401692
 0.925000   17.617018   978.406753
 0.930000   23.561068   1497.718067
 0.935000   32.594198   2229.530729
 0.940000   45.856376   3140.335858
 0.945000   63.997557   3975.320289
 0.950000   85.609578   4147.313182
 0.955000   105.470689   3019.113699
 0.960000   115.800715   670.351922
 0.965000   112.174208   -1830.899004
 0.970000   97.491725   -3388.845833
 0.975000   78.285750   -3794.596486
 0.980000   59.545761   -3466.350003
 0.985000   43.622250   -2836.016412
 0.990000   31.185596   -2158.777998
 0.995000   22.034470   -1561.327159
 1.000000   15.572325   -1023.530772
201 psinorm kpol(km/s/T) dkpol/dpsiN
 0.000000   -0.018760   150.104222
 0.005000   0.574924   87.369268
 0.010000   0.854933   52.275044
 0.015000   1.097675   46.978452
 0.020000   1.324718   44.542942
 0.025000   1.543104   42.644257
 0.030000   1.751160   40.862738
 0.035000   1.951731   39.512661
 0.040000   2.146287   38.455977
 0.045000   2.336291   37.666224
 0.050000   2.522949   37.342108
 0.055000   2.709712   37.577196
 0.060000   2.898721   38.106893
 0.065000   3.090781   38.672155
 0.070000   3.285442   39.155963
 0.075000   3.482341   39.428869
 0.080000   3.679731   39.318522
 0.085000   3.875526   38.945077
 0.090000   4.069182   38.564775
 0.095000   4.261174   38.324258
 0.100000   4.452425   38.172908
 0.105000   4.642903   38.204698
 0.110000   4.834472   38.419036
 0.115000   5.027093   38.823231
 0.120000   5.222704   39.336445
 0.125000   5.420458   39.769438
 0.130000   5.620398   39.748263
 0.135000   5.817940   39.222231
 0.140000   6.012621   38.289512
 0.145000   6.200835   36.749179
 0.150000   6.380112   34.559907
 0.155000   6.546434   32.015770
 0.160000   6.700270   29.096555
 0.165000   6.837400   25.786576
 0.170000   6.958136   22.384678
 0.175000   7.061247   18.690443
 0.180000   7.145040   15.247983
 0.185000   7.213727   12.299789
 0.190000   7.268038   9.755836
 0.195000   7.311285   7.697632
 0.200000   7.345014   5.909753
 0.205000   7.370382   4.558042
 0.210000   7.390595   3.293473
 0.215000   7.403317   1.890556
 0.220000   7.409500   0.545404
 0.225000   7.408771   -0.944143
 0.230000   7.400059   -2.326011
 0.235000   7.385511   -3.684588
 0.240000   7.363213   -5.281675
 0.245000   7.332694   -6.648691
 0.250000   7.296726   -7.974527
 0.255000   7.252949   -9.488335
 0.260000   7.201843   -10.877091
 0.265000   7.144178   -12.432839
 0.270000   7.077514   -14.214404
 0.275000   7.002034   -16.172367
 0.280000   6.915791   -18.517803
 0.285000   6.816856   -21.177239
 0.290000   6.704018   -24.079035
 0.295000   6.576066   -27.414576
 0.300000   6.429873   -30.942619
 0.305000   6.266640   -34.375076
 0.310000   6.086122   -37.928834
 0.315000   5.887351   -41.332552
 0.320000   5.672796   -44.162122
 0.325000   5.445730   -46.408397
 0.330000   5.208712   -48.065045
 0.335000   4.965080   -49.141493
 0.340000   4.717297   -49.837213
 0.345000   4.466707   -50.264608
 0.350000   4.214651   -50.357271
 0.355000   3.963135   -50.665920
 0.360000   3.707992   -51.655801
 0.365000   3.446577   -53.059499
 0.370000   3.177397   -54.974948
 0.375000   2.896827   -57.414196
 0.380000   2.603255   -60.059852
 0.385000   2.296229   -62.512730
 0.390000   1.978128   -64.552221
 0.395000   1.650707   -66.288201
 0.400000   1.315246   -67.920285
 0.405000   0.971504   -70.036099
 0.410000   0.614885   -74.329885
 0.415000   0.228205   -81.493229
 0.420000   -0.200047   -90.930732
 0.425000   -0.681103   -102.496726
 0.430000   -1.225015   -115.940280
 0.435000   -1.840505   -131.145483
 0.440000   -2.536469   -148.224381
 0.445000   -3.322749   -164.339207
 0.450000   -4.179862   -177.259286
 0.455000   -5.095342   -187.020463
 0.460000   -6.050066   -192.536457
 0.465000   -7.020707   -192.972977
 0.470000   -7.979796   -186.915554
 0.475000   -8.889862   -174.993712
 0.480000   -9.729733   -159.567668
 0.485000   -10.485539   -141.869629
 0.490000   -11.148429   -122.988165
 0.495000   -11.715420   -103.472740
 0.500000   -12.183157   -84.999072
 0.505000   -12.565411   -70.051736
 0.510000   -12.883674   -58.748496
 0.515000   -13.152896   -50.497364
 0.520000   -13.388648   -44.900965
 0.525000   -13.601906   -41.237051
 0.530000   -13.801018   -38.743464
 0.535000   -13.989340   -36.624448
 0.540000   -14.167263   -34.407260
 0.545000   -14.333413   -32.055594
 0.550000   -14.487819   -29.741022
 0.555000   -14.630823   -27.397642
 0.560000   -14.761795   -24.941300
 0.565000   -14.880236   -22.398227
 0.570000   -14.985777   -19.911127
 0.575000   -15.079347   -17.420494
 0.580000   -15.159982   -14.780334
 0.585000   -15.227151   -12.180477
 0.590000   -15.281787   -9.695368
 0.595000   -15.324105   -7.180940
 0.600000   -15.353597   -4.668208
 0.605000   -15.370787   -2.290944
 0.610000   -15.376506   0.005890
 0.615000   -15.370728   2.299880
 0.620000   -15.353507   4.545338
 0.625000   -15.325274   6.683934
 0.630000   -15.286668   8.781776
 0.635000   -15.237457   10.839768
 0.640000   -15.178270   12.794372
 0.645000   -15.109513   14.713027
 0.650000   -15.031140   16.597260
 0.655000   -14.943540   18.406135
 0.660000   -14.847079   20.131317
 0.665000   -14.742227   21.775395
 0.670000   -14.629325   23.469895
 0.675000   -14.507528   25.540586
 0.680000   -14.373919   28.377960
 0.685000   -14.223749   32.181606
 0.690000   -14.052103   37.023391
 0.695000   -13.853515   42.878978
 0.700000   -13.623313   50.006033
 0.705000   -13.353454   58.158198
 0.710000   -13.041731   66.064578
 0.715000   -12.692808   73.089459
 0.720000   -12.310836   78.909762
 0.725000   -11.903711   82.930690
 0.730000   -11.481529   84.610559
 0.735000   -11.057605   83.260044
 0.740000   -10.648929   78.980380
 0.745000   -10.267801   72.534008
 0.750000   -9.923589   64.523538
 0.755000   -9.622566   55.660859
 0.760000   -9.366980   46.320072
 0.765000   -9.159365   37.670909
 0.770000   -8.990271   30.706432
 0.775000   -8.852301   25.104750
 0.780000   -8.739224   20.549332
 0.785000   -8.646808   16.717236
 0.790000   -8.572051   13.151132
 0.795000   -8.515296   9.177871
 0.800000   -8.480273   4.320952
 0.805000   -8.472087   -1.630632
 0.810000   -8.496579   -8.605090
 0.815000   -8.558138   -16.354930
 0.820000   -8.660128   -24.629574
 0.825000   -8.804434   -33.043309
 0.830000   -8.990561   -41.215040
 0.835000   -9.216584   -48.775225
 0.840000   -9.478314   -55.376521
 0.845000   -9.770349   -60.767882
 0.850000   -10.085992   -64.769036
 0.855000   -10.418040   -67.837073
 0.860000   -10.764363   -70.689798
 0.865000   -11.124937   -73.736626
 0.870000   -11.501729   -77.184043
 0.875000   -11.896778   -81.205675
 0.880000   -12.313786   -85.898718
 0.885000   -12.755765   -90.670458
 0.890000   -13.220491   -94.899830
 0.895000   -13.704763   -98.549584
 0.900000   -14.205987   -101.717728
 0.905000   -14.721941   -104.609430
 0.910000   -15.252081   -106.986124
 0.915000   -15.791802   -106.738234
 0.920000   -16.319463   -101.577163
 0.925000   -16.807574   -85.632002
 0.930000   -17.175783   -58.291075
 0.935000   -17.390484   -17.851270
 0.940000   -17.354296   46.095721
 0.945000   -16.929527   136.647524
 0.950000   -15.987821   233.721282
 0.955000   -14.592314   306.217038
 0.960000   -12.925650   329.270123
 0.965000   -11.299613   295.552666
 0.970000   -9.970124   248.965589
 0.975000   -8.809957   281.086619
 0.980000   -7.159257   467.513981
 0.985000   -4.134817   783.263067
 0.990000   0.673373   1082.212325
 0.995000   6.687306   1163.333399
 1.000000   12.306707   1084.427116
201 psinorm omghb() domghb/dpsiN
 0.000000   -0.000136   0.095820
 0.005000   0.000270   0.066556
 0.010000   0.000530   0.086774
 0.015000   0.001138   0.130042
 0.020000   0.001830   0.147150
 0.025000   0.002610   0.159470
 0.030000   0.003425   0.174412
 0.035000   0.004354   0.185600
 0.040000   0.005281   0.188080
 0.045000   0.006234   0.184283
 0.050000   0.007124   0.173191
 0.055000   0.007966   0.154138
 0.060000   0.008665   0.135595
 0.065000   0.009322   0.119740
 0.070000   0.009863   0.125439
 0.075000   0.010577   0.138612
 0.080000   0.011249   0.134625
 0.085000   0.011923   0.128315
 0.090000   0.012532   0.121605
 0.095000   0.013139   0.106994
 0.100000   0.013602   0.095121
 0.105000   0.014090   0.093833
 0.110000   0.014540   0.064850
 0.115000   0.014739   0.047412
 0.120000   0.015014   0.044238
 0.125000   0.015181   0.037981
 0.130000   0.015394   0.037703
 0.135000   0.015558   0.063494
 0.140000   0.016029   0.109728
 0.145000   0.016655   0.143790
 0.150000   0.017467   0.177545
 0.155000   0.018431   0.198011
 0.160000   0.019447   0.243599
 0.165000   0.020867   0.265251
 0.170000   0.022100   0.265837
 0.175000   0.023525   0.263784
 0.180000   0.024737   0.252274
 0.185000   0.026048   0.255009
 0.190000   0.027288   0.239715
 0.195000   0.028445   0.272306
 0.200000   0.030011   0.279229
 0.205000   0.031237   0.237566
 0.210000   0.032386   0.242330
 0.215000   0.033661   0.247213
 0.220000   0.034858   0.281872
 0.225000   0.036479   0.122463
 0.230000   0.036083   -0.055640
 0.235000   0.035923   -0.061574
 0.240000   0.035467   -0.131150
 0.245000   0.034612   -0.155680
 0.250000   0.033910   -0.119852
 0.255000   0.033413   -0.277013
 0.260000   0.031140   -0.335825
 0.265000   0.030055   -0.196598
 0.270000   0.029174   -0.168141
 0.275000   0.028373   -0.086887
 0.280000   0.028306   -0.123841
 0.285000   0.027135   -0.052713
 0.290000   0.027778   0.187913
 0.295000   0.029014   0.341588
 0.300000   0.031194   0.510495
 0.305000   0.034119   0.688818
 0.310000   0.038082   0.756172
 0.315000   0.041681   1.007786
 0.320000   0.048160   1.101794
 0.325000   0.052699   0.858080
 0.330000   0.056741   0.716899
 0.335000   0.059868   0.540772
 0.340000   0.062149   0.596974
 0.345000   0.065837   0.433963
 0.350000   0.066488   0.149966
 0.355000   0.067337   0.148119
 0.360000   0.067970   0.106386
 0.365000   0.068401   0.111072
 0.370000   0.069080   0.180381
 0.375000   0.070205   0.084694
 0.380000   0.069927   0.044160
 0.385000   0.070646   0.168460
 0.390000   0.071612   0.193728
 0.395000   0.072584   0.209688
 0.400000   0.073709   0.301756
 0.405000   0.075601   0.741832
 0.410000   0.081127   1.380109
 0.415000   0.089402   1.896103
 0.420000   0.100088   2.604417
 0.425000   0.115446   3.253965
 0.430000   0.132628   3.412899
 0.435000   0.149575   3.543985
 0.440000   0.168068   3.724163
 0.445000   0.186817   3.580553
 0.450000   0.203873   3.312226
 0.455000   0.219939   2.515109
 0.460000   0.229024   1.266984
 0.465000   0.232609   0.258081
 0.470000   0.231605   -0.703396
 0.475000   0.225575   -1.688597
 0.480000   0.214719   -2.786938
 0.485000   0.197706   -3.433222
 0.490000   0.180387   -3.426921
 0.495000   0.163437   -3.240477
 0.500000   0.147982   -2.922985
 0.505000   0.134207   -2.554158
 0.510000   0.122440   -2.135668
 0.515000   0.112850   -1.457976
 0.520000   0.107861   -0.896229
 0.525000   0.103888   -0.726174
 0.530000   0.100599   -0.595401
 0.535000   0.097934   -0.541377
 0.540000   0.095185   -0.553331
 0.545000   0.092400   -0.528837
 0.550000   0.089897   -0.460143
 0.555000   0.087799   -0.414032
 0.560000   0.085757   -0.368156
 0.565000   0.084118   -0.293295
 0.570000   0.082824   -0.246409
 0.575000   0.081653   -0.220321
 0.580000   0.080620   -0.178337
 0.585000   0.079870   -0.082629
 0.590000   0.079794   -0.051363
 0.595000   0.079356   -0.050158
 0.600000   0.079293   -0.006311
 0.605000   0.079293   0.037719
 0.610000   0.079670   0.071578
 0.615000   0.080009   0.154937
 0.620000   0.081219   0.157058
 0.625000   0.081580   0.108270
 0.630000   0.082302   0.158504
 0.635000   0.083165   0.173993
 0.640000   0.084042   0.193696
 0.645000   0.085102   0.268582
 0.650000   0.086728   0.253831
 0.655000   0.087640   0.236251
 0.660000   0.089090   0.354763
 0.665000   0.091188   0.510873
 0.670000   0.094199   0.676048
 0.675000   0.097948   1.118424
 0.680000   0.105383   1.112295
 0.685000   0.109071   0.326898
 0.690000   0.108652   -0.203596
 0.695000   0.107035   -0.548210
 0.700000   0.103170   -0.912549
 0.705000   0.097910   -0.760676
 0.710000   0.095563   -1.312655
 0.715000   0.084783   -2.365484
 0.720000   0.071908   -2.177912
 0.725000   0.063004   -1.701116
 0.730000   0.054897   -1.491836
 0.735000   0.048086   -1.170048
 0.740000   0.043197   -1.036065
 0.745000   0.037725   -0.523829
 0.750000   0.037958   0.394910
 0.755000   0.041674   1.132775
 0.760000   0.049286   1.583978
 0.765000   0.057514   1.479315
 0.770000   0.064079   1.484793
 0.775000   0.072362   2.024310
 0.780000   0.084322   2.042465
 0.785000   0.092786   1.705897
 0.790000   0.101381   1.541079
 0.795000   0.108197   1.241715
 0.800000   0.113798   1.257222
 0.805000   0.120769   1.463193
 0.810000   0.128430   1.220648
 0.815000   0.132976   0.862319
 0.820000   0.137054   0.735542
 0.825000   0.140331   0.653700
 0.830000   0.143591   0.619262
 0.835000   0.146524   0.484158
 0.840000   0.148432   0.530478
 0.845000   0.151829   0.907180
 0.850000   0.157504   1.356334
 0.855000   0.165392   1.921688
 0.860000   0.176721   3.000403
 0.865000   0.195396   3.724131
 0.870000   0.213962   4.702423
 0.875000   0.242420   6.704339
 0.880000   0.281006   8.778047
 0.885000   0.330201   10.934090
 0.890000   0.390346   14.202811
 0.895000   0.472229   16.407742
 0.900000   0.554424   18.027845
 0.905000   0.652507   20.470592
 0.910000   0.759130   21.480622
 0.915000   0.867314   20.861529
 0.920000   0.967745   20.893297
 0.925000   1.076247   16.062947
 0.930000   1.128375   9.043915
 0.935000   1.166686   4.058682
 0.940000   1.168961   -3.958705
 0.945000   1.127099   -10.816890
 0.950000   1.060792   -8.342130
 0.955000   1.043677   -14.669983
 0.960000   0.914093   -27.557608
 0.965000   0.768101   -38.971221
 0.970000   0.524380   -68.863114
 0.975000   0.079470   -115.307452
 0.980000   -0.628694   -155.789287
 0.985000   -1.478423   -158.970706
 0.990000   -2.218401   -100.712189
 0.995000   -2.485545   -0.352191
 1.000000   -2.221923   105.800810
201 psinorm nz1(10^20/m^3) dnz1/dpsiN
 0.000000   0.022460   0.000006
 0.005000   0.022457   -0.000924
 0.010000   0.022450   -0.001862
 0.015000   0.022439   -0.002812
 0.020000   0.022422   -0.003771
 0.025000   0.022401   -0.004736
 0.030000   0.022375   -0.005702
 0.035000   0.022344   -0.006664
 0.040000   0.022308   -0.007618
 0.045000   0.022268   -0.008560
 0.050000   0.022223   -0.009488
 0.055000   0.022173   -0.010398
 0.060000   0.022119   -0.011287
 0.065000   0.022060   -0.012152
 0.070000   0.021997   -0.012989
 0.075000   0.021930   -0.013799
 0.080000   0.021859   -0.014586
 0.085000   0.021784   -0.015349
 0.090000   0.021706   -0.016087
 0.095000   0.021623   -0.016801
 0.100000   0.021538   -0.017492
 0.105000   0.021449   -0.018158
 0.110000   0.021356   -0.018793
 0.115000   0.021261   -0.019392
 0.120000   0.021162   -0.019951
 0.125000   0.021061   -0.020471
 0.130000   0.020958   -0.020952
 0.135000   0.020852   -0.021394
 0.140000   0.020744   -0.021796
 0.145000   0.020634   -0.022155
 0.150000   0.020522   -0.022472
 0.155000   0.020409   -0.022746
 0.160000   0.020295   -0.022974
 0.165000   0.020179   -0.023153
 0.170000   0.020063   -0.023279
 0.175000   0.019946   -0.023350
 0.180000   0.019830   -0.023366
 0.185000   0.019713   -0.023327
 0.190000   0.019596   -0.023231
 0.195000   0.019480   -0.023082
 0.200000   0.019365   -0.022901
 0.205000   0.019251   -0.022707
 0.210000   0.019138   -0.022507
 0.215000   0.019026   -0.022303
 0.220000   0.018915   -0.022100
 0.225000   0.018805   -0.021901
 0.230000   0.018696   -0.021686
 0.235000   0.018588   -0.021441
 0.240000   0.018482   -0.021167
 0.245000   0.018377   -0.020859
 0.250000   0.018273   -0.020514
 0.255000   0.018172   -0.020131
 0.260000   0.018072   -0.019690
 0.265000   0.017975   -0.019177
 0.270000   0.017880   -0.018602
 0.275000   0.017789   -0.017964
 0.280000   0.017701   -0.017264
 0.285000   0.017616   -0.016494
 0.290000   0.017536   -0.015673
 0.295000   0.017459   -0.014826
 0.300000   0.017387   -0.013959
 0.305000   0.017320   -0.013083
 0.310000   0.017257   -0.012207
 0.315000   0.017198   -0.011328
 0.320000   0.017143   -0.010474
 0.325000   0.017093   -0.009669
 0.330000   0.017047   -0.008898
 0.335000   0.017004   -0.008160
 0.340000   0.016965   -0.007452
 0.345000   0.016929   -0.006768
 0.350000   0.016897   -0.006097
 0.355000   0.016868   -0.005425
 0.360000   0.016843   -0.004750
 0.365000   0.016821   -0.004074
 0.370000   0.016802   -0.003398
 0.375000   0.016787   -0.002724
 0.380000   0.016775   -0.002055
 0.385000   0.016766   -0.001394
 0.390000   0.016761   -0.000746
 0.395000   0.016759   -0.000116
 0.400000   0.016760   0.000492
 0.405000   0.016764   0.001072
 0.410000   0.016771   0.001620
 0.415000   0.016780   0.002132
 0.420000   0.016792   0.002609
 0.425000   0.016806   0.003051
 0.430000   0.016823   0.003459
 0.435000   0.016841   0.003837
 0.440000   0.016861   0.004188
 0.445000   0.016883   0.004515
 0.450000   0.016906   0.004815
 0.455000   0.016931   0.005088
 0.460000   0.016957   0.005331
 0.465000   0.016984   0.005542
 0.470000   0.017012   0.005714
 0.475000   0.017041   0.005833
 0.480000   0.017071   0.005892
 0.485000   0.017100   0.005891
 0.490000   0.017130   0.005825
 0.495000   0.017158   0.005693
 0.500000   0.017187   0.005491
 0.505000   0.017213   0.005223
 0.510000   0.017239   0.004896
 0.515000   0.017262   0.004516
 0.520000   0.017284   0.004086
 0.525000   0.017303   0.003613
 0.530000   0.017320   0.003101
 0.535000   0.017334   0.002559
 0.540000   0.017346   0.001991
 0.545000   0.017354   0.001397
 0.550000   0.017360   0.000778
 0.555000   0.017362   0.000133
 0.560000   0.017361   -0.000539
 0.565000   0.017357   -0.001240
 0.570000   0.017349   -0.001970
 0.575000   0.017337   -0.002726
 0.580000   0.017321   -0.003504
 0.585000   0.017302   -0.004300
 0.590000   0.017278   -0.005109
 0.595000   0.017251   -0.005925
 0.600000   0.017219   -0.006747
 0.605000   0.017183   -0.007572
 0.610000   0.017143   -0.008399
 0.615000   0.017099   -0.009225
 0.620000   0.017051   -0.010050
 0.625000   0.016999   -0.010874
 0.630000   0.016942   -0.011694
 0.635000   0.016882   -0.012507
 0.640000   0.016817   -0.013310
 0.645000   0.016749   -0.014100
 0.650000   0.016676   -0.014877
 0.655000   0.016600   -0.015632
 0.660000   0.016520   -0.016352
 0.665000   0.016436   -0.017044
 0.670000   0.016349   -0.017739
 0.675000   0.016259   -0.018492
 0.680000   0.016165   -0.019448
 0.685000   0.016065   -0.020684
 0.690000   0.015958   -0.022122
 0.695000   0.015843   -0.023718
 0.700000   0.015721   -0.025447
 0.705000   0.015589   -0.027260
 0.710000   0.015448   -0.029199
 0.715000   0.015297   -0.031132
 0.720000   0.015137   -0.032794
 0.725000   0.014969   -0.034139
 0.730000   0.014795   -0.035143
 0.735000   0.014617   -0.035734
 0.740000   0.014438   -0.035860
 0.745000   0.014259   -0.035416
 0.750000   0.014084   -0.034371
 0.755000   0.013915   -0.032839
 0.760000   0.013755   -0.030925
 0.765000   0.013606   -0.028727
 0.770000   0.013468   -0.026299
 0.775000   0.013343   -0.023732
 0.780000   0.013231   -0.021244
 0.785000   0.013130   -0.018931
 0.790000   0.013041   -0.016776
 0.795000   0.012963   -0.014807
 0.800000   0.012893   -0.013025
 0.805000   0.012832   -0.011444
 0.810000   0.012779   -0.010085
 0.815000   0.012732   -0.008884
 0.820000   0.012690   -0.007764
 0.825000   0.012654   -0.006701
 0.830000   0.012623   -0.005691
 0.835000   0.012597   -0.004735
 0.840000   0.012576   -0.003839
 0.845000   0.012559   -0.003003
 0.850000   0.012546   -0.002222
 0.855000   0.012536   -0.001496
 0.860000   0.012531   -0.000827
 0.865000   0.012528   -0.000216
 0.870000   0.012529   0.000337
 0.875000   0.012532   0.000835
 0.880000   0.012537   0.001271
 0.885000   0.012544   0.001637
 0.890000   0.012553   0.001917
 0.895000   0.012563   0.002106
 0.900000   0.012574   0.002160
 0.905000   0.012585   0.001992
 0.910000   0.012594   0.001487
 0.915000   0.012600   0.000441
 0.920000   0.012599   -0.001506
 0.925000   0.012585   -0.005082
 0.930000   0.012548   -0.011319
 0.935000   0.012472   -0.021526
 0.940000   0.012333   -0.037378
 0.945000   0.012098   -0.060531
 0.950000   0.011727   -0.091906
 0.955000   0.011179   -0.132127
 0.960000   0.010406   -0.176642
 0.965000   0.009412   -0.216114
 0.970000   0.008245   -0.242047
 0.975000   0.006992   -0.248134
 0.980000   0.005764   -0.233590
 0.985000   0.004656   -0.203787
 0.990000   0.003726   -0.166648
 0.995000   0.002990   -0.129926
 1.000000   0.002426   -0.095346
201 psinorm vtor1(km/s) dvtor1/dpsiN
 0.000000   127.533005   611.498667
 0.005000   129.904478   337.090443
 0.010000   130.903909   175.756325
 0.015000   131.662041   138.262304
 0.020000   132.286532   116.179748
 0.025000   132.823838   101.557485
 0.030000   133.302107   90.732363
 0.035000   133.731162   81.204567
 0.040000   134.114153   72.827059
 0.045000   134.459433   65.665662
 0.050000   134.770809   59.039775
 0.055000   135.049830   52.668257
 0.060000   135.297492   46.759694
 0.065000   135.517427   41.417282
 0.070000   135.711665   36.384447
 0.075000   135.881272   31.604660
 0.080000   136.027711   27.151572
 0.085000   136.152787   22.940162
 0.090000   136.257113   18.748885
 0.095000   136.340276   14.675698
 0.100000   136.403870   10.811000
 0.105000   136.448386   6.888469
 0.110000   136.472755   2.866399
 0.115000   136.477050   -1.138852
 0.120000   136.461366   -5.194371
 0.125000   136.425107   -9.395186
 0.130000   136.367414   -13.656264
 0.135000   136.288544   -17.937859
 0.140000   136.188036   -22.301725
 0.145000   136.065527   -26.739328
 0.150000   135.920643   -31.213414
 0.155000   135.753393   -35.720210
 0.160000   135.563440   -40.286172
 0.165000   135.350531   -44.800776
 0.170000   135.115433   -49.193477
 0.175000   134.858596   -53.504192
 0.180000   134.580391   -57.718596
 0.185000   134.281410   -61.735846
 0.190000   133.963032   -65.417350
 0.195000   133.627237   -68.657631
 0.200000   133.276456   -71.493535
 0.205000   132.912301   -73.959366
 0.210000   132.536862   -76.022581
 0.215000   132.152075   -77.721110
 0.220000   131.759651   -78.976791
 0.225000   131.362308   -79.698380
 0.230000   130.962667   -80.216289
 0.235000   130.560145   -80.653889
 0.240000   130.156129   -80.819825
 0.245000   129.751946   -80.754827
 0.250000   129.348580   -80.515605
 0.255000   128.946790   -80.086503
 0.260000   128.547715   -79.809385
 0.265000   128.148696   -79.905125
 0.270000   127.748664   -80.247249
 0.275000   127.346224   -80.859837
 0.280000   126.940066   -81.759402
 0.285000   126.528630   -82.981657
 0.290000   126.110249   -84.298627
 0.295000   125.685644   -85.488965
 0.300000   125.255359   -86.574962
 0.305000   124.819894   -87.551078
 0.310000   124.379849   -88.380717
 0.315000   123.936087   -89.053853
 0.320000   123.489310   -89.551590
 0.325000   123.040571   -89.856776
 0.330000   122.590742   -89.988002
 0.335000   122.140691   -89.940273
 0.340000   121.691340   -89.721513
 0.345000   121.243476   -89.282157
 0.350000   120.798518   -88.658092
 0.355000   120.356895   -87.929813
 0.360000   119.919220   -87.070129
 0.365000   119.486194   -86.074021
 0.370000   119.058480   -84.958980
 0.375000   118.636604   -83.673282
 0.380000   118.221747   -82.264051
 0.385000   117.813963   -80.846973
 0.390000   117.413277   -79.426728
 0.395000   117.019696   -78.020074
 0.400000   116.633076   -76.696380
 0.405000   116.252732   -75.745941
 0.410000   115.875617   -75.694143
 0.415000   115.495791   -76.660506
 0.420000   115.109012   -78.439911
 0.425000   114.711392   -80.943743
 0.430000   114.299574   -84.040779
 0.435000   113.870984   -87.945349
 0.440000   113.420121   -92.450333
 0.445000   112.946481   -96.682289
 0.450000   112.453298   -100.439543
 0.455000   111.942085   -103.824591
 0.460000   111.415052   -106.704047
 0.465000   110.875045   -109.155903
 0.470000   110.323493   -110.935162
 0.475000   109.765693   -111.415231
 0.480000   109.209341   -110.647139
 0.485000   108.659222   -108.953540
 0.490000   108.119805   -106.435611
 0.495000   107.594866   -103.253942
 0.500000   107.087266   -99.600220
 0.505000   106.598863   -95.712189
 0.510000   106.130144   -91.774791
 0.515000   105.681115   -87.869173
 0.520000   105.251452   -84.067288
 0.525000   104.840443   -80.404367
 0.530000   104.447409   -76.873633
 0.535000   104.071706   -73.656538
 0.540000   103.710843   -70.871435
 0.545000   103.362992   -68.468134
 0.550000   103.026162   -66.484119
 0.555000   102.698151   -64.935333
 0.560000   102.376809   -63.811129
 0.565000   102.060039   -63.233226
 0.570000   101.744476   -63.257528
 0.575000   101.427464   -63.811775
 0.580000   101.106359   -64.886711
 0.585000   100.778597   -66.444928
 0.590000   100.441909   -68.403648
 0.595000   100.094561   -70.697302
 0.600000   99.734936   -73.313114
 0.605000   99.361429   -76.250004
 0.610000   98.972436   -79.497380
 0.615000   98.566456   -83.030331
 0.620000   98.142133   -86.775950
 0.625000   97.698696   -90.766561
 0.630000   97.234467   -95.042694
 0.635000   96.748269   -99.548462
 0.640000   96.238983   -104.266453
 0.645000   95.705605   -109.180070
 0.650000   95.147182   -114.262767
 0.655000   94.562977   -119.576706
 0.660000   93.951415   -125.181275
 0.665000   93.311164   -131.005304
 0.670000   92.641362   -136.909380
 0.675000   91.942070   -142.661438
 0.680000   91.214748   -147.722466
 0.685000   90.464846   -151.624416
 0.690000   89.698503   -154.487089
 0.695000   88.919975   -156.578023
 0.700000   88.132723   -158.086610
 0.705000   87.339109   -159.226686
 0.710000   86.540456   -160.026884
 0.715000   85.738840   -160.817694
 0.720000   84.932279   -161.983566
 0.725000   84.119004   -163.433427
 0.730000   83.297945   -165.116795
 0.735000   82.467836   -167.076910
 0.740000   81.627176   -169.588802
 0.745000   80.771948   -173.264193
 0.750000   79.894534   -178.312874
 0.755000   78.988820   -184.559125
 0.760000   78.048943   -191.748388
 0.765000   77.071336   -199.350047
 0.770000   76.055442   -207.162911
 0.775000   74.999707   -214.505621
 0.780000   73.910386   -219.612686
 0.785000   72.803580   -221.993155
 0.790000   71.690455   -222.037768
 0.795000   70.583202   -219.610532
 0.800000   69.494349   -214.857315
 0.805000   68.434629   -208.110180
 0.810000   67.413248   -199.540561
 0.815000   66.439223   -189.619369
 0.820000   65.517054   -178.944456
 0.825000   64.649779   -167.841098
 0.830000   63.838643   -156.730665
 0.835000   63.082472   -146.096171
 0.840000   62.377681   -136.471901
 0.845000   61.717753   -128.761938
 0.850000   61.090062   -123.950744
 0.855000   60.478246   -122.793270
 0.860000   59.862129   -126.232910
 0.865000   59.215917   -136.133070
 0.870000   58.500798   -153.354659
 0.875000   57.682370   -178.960736
 0.880000   56.711191   -215.505718
 0.885000   55.527313   -264.985148
 0.890000   54.061340   -328.993584
 0.895000   52.237377   -410.267033
 0.900000   49.958669   -505.831927
 0.905000   47.179058   -610.048182
 0.910000   43.858187   -718.760070
 0.915000   39.991457   -823.638924
 0.920000   35.621798   -914.381236
 0.925000   30.847645   -979.767879
 0.930000   25.824119   -1006.108057
 0.935000   20.786564   -985.460368
 0.940000   15.969516   -919.065528
 0.945000   11.595909   -811.940127
 0.950000   7.850114   -673.970960
 0.955000   4.856199   -516.951742
 0.960000   2.680597   -357.475284
 0.965000   1.281446   -210.877749
 0.970000   0.571819   -84.712058
 0.975000   0.434326   16.482353
 0.980000   0.736643   91.248156
 0.985000   1.346807   139.915233
 0.990000   2.135795   165.546605
 0.995000   3.002273   173.111000
 1.000000   3.866905   172.741804
201 psinorm vpol1(km/s) dvpol1/dpsiN
 0.000000   -0.000172   5.171875
 0.005000   0.027039   5.712500
 0.010000   0.056953   6.254688
 0.015000   0.089586   6.767187
 0.020000   0.124625   7.232422
 0.025000   0.161910   7.629297
 0.030000   0.200918   7.956641
 0.035000   0.241477   8.236328
 0.040000   0.283281   8.492188
 0.045000   0.326398   8.755469
 0.050000   0.370836   9.053516
 0.055000   0.416934   9.400000
 0.060000   0.464836   9.785547
 0.065000   0.514789   10.190234
 0.070000   0.566738   10.563281
 0.075000   0.620422   10.885547
 0.080000   0.675594   11.144922
 0.085000   0.731871   11.334375
 0.090000   0.788938   11.502734
 0.095000   0.846898   11.680859
 0.100000   0.905746   11.872656
 0.105000   0.965625   12.089844
 0.110000   1.026645   12.331250
 0.115000   1.088938   12.616406
 0.120000   1.152809   12.923437
 0.125000   1.218172   13.203125
 0.130000   1.284840   13.379687
 0.135000   1.351969   13.428906
 0.140000   1.419129   13.375000
 0.145000   1.485719   13.145313
 0.150000   1.550582   12.743750
 0.155000   1.613156   12.227344
 0.160000   1.672855   11.573828
 0.165000   1.728895   10.809375
 0.170000   1.780949   9.971094
 0.175000   1.828605   9.048828
 0.180000   1.871438   8.128125
 0.185000   1.909887   7.320703
 0.190000   1.944645   6.610156
 0.195000   1.975988   5.985938
 0.200000   2.004504   5.458203
 0.205000   2.030570   5.001172
 0.210000   2.054516   4.570703
 0.215000   2.076277   4.113281
 0.220000   2.095648   3.630078
 0.225000   2.112578   3.141016
 0.230000   2.127059   2.642578
 0.235000   2.139004   2.132422
 0.240000   2.148383   1.602734
 0.245000   2.155031   1.079297
 0.250000   2.159176   0.568750
 0.255000   2.160719   0.037891
 0.260000   2.159555   -0.508984
 0.265000   2.155629   -1.089844
 0.270000   2.148656   -1.730078
 0.275000   2.138328   -2.468750
 0.280000   2.123969   -3.301172
 0.285000   2.105316   -4.238672
 0.290000   2.081582   -5.292969
 0.295000   2.052387   -6.458203
 0.300000   2.017000   -7.700000
 0.305000   1.975387   -8.952734
 0.310000   1.927473   -10.221484
 0.315000   1.873172   -11.454297
 0.320000   1.812930   -12.540234
 0.325000   1.747770   -13.418359
 0.330000   1.678746   -14.105469
 0.335000   1.606715   -14.632812
 0.340000   1.532418   -15.015625
 0.345000   1.456559   -15.294922
 0.350000   1.379469   -15.489063
 0.355000   1.301668   -15.739063
 0.360000   1.222078   -16.187891
 0.365000   1.139789   -16.800391
 0.370000   1.054074   -17.579297
 0.375000   0.963996   -18.508984
 0.380000   0.868984   -19.530859
 0.385000   0.768687   -20.492578
 0.390000   0.664059   -21.300000
 0.395000   0.555688   -22.013672
 0.400000   0.443922   -22.696094
 0.405000   0.328727   -23.534375
 0.410000   0.208578   -25.112891
 0.415000   0.077598   -27.675391
 0.420000   -0.068176   -31.023438
 0.425000   -0.232637   -35.116797
 0.430000   -0.419344   -39.866406
 0.435000   -0.631301   -45.240234
 0.440000   -0.871746   -51.293359
 0.445000   -1.144234   -57.031250
 0.450000   -1.442059   -61.675391
 0.455000   -1.760988   -65.254687
 0.460000   -2.094605   -67.382812
 0.465000   -2.434816   -67.710937
 0.470000   -2.771715   -65.776172
 0.475000   -3.092578   -61.823047
 0.480000   -3.389945   -56.583984
 0.485000   -3.658418   -50.501562
 0.490000   -3.894961   -44.014844
 0.495000   -4.098566   -37.280469
 0.500000   -4.267766   -30.830469
 0.505000   -4.406871   -25.604688
 0.510000   -4.523813   -21.689453
 0.515000   -4.623766   -18.785156
 0.520000   -4.711664   -16.786328
 0.525000   -4.791629   -15.508594
 0.530000   -4.866750   -14.643750
 0.535000   -4.938066   -13.859766
 0.540000   -5.005348   -13.050391
 0.545000   -5.068570   -12.238672
 0.550000   -5.127734   -11.401172
 0.555000   -5.182582   -10.532422
 0.560000   -5.233059   -9.657422
 0.565000   -5.279156   -8.762500
 0.570000   -5.320684   -7.843750
 0.575000   -5.357594   -6.926172
 0.580000   -5.389945   -5.994531
 0.585000   -5.417539   -5.056250
 0.590000   -5.440508   -4.139063
 0.595000   -5.458930   -3.228516
 0.600000   -5.472793   -2.334766
 0.605000   -5.482277   -1.462500
 0.610000   -5.487418   -0.614844
 0.615000   -5.488426   0.207812
 0.620000   -5.485340   1.017578
 0.625000   -5.478250   1.804492
 0.630000   -5.467295   2.572266
 0.635000   -5.452527   3.312891
 0.640000   -5.434166   4.025781
 0.645000   -5.412270   4.731250
 0.650000   -5.386854   5.417188
 0.655000   -5.358098   6.072461
 0.660000   -5.326129   6.705664
 0.665000   -5.291041   7.310742
 0.670000   -5.253021   7.927539
 0.675000   -5.211766   8.681250
 0.680000   -5.166209   9.713867
 0.685000   -5.114627   11.094336
 0.690000   -5.055266   12.848047
 0.695000   -4.986146   14.969531
 0.700000   -4.905570   17.552148
 0.705000   -4.810625   20.507227
 0.710000   -4.700498   23.377344
 0.715000   -4.576852   25.933398
 0.720000   -4.441164   28.058203
 0.725000   -4.296270   29.536328
 0.730000   -4.145801   30.171094
 0.735000   -3.994559   29.712305
 0.740000   -3.848678   28.193750
 0.745000   -3.712621   25.888672
 0.750000   -3.589791   23.015820
 0.755000   -3.482463   19.832422
 0.760000   -3.391467   16.469922
 0.765000   -3.317764   13.351562
 0.770000   -3.257951   10.844141
 0.775000   -3.209322   8.829883
 0.780000   -3.169652   7.187891
 0.785000   -3.137443   5.803711
 0.790000   -3.111615   4.524609
 0.795000   -3.092197   3.097656
 0.800000   -3.080639   1.337500
 0.805000   -3.078822   -0.823438
 0.810000   -3.088873   -3.340625
 0.815000   -3.112229   -6.143164
 0.820000   -3.150305   -9.157227
 0.825000   -3.203801   -12.218164
 0.830000   -3.272486   -15.170703
 0.835000   -3.355508   -17.908203
 0.840000   -3.451568   -20.320117
 0.845000   -3.558709   -22.275586
 0.850000   -3.674324   -23.697070
 0.855000   -3.795680   -24.793750
 0.860000   -3.922262   -25.838281
 0.865000   -4.054062   -26.918164
 0.870000   -4.191443   -28.110938
 0.875000   -4.335172   -29.544336
 0.880000   -4.486887   -31.251172
 0.885000   -4.647684   -32.921680
 0.890000   -4.816104   -34.358398
 0.895000   -4.991268   -35.641211
 0.900000   -5.172516   -36.776758
 0.905000   -5.359035   -37.915820
 0.910000   -5.551674   -38.899219
 0.915000   -5.748027   -38.831055
 0.920000   -5.939984   -36.951172
 0.925000   -6.117539   -32.523242
 0.930000   -6.265217   -24.075391
 0.935000   -6.358293   -9.452539
 0.940000   -6.359742   13.927051
 0.945000   -6.219022   45.844434
 0.950000   -5.901298   80.721582
 0.955000   -5.411807   108.507422
 0.960000   -4.816224   118.257910
 0.965000   -4.229228   107.607227
 0.970000   -3.740151   91.680566
 0.975000   -3.312422   104.229736
 0.980000   -2.697854   175.080420
 0.985000   -1.561618   295.176758
 0.990000   0.253914   407.924146
 0.995000   2.517624   437.191187
 1.000000   4.625825   406.089478
3 N Z A of ION SPECIES
 6.000000   6.000000   12.010700
 1.000000   1.000000   2.000000
 1.000000   1.000000   2.000000
