201 psinorm ne(10^20/m^3) dne/dpsiN
 0.000000   0.491413   -0.342635
 0.005000   0.489704   -0.340722
 0.010000   0.488005   -0.338815
 0.015000   0.486316   -0.336920
 0.020000   0.484636   -0.335036
 0.025000   0.482966   -0.333163
 0.030000   0.481304   -0.331302
 0.035000   0.479653   -0.329453
 0.040000   0.478010   -0.327614
 0.045000   0.476376   -0.325787
 0.050000   0.474752   -0.323970
 0.055000   0.473137   -0.322165
 0.060000   0.471530   -0.320371
 0.065000   0.469933   -0.318587
 0.070000   0.468345   -0.316814
 0.075000   0.466765   -0.315052
 0.080000   0.465194   -0.313301
 0.085000   0.463632   -0.311560
 0.090000   0.462078   -0.309829
 0.095000   0.460534   -0.308109
 0.100000   0.458997   -0.306399
 0.105000   0.457470   -0.304700
 0.110000   0.455950   -0.303010
 0.115000   0.454440   -0.301331
 0.120000   0.452937   -0.299662
 0.125000   0.451443   -0.298002
 0.130000   0.449957   -0.296353
 0.135000   0.448479   -0.294713
 0.140000   0.447010   -0.293083
 0.145000   0.445549   -0.291463
 0.150000   0.444095   -0.289853
 0.155000   0.442650   -0.288252
 0.160000   0.441213   -0.286660
 0.165000   0.439783   -0.285078
 0.170000   0.438362   -0.283505
 0.175000   0.436948   -0.281942
 0.180000   0.435543   -0.280387
 0.185000   0.434145   -0.278842
 0.190000   0.432754   -0.277306
 0.195000   0.431371   -0.275779
 0.200000   0.429996   -0.274261
 0.205000   0.428629   -0.272752
 0.210000   0.427269   -0.271252
 0.215000   0.425916   -0.269760
 0.220000   0.424571   -0.268277
 0.225000   0.423234   -0.266803
 0.230000   0.421903   -0.265338
 0.235000   0.420580   -0.263881
 0.240000   0.419264   -0.262432
 0.245000   0.417956   -0.260992
 0.250000   0.416654   -0.259560
 0.255000   0.415360   -0.258137
 0.260000   0.414073   -0.256722
 0.265000   0.412793   -0.255315
 0.270000   0.411520   -0.253916
 0.275000   0.410254   -0.252525
 0.280000   0.408995   -0.251142
 0.285000   0.407742   -0.249768
 0.290000   0.406497   -0.248401
 0.295000   0.405258   -0.247042
 0.300000   0.404027   -0.245690
 0.305000   0.402802   -0.244347
 0.310000   0.401583   -0.243011
 0.315000   0.400371   -0.241683
 0.320000   0.399166   -0.240362
 0.325000   0.397968   -0.239049
 0.330000   0.396776   -0.237744
 0.335000   0.395590   -0.236446
 0.340000   0.394411   -0.235155
 0.345000   0.393239   -0.233871
 0.350000   0.392073   -0.232595
 0.355000   0.390913   -0.231326
 0.360000   0.389759   -0.230065
 0.365000   0.388612   -0.228810
 0.370000   0.387471   -0.227563
 0.375000   0.386337   -0.226322
 0.380000   0.385208   -0.225089
 0.385000   0.384086   -0.223862
 0.390000   0.382969   -0.222642
 0.395000   0.381859   -0.221430
 0.400000   0.380755   -0.220224
 0.405000   0.379657   -0.219024
 0.410000   0.378565   -0.217832
 0.415000   0.377479   -0.216646
 0.420000   0.376398   -0.215467
 0.425000   0.375324   -0.214294
 0.430000   0.374255   -0.213128
 0.435000   0.373193   -0.211968
 0.440000   0.372136   -0.210815
 0.445000   0.371085   -0.209668
 0.450000   0.370039   -0.208527
 0.455000   0.368999   -0.207393
 0.460000   0.367965   -0.206265
 0.465000   0.366937   -0.205143
 0.470000   0.365914   -0.204028
 0.475000   0.364896   -0.202918
 0.480000   0.363885   -0.201815
 0.485000   0.362878   -0.200718
 0.490000   0.361877   -0.199626
 0.495000   0.360882   -0.198541
 0.500000   0.359892   -0.197462
 0.505000   0.358907   -0.196388
 0.510000   0.357928   -0.195320
 0.515000   0.356954   -0.194258
 0.520000   0.355986   -0.193202
 0.525000   0.355022   -0.192152
 0.530000   0.354064   -0.191107
 0.535000   0.353111   -0.190068
 0.540000   0.352163   -0.189035
 0.545000   0.351221   -0.188007
 0.550000   0.350283   -0.186985
 0.555000   0.349351   -0.185968
 0.560000   0.348424   -0.184957
 0.565000   0.347501   -0.183951
 0.570000   0.346584   -0.182950
 0.575000   0.345672   -0.181955
 0.580000   0.344765   -0.180965
 0.585000   0.343862   -0.179980
 0.590000   0.342965   -0.179001
 0.595000   0.342072   -0.178027
 0.600000   0.341184   -0.177058
 0.605000   0.340302   -0.176094
 0.610000   0.339424   -0.175135
 0.615000   0.338550   -0.174182
 0.620000   0.337682   -0.173233
 0.625000   0.336818   -0.172290
 0.630000   0.335959   -0.171351
 0.635000   0.335104   -0.170417
 0.640000   0.334255   -0.169488
 0.645000   0.333410   -0.168565
 0.650000   0.332569   -0.167645
 0.655000   0.331733   -0.166731
 0.660000   0.330902   -0.165822
 0.665000   0.330075   -0.164917
 0.670000   0.329253   -0.164017
 0.675000   0.328435   -0.163121
 0.680000   0.327621   -0.162230
 0.685000   0.326812   -0.161344
 0.690000   0.326008   -0.160463
 0.695000   0.325208   -0.159586
 0.700000   0.324412   -0.158713
 0.705000   0.323621   -0.157845
 0.710000   0.322834   -0.156982
 0.715000   0.322051   -0.156122
 0.720000   0.321272   -0.155268
 0.725000   0.320498   -0.154417
 0.730000   0.319728   -0.153571
 0.735000   0.318962   -0.152729
 0.740000   0.318201   -0.151892
 0.745000   0.317443   -0.151059
 0.750000   0.316690   -0.150230
 0.755000   0.315941   -0.149405
 0.760000   0.315196   -0.148584
 0.765000   0.314455   -0.147767
 0.770000   0.313719   -0.146954
 0.775000   0.312986   -0.146145
 0.780000   0.312257   -0.145340
 0.785000   0.311532   -0.144538
 0.790000   0.310812   -0.143739
 0.795000   0.310095   -0.142943
 0.800000   0.309382   -0.142149
 0.805000   0.308674   -0.141356
 0.810000   0.307969   -0.140563
 0.815000   0.307268   -0.139766
 0.820000   0.306571   -0.138962
 0.825000   0.305878   -0.138147
 0.830000   0.305190   -0.137312
 0.835000   0.304505   -0.136446
 0.840000   0.303825   -0.135532
 0.845000   0.303150   -0.134544
 0.850000   0.302480   -0.133448
 0.855000   0.301815   -0.132189
 0.860000   0.301158   -0.130697
 0.865000   0.300508   -0.128867
 0.870000   0.299869   -0.126559
 0.875000   0.299243   -0.123589
 0.880000   0.298633   -0.119720
 0.885000   0.298046   -0.114673
 0.890000   0.297487   -0.108159
 0.895000   0.296964   -0.099966
 0.900000   0.296487   -0.090163
 0.905000   0.296062   -0.079507
 0.910000   0.295692   -0.070240
 0.915000   0.295360   -0.067558
 0.920000   0.295016   -0.082158
 0.925000   0.294538   -0.134285
 0.930000   0.293673   -0.259171
 0.935000   0.291947   -0.511619
 0.940000   0.288557   -0.962188
 0.945000   0.282325   -1.669937
 0.950000   0.271858   -2.619437
 0.955000   0.256130   -3.649427
 0.960000   0.235364   -4.465747
 0.965000   0.211473   -4.801798
 0.970000   0.187346   -4.604973
 0.975000   0.165423   -4.047251
 0.980000   0.146873   -3.368268
 0.985000   0.131741   -2.736258
 0.990000   0.119510   -2.219619
 0.995000   0.109544   -1.822590
 1.000000   0.101285   -1.481344
201 psinorm te(KeV) dte/dpsiN
 0.000000   4.031803   -3.865175
 0.005000   4.012469   -3.868576
 0.010000   3.993117   -3.871862
 0.015000   3.973750   -3.874920
 0.020000   3.954368   -3.877751
 0.025000   3.934973   -3.880355
 0.030000   3.915565   -3.882734
 0.035000   3.896145   -3.884889
 0.040000   3.876716   -3.886819
 0.045000   3.857277   -3.888527
 0.050000   3.837831   -3.890013
 0.055000   3.818377   -3.891279
 0.060000   3.798918   -3.892324
 0.065000   3.779454   -3.893151
 0.070000   3.759986   -3.893761
 0.075000   3.740516   -3.894154
 0.080000   3.721045   -3.894331
 0.085000   3.701573   -3.894294
 0.090000   3.682102   -3.894044
 0.095000   3.662632   -3.893581
 0.100000   3.643166   -3.892908
 0.105000   3.623703   -3.892025
 0.110000   3.604246   -3.890933
 0.115000   3.584794   -3.889634
 0.120000   3.565349   -3.888129
 0.125000   3.545913   -3.886419
 0.130000   3.526485   -3.884505
 0.135000   3.507068   -3.882389
 0.140000   3.487661   -3.880072
 0.145000   3.468267   -3.877555
 0.150000   3.448886   -3.874839
 0.155000   3.429519   -3.871927
 0.160000   3.410167   -3.868818
 0.165000   3.390830   -3.865516
 0.170000   3.371511   -3.862020
 0.175000   3.352210   -3.858332
 0.180000   3.332928   -3.854455
 0.185000   3.313666   -3.850388
 0.190000   3.294424   -3.846134
 0.195000   3.275204   -3.841694
 0.200000   3.256007   -3.837070
 0.205000   3.236834   -3.832262
 0.210000   3.217685   -3.827273
 0.215000   3.198561   -3.822104
 0.220000   3.179464   -3.816756
 0.225000   3.160393   -3.811231
 0.230000   3.141351   -3.805531
 0.235000   3.122338   -3.799656
 0.240000   3.103355   -3.793609
 0.245000   3.084402   -3.787391
 0.250000   3.065481   -3.781003
 0.255000   3.046592   -3.774448
 0.260000   3.027736   -3.767726
 0.265000   3.008915   -3.760839
 0.270000   2.990128   -3.753790
 0.275000   2.971377   -3.746579
 0.280000   2.952662   -3.739208
 0.285000   2.933985   -3.731678
 0.290000   2.915345   -3.723992
 0.295000   2.896745   -3.716151
 0.300000   2.878184   -3.708157
 0.305000   2.859663   -3.700011
 0.310000   2.841184   -3.691714
 0.315000   2.822746   -3.683269
 0.320000   2.804351   -3.674677
 0.325000   2.785999   -3.665941
 0.330000   2.767692   -3.657060
 0.335000   2.749429   -3.648038
 0.340000   2.731211   -3.638876
 0.345000   2.713040   -3.629575
 0.350000   2.694915   -3.620137
 0.355000   2.676839   -3.610564
 0.360000   2.658810   -3.600858
 0.365000   2.640830   -3.591020
 0.370000   2.622900   -3.581053
 0.375000   2.605019   -3.570956
 0.380000   2.587190   -3.560734
 0.385000   2.569412   -3.550386
 0.390000   2.551686   -3.539915
 0.395000   2.534013   -3.529323
 0.400000   2.516393   -3.518611
 0.405000   2.498827   -3.507781
 0.410000   2.481315   -3.496834
 0.415000   2.463859   -3.485773
 0.420000   2.446457   -3.474599
 0.425000   2.429113   -3.463314
 0.430000   2.411824   -3.451919
 0.435000   2.394593   -3.440417
 0.440000   2.377420   -3.428808
 0.445000   2.360305   -3.417096
 0.450000   2.343249   -3.405280
 0.455000   2.326252   -3.393364
 0.460000   2.309316   -3.381348
 0.465000   2.292439   -3.369235
 0.470000   2.275623   -3.357026
 0.475000   2.258869   -3.344723
 0.480000   2.242176   -3.332328
 0.485000   2.225545   -3.319842
 0.490000   2.208978   -3.307267
 0.495000   2.192473   -3.294605
 0.500000   2.176031   -3.281857
 0.505000   2.159654   -3.269026
 0.510000   2.143341   -3.256112
 0.515000   2.127093   -3.243117
 0.520000   2.110910   -3.230044
 0.525000   2.094793   -3.216893
 0.530000   2.078741   -3.203667
 0.535000   2.062756   -3.190367
 0.540000   2.046837   -3.176995
 0.545000   2.030986   -3.163553
 0.550000   2.015202   -3.150041
 0.555000   1.999486   -3.136463
 0.560000   1.983837   -3.122818
 0.565000   1.968257   -3.109110
 0.570000   1.952746   -3.095339
 0.575000   1.937304   -3.081508
 0.580000   1.921931   -3.067618
 0.585000   1.906628   -3.053670
 0.590000   1.891394   -3.039666
 0.595000   1.876231   -3.025608
 0.600000   1.861138   -3.011497
 0.605000   1.846116   -2.997335
 0.610000   1.831165   -2.983124
 0.615000   1.816285   -2.968864
 0.620000   1.801476   -2.954558
 0.625000   1.786739   -2.940208
 0.630000   1.772074   -2.925814
 0.635000   1.757481   -2.911378
 0.640000   1.742960   -2.896902
 0.645000   1.728512   -2.882387
 0.650000   1.714137   -2.867835
 0.655000   1.699834   -2.853247
 0.660000   1.685604   -2.838625
 0.665000   1.671448   -2.823970
 0.670000   1.657364   -2.809284
 0.675000   1.643355   -2.794568
 0.680000   1.629419   -2.779824
 0.685000   1.615557   -2.765053
 0.690000   1.601768   -2.750256
 0.695000   1.588054   -2.735436
 0.700000   1.574414   -2.720592
 0.705000   1.560848   -2.705727
 0.710000   1.547357   -2.690843
 0.715000   1.533940   -2.675939
 0.720000   1.520597   -2.661018
 0.725000   1.507329   -2.646081
 0.730000   1.494136   -2.631129
 0.735000   1.481018   -2.616163
 0.740000   1.467975   -2.601184
 0.745000   1.455006   -2.586193
 0.750000   1.442113   -2.571190
 0.755000   1.429294   -2.556176
 0.760000   1.416551   -2.541150
 0.765000   1.403883   -2.526112
 0.770000   1.391290   -2.511061
 0.775000   1.378772   -2.495995
 0.780000   1.366330   -2.480910
 0.785000   1.353963   -2.465801
 0.790000   1.341672   -2.450661
 0.795000   1.329457   -2.435479
 0.800000   1.317317   -2.420243
 0.805000   1.305254   -2.404932
 0.810000   1.293268   -2.389520
 0.815000   1.281359   -2.373974
 0.820000   1.269528   -2.358246
 0.825000   1.257777   -2.342276
 0.830000   1.246105   -2.325985
 0.835000   1.234517   -2.309270
 0.840000   1.223013   -2.292002
 0.845000   1.211597   -2.274017
 0.850000   1.200273   -2.255116
 0.855000   1.189045   -2.235062
 0.860000   1.177922   -2.213583
 0.865000   1.166910   -2.190392
 0.870000   1.156018   -2.165223
 0.875000   1.145257   -2.137902
 0.880000   1.134639   -2.108484
 0.885000   1.124173   -2.077488
 0.890000   1.113864   -2.046294
 0.895000   1.103710   -2.017809
 0.900000   1.093686   -1.997548
 0.905000   1.083734   -1.995360
 0.910000   1.073732   -2.028139
 0.915000   1.063453   -2.123947
 0.920000   1.052493   -2.328051
 0.925000   1.040172   -2.711118
 0.930000   1.025382   -3.378863
 0.935000   1.006384   -4.479630
 0.940000   0.980585   -6.200128
 0.945000   0.944382   -8.728742
 0.950000   0.893298   -12.155343
 0.955000   0.822829   -16.289031
 0.960000   0.730408   -20.455816
 0.965000   0.618271   -23.493397
 0.970000   0.495474   -24.204587
 0.975000   0.376225   -22.147512
 0.980000   0.273999   -18.052398
 0.985000   0.195701   -13.332965
 0.990000   0.140669   -9.174964
 0.995000   0.103951   -6.073474
 1.000000   0.079934   -3.533339
201 psinorm ni(10^20/m^3) dni/dpsiN
 0.000000   0.290680   -0.419668
 0.005000   0.288820   -0.324260
 0.010000   0.287437   -0.243408
 0.015000   0.286386   -0.182308
 0.020000   0.285614   -0.131320
 0.025000   0.285072   -0.089398
 0.030000   0.284720   -0.054867
 0.035000   0.284524   -0.025933
 0.040000   0.284461   -0.001611
 0.045000   0.284508   0.018344
 0.050000   0.284644   0.035195
 0.055000   0.284860   0.048777
 0.060000   0.285132   0.059073
 0.065000   0.285450   0.066942
 0.070000   0.285801   0.072537
 0.075000   0.286176   0.076373
 0.080000   0.286565   0.078495
 0.085000   0.286961   0.078869
 0.090000   0.287354   0.077888
 0.095000   0.287740   0.075954
 0.100000   0.288113   0.073046
 0.105000   0.288470   0.069030
 0.110000   0.288803   0.064018
 0.115000   0.289110   0.058582
 0.120000   0.289389   0.052758
 0.125000   0.289638   0.046452
 0.130000   0.289854   0.039752
 0.135000   0.290035   0.032703
 0.140000   0.290181   0.025384
 0.145000   0.290289   0.017894
 0.150000   0.290360   0.010327
 0.155000   0.290392   0.002729
 0.160000   0.290387   -0.004869
 0.165000   0.290344   -0.012426
 0.170000   0.290263   -0.019909
 0.175000   0.290145   -0.027281
 0.180000   0.289990   -0.034497
 0.185000   0.289800   -0.041553
 0.190000   0.289574   -0.048457
 0.195000   0.289315   -0.055182
 0.200000   0.289023   -0.062024
 0.205000   0.288695   -0.068862
 0.210000   0.288334   -0.075170
 0.215000   0.287943   -0.081053
 0.220000   0.287523   -0.086690
 0.225000   0.287076   -0.092073
 0.230000   0.286603   -0.097211
 0.235000   0.286104   -0.102120
 0.240000   0.285582   -0.107330
 0.245000   0.285031   -0.112338
 0.250000   0.284458   -0.116584
 0.255000   0.283865   -0.120593
 0.260000   0.283252   -0.124432
 0.265000   0.282621   -0.128120
 0.270000   0.281971   -0.132133
 0.275000   0.281299   -0.135998
 0.280000   0.280611   -0.139209
 0.285000   0.279907   -0.142249
 0.290000   0.279189   -0.145167
 0.295000   0.278456   -0.148262
 0.300000   0.277706   -0.151322
 0.305000   0.276942   -0.153927
 0.310000   0.276167   -0.156290
 0.315000   0.275379   -0.158546
 0.320000   0.274581   -0.160958
 0.325000   0.273770   -0.163257
 0.330000   0.272949   -0.165135
 0.335000   0.272119   -0.166877
 0.340000   0.271280   -0.168623
 0.345000   0.270432   -0.170484
 0.350000   0.269575   -0.172203
 0.355000   0.268710   -0.173694
 0.360000   0.267838   -0.175160
 0.365000   0.266959   -0.176749
 0.370000   0.266071   -0.178296
 0.375000   0.265176   -0.179611
 0.380000   0.264274   -0.180827
 0.385000   0.263367   -0.182030
 0.390000   0.262454   -0.183164
 0.395000   0.261536   -0.184074
 0.400000   0.260613   -0.184796
 0.405000   0.259688   -0.185405
 0.410000   0.258759   -0.185909
 0.415000   0.257829   -0.186207
 0.420000   0.256897   -0.186282
 0.425000   0.255966   -0.186235
 0.430000   0.255035   -0.186127
 0.435000   0.254105   -0.185849
 0.440000   0.253176   -0.185383
 0.445000   0.252251   -0.184888
 0.450000   0.251328   -0.184438
 0.455000   0.250406   -0.183927
 0.460000   0.249488   -0.183279
 0.465000   0.248574   -0.182577
 0.470000   0.247663   -0.181880
 0.475000   0.246755   -0.181044
 0.480000   0.245852   -0.179964
 0.485000   0.244955   -0.178731
 0.490000   0.244065   -0.177413
 0.495000   0.243181   -0.175920
 0.500000   0.242306   -0.174169
 0.505000   0.241439   -0.172238
 0.510000   0.240583   -0.170201
 0.515000   0.239737   -0.168008
 0.520000   0.238903   -0.165595
 0.525000   0.238081   -0.163031
 0.530000   0.237273   -0.160383
 0.535000   0.236478   -0.157634
 0.540000   0.235697   -0.154726
 0.545000   0.234930   -0.151697
 0.550000   0.234180   -0.148601
 0.555000   0.233444   -0.145425
 0.560000   0.232725   -0.142111
 0.565000   0.232023   -0.138673
 0.570000   0.231339   -0.135151
 0.575000   0.230672   -0.131552
 0.580000   0.230023   -0.127832
 0.585000   0.229393   -0.123991
 0.590000   0.228783   -0.120077
 0.595000   0.228193   -0.116137
 0.600000   0.227622   -0.112140
 0.605000   0.227071   -0.108072
 0.610000   0.226541   -0.103981
 0.615000   0.226031   -0.099876
 0.620000   0.225542   -0.095718
 0.625000   0.225074   -0.091465
 0.630000   0.224628   -0.087128
 0.635000   0.224203   -0.082720
 0.640000   0.223800   -0.078244
 0.645000   0.223420   -0.073698
 0.650000   0.223063   -0.069052
 0.655000   0.222730   -0.064370
 0.660000   0.222420   -0.059736
 0.665000   0.222133   -0.055127
 0.670000   0.221868   -0.050485
 0.675000   0.221628   -0.045679
 0.680000   0.221412   -0.040297
 0.685000   0.221225   -0.034142
 0.690000   0.221070   -0.027444
 0.695000   0.220950   -0.020313
 0.700000   0.220867   -0.012810
 0.705000   0.220822   -0.005063
 0.710000   0.220817   0.003067
 0.715000   0.220853   0.011249
 0.720000   0.220929   0.018765
 0.725000   0.221041   0.025506
 0.730000   0.221184   0.031418
 0.735000   0.221355   0.036282
 0.740000   0.221547   0.039930
 0.745000   0.221754   0.041992
 0.750000   0.221967   0.042265
 0.755000   0.222177   0.040966
 0.760000   0.222376   0.038289
 0.765000   0.222560   0.034444
 0.770000   0.222721   0.029528
 0.775000   0.222855   0.023784
 0.780000   0.222959   0.017922
 0.785000   0.223034   0.012264
 0.790000   0.223081   0.006752
 0.795000   0.223102   0.001520
 0.800000   0.223097   -0.003372
 0.805000   0.223068   -0.007791
 0.810000   0.223019   -0.011582
 0.815000   0.222952   -0.014987
 0.820000   0.222869   -0.018341
 0.825000   0.222769   -0.021746
 0.830000   0.222651   -0.025240
 0.835000   0.222516   -0.028815
 0.840000   0.222363   -0.032309
 0.845000   0.222193   -0.035587
 0.850000   0.222007   -0.038592
 0.855000   0.221807   -0.041219
 0.860000   0.221595   -0.043363
 0.865000   0.221374   -0.044775
 0.870000   0.221147   -0.045085
 0.875000   0.220923   -0.044073
 0.880000   0.220707   -0.041594
 0.885000   0.220507   -0.037359
 0.890000   0.220333   -0.031003
 0.895000   0.220197   -0.021774
 0.900000   0.220115   -0.009626
 0.905000   0.220101   0.004691
 0.910000   0.220162   0.019719
 0.915000   0.220298   0.031306
 0.920000   0.220475   0.030391
 0.925000   0.220602   0.000993
 0.930000   0.220485   -0.088817
 0.935000   0.219713   -0.289747
 0.940000   0.217588   -0.664159
 0.945000   0.213072   -1.263054
 0.950000   0.204957   -2.065178
 0.955000   0.192420   -2.902769
 0.960000   0.175930   -3.499940
 0.965000   0.157421   -3.632132
 0.970000   0.139608   -3.288037
 0.975000   0.124540   -2.677386
 0.980000   0.112834   -2.054369
 0.985000   0.103997   -1.568441
 0.990000   0.097150   -1.250411
 0.995000   0.091493   -1.060946
 1.000000   0.086540   -0.919881
201 psinorm ti(KeV) dti/dpsiN
 0.000000   5.474429   0.004076
 0.005000   5.473692   -0.298797
 0.010000   5.471441   -0.607633
 0.015000   5.467615   -0.927912
 0.020000   5.462161   -1.258557
 0.025000   5.455030   -1.598234
 0.030000   5.446179   -1.945351
 0.035000   5.435576   -2.298087
 0.040000   5.423198   -2.653640
 0.045000   5.409040   -3.010130
 0.050000   5.393097   -3.366343
 0.055000   5.375376   -3.720185
 0.060000   5.355895   -4.070075
 0.065000   5.334676   -4.414933
 0.070000   5.311746   -4.753051
 0.075000   5.287145   -5.085102
 0.080000   5.260895   -5.411943
 0.085000   5.233026   -5.731955
 0.090000   5.203575   -6.044440
 0.095000   5.172581   -6.349043
 0.100000   5.140085   -6.644670
 0.105000   5.106135   -6.930908
 0.110000   5.070776   -7.207592
 0.115000   5.034059   -7.473423
 0.120000   4.996041   -7.727383
 0.125000   4.956785   -7.968633
 0.130000   4.916355   -8.195495
 0.135000   4.874830   -8.407245
 0.140000   4.832283   -8.604814
 0.145000   4.788782   -8.788128
 0.150000   4.744401   -8.956726
 0.155000   4.699215   -9.110693
 0.160000   4.653294   -9.249617
 0.165000   4.606718   -9.373402
 0.170000   4.559560   -9.482768
 0.175000   4.511891   -9.577569
 0.180000   4.463785   -9.657456
 0.185000   4.415316   -9.722819
 0.190000   4.366557   -9.774048
 0.195000   4.317576   -9.813156
 0.200000   4.268425   -9.843417
 0.205000   4.219142   -9.866105
 0.210000   4.169764   -9.881357
 0.215000   4.120328   -9.889599
 0.220000   4.070868   -9.892108
 0.225000   4.021407   -9.891285
 0.230000   3.971955   -9.883247
 0.235000   3.922574   -9.864405
 0.240000   3.873311   -9.835266
 0.245000   3.824222   -9.793582
 0.250000   3.775375   -9.737327
 0.255000   3.726848   -9.665207
 0.260000   3.678723   -9.574264
 0.265000   3.631106   -9.464932
 0.270000   3.584074   -9.340352
 0.275000   3.537702   -9.201003
 0.280000   3.492064   -9.047370
 0.285000   3.447229   -8.877691
 0.290000   3.403287   -8.694687
 0.295000   3.360282   -8.502758
 0.300000   3.318259   -8.302898
 0.305000   3.277253   -8.097826
 0.310000   3.237281   -7.890533
 0.315000   3.198347   -7.682705
 0.320000   3.160454   -7.479576
 0.325000   3.123552   -7.283479
 0.330000   3.087619   -7.091699
 0.335000   3.052635   -6.904322
 0.340000   3.018576   -6.721334
 0.345000   2.985421   -6.545264
 0.350000   2.953123   -6.374480
 0.355000   2.921677   -6.205070
 0.360000   2.891073   -6.037349
 0.365000   2.861303   -5.870784
 0.370000   2.832365   -5.704043
 0.375000   2.804263   -5.535747
 0.380000   2.777007   -5.358670
 0.385000   2.750676   -5.169091
 0.390000   2.725316   -4.971535
 0.395000   2.700961   -4.768600
 0.400000   2.677630   -4.562262
 0.405000   2.655338   -4.350717
 0.410000   2.634123   -4.137473
 0.415000   2.613963   -3.932184
 0.420000   2.594801   -3.737718
 0.425000   2.576586   -3.554214
 0.430000   2.559259   -3.382569
 0.435000   2.542760   -3.221146
 0.440000   2.527048   -3.071180
 0.445000   2.512049   -2.936166
 0.450000   2.497686   -2.814715
 0.455000   2.483901   -2.705009
 0.460000   2.470636   -2.606848
 0.465000   2.457833   -2.520264
 0.470000   2.445433   -2.446061
 0.475000   2.433372   -2.383255
 0.480000   2.421601   -2.329131
 0.485000   2.410081   -2.281673
 0.490000   2.398784   -2.239130
 0.495000   2.387690   -2.200223
 0.500000   2.376782   -2.163942
 0.505000   2.366050   -2.130578
 0.510000   2.355476   -2.101738
 0.515000   2.345033   -2.078303
 0.520000   2.334693   -2.060370
 0.525000   2.324429   -2.047783
 0.530000   2.314215   -2.040180
 0.535000   2.304027   -2.037709
 0.540000   2.293838   -2.040411
 0.545000   2.283623   -2.047870
 0.550000   2.273360   -2.059855
 0.555000   2.263025   -2.076071
 0.560000   2.252599   -2.096080
 0.565000   2.242064   -2.120041
 0.570000   2.231398   -2.147928
 0.575000   2.220585   -2.179145
 0.580000   2.209607   -2.213405
 0.585000   2.198451   -2.250403
 0.590000   2.187103   -2.289841
 0.595000   2.175552   -2.331459
 0.600000   2.163788   -2.374931
 0.605000   2.151803   -2.419906
 0.610000   2.139589   -2.466069
 0.615000   2.127142   -2.513072
 0.620000   2.114459   -2.561044
 0.625000   2.101532   -2.609220
 0.630000   2.088366   -2.656589
 0.635000   2.074966   -2.703015
 0.640000   2.061336   -2.748062
 0.645000   2.047485   -2.791278
 0.650000   2.033423   -2.833055
 0.655000   2.019155   -2.873680
 0.660000   2.004687   -2.913384
 0.665000   1.990021   -2.952740
 0.670000   1.975159   -2.991583
 0.675000   1.960105   -3.029420
 0.680000   1.944865   -3.067090
 0.685000   1.929434   -3.100926
 0.690000   1.913856   -3.126103
 0.695000   1.898173   -3.143539
 0.700000   1.882420   -3.154421
 0.705000   1.866629   -3.159241
 0.710000   1.850828   -3.158825
 0.715000   1.835041   -3.152399
 0.720000   1.819304   -3.138659
 0.725000   1.803654   -3.118065
 0.730000   1.788123   -3.091068
 0.735000   1.772743   -3.057858
 0.740000   1.757545   -3.018858
 0.745000   1.742555   -2.975638
 0.750000   1.727788   -2.930431
 0.755000   1.713250   -2.884340
 0.760000   1.698945   -2.837615
 0.765000   1.684874   -2.790323
 0.770000   1.671042   -2.742781
 0.775000   1.657447   -2.693429
 0.780000   1.644107   -2.638862
 0.785000   1.631058   -2.578686
 0.790000   1.618321   -2.514435
 0.795000   1.605914   -2.447120
 0.800000   1.593849   -2.377511
 0.805000   1.582138   -2.307217
 0.810000   1.570777   -2.240711
 0.815000   1.559731   -2.180548
 0.820000   1.548972   -2.126519
 0.825000   1.538466   -2.079111
 0.830000   1.528181   -2.038647
 0.835000   1.518080   -2.005241
 0.840000   1.508128   -1.979500
 0.845000   1.498285   -1.963634
 0.850000   1.488492   -1.960382
 0.855000   1.478681   -1.971783
 0.860000   1.468774   -1.999907
 0.865000   1.458682   -2.050405
 0.870000   1.448270   -2.119963
 0.875000   1.437482   -2.204828
 0.880000   1.426222   -2.309888
 0.885000   1.414383   -2.437320
 0.890000   1.401848   -2.590549
 0.895000   1.388478   -2.789621
 0.900000   1.373952   -3.038930
 0.905000   1.358088   -3.336966
 0.910000   1.340583   -3.700664
 0.915000   1.321082   -4.140546
 0.920000   1.299177   -4.668295
 0.925000   1.274399   -5.332848
 0.930000   1.245849   -6.111062
 0.935000   1.213288   -6.955528
 0.940000   1.176293   -7.878473
 0.945000   1.134504   -8.856924
 0.950000   1.087724   -9.849614
 0.955000   1.036007   -10.837974
 0.960000   0.979344   -11.711254
 0.965000   0.918895   -12.349317
 0.970000   0.855851   -12.733473
 0.975000   0.791560   -12.833103
 0.980000   0.727520   -12.630536
 0.985000   0.665255   -12.134909
 0.990000   0.606171   -11.363699
 0.995000   0.551618   -10.375921
 1.000000   0.502412   -9.306430
201 psinorm nb(10^20/m^3) dnb/dpsiN
 0.000000   0.100921   0.077027
 0.005000   0.101075   -0.015362
 0.010000   0.100767   -0.093195
 0.015000   0.100143   -0.151271
 0.020000   0.099255   -0.199234
 0.025000   0.098151   -0.238137
 0.030000   0.096873   -0.269657
 0.035000   0.095454   -0.295593
 0.040000   0.093917   -0.316938
 0.045000   0.092285   -0.333938
 0.050000   0.090578   -0.347860
 0.055000   0.088806   -0.358543
 0.060000   0.086993   -0.365974
 0.065000   0.085147   -0.371017
 0.070000   0.083282   -0.373833
 0.075000   0.081408   -0.374935
 0.080000   0.079533   -0.374369
 0.085000   0.077665   -0.372101
 0.090000   0.075812   -0.368527
 0.095000   0.073979   -0.364049
 0.100000   0.072172   -0.358646
 0.105000   0.070393   -0.352184
 0.110000   0.068650   -0.344778
 0.115000   0.066945   -0.337006
 0.120000   0.065280   -0.328908
 0.125000   0.063656   -0.320391
 0.130000   0.062076   -0.311547
 0.135000   0.060541   -0.302418
 0.140000   0.059052   -0.293081
 0.145000   0.057610   -0.283632
 0.150000   0.056215   -0.274170
 0.155000   0.054868   -0.264740
 0.160000   0.053568   -0.255372
 0.165000   0.052314   -0.246107
 0.170000   0.051107   -0.236976
 0.175000   0.049945   -0.228020
 0.180000   0.048827   -0.219284
 0.185000   0.047752   -0.210775
 0.190000   0.046719   -0.202488
 0.195000   0.045727   -0.194448
 0.200000   0.044774   -0.186362
 0.205000   0.043863   -0.178348
 0.210000   0.042991   -0.170927
 0.215000   0.042154   -0.163991
 0.220000   0.041351   -0.157352
 0.225000   0.040580   -0.151008
 0.230000   0.039841   -0.144961
 0.235000   0.039131   -0.139202
 0.240000   0.038449   -0.133202
 0.245000   0.037799   -0.127469
 0.250000   0.037174   -0.122564
 0.255000   0.036573   -0.117964
 0.260000   0.035995   -0.113614
 0.265000   0.035437   -0.109500
 0.270000   0.034900   -0.105141
 0.275000   0.034386   -0.101005
 0.280000   0.033889   -0.097597
 0.285000   0.033410   -0.094431
 0.290000   0.032945   -0.091454
 0.295000   0.032495   -0.088362
 0.300000   0.032062   -0.085356
 0.305000   0.031642   -0.082848
 0.310000   0.031233   -0.080619
 0.315000   0.030835   -0.078525
 0.320000   0.030448   -0.076291
 0.325000   0.030072   -0.074180
 0.330000   0.029706   -0.072504
 0.335000   0.029347   -0.070983
 0.340000   0.028996   -0.069482
 0.345000   0.028653   -0.067907
 0.350000   0.028317   -0.066519
 0.355000   0.027987   -0.065403
 0.360000   0.027663   -0.064352
 0.365000   0.027344   -0.063208
 0.370000   0.027031   -0.062123
 0.375000   0.026723   -0.061275
 0.380000   0.026418   -0.060502
 0.385000   0.026118   -0.059688
 0.390000   0.025821   -0.058878
 0.395000   0.025529   -0.058206
 0.400000   0.025239   -0.057620
 0.405000   0.024953   -0.057013
 0.410000   0.024669   -0.056364
 0.415000   0.024389   -0.055789
 0.420000   0.024111   -0.055303
 0.425000   0.023836   -0.054800
 0.430000   0.023563   -0.054226
 0.435000   0.023294   -0.053688
 0.440000   0.023026   -0.053241
 0.445000   0.022761   -0.052785
 0.450000   0.022499   -0.052248
 0.455000   0.022239   -0.051728
 0.460000   0.021981   -0.051302
 0.465000   0.021726   -0.050886
 0.470000   0.021472   -0.050394
 0.475000   0.021222   -0.049923
 0.480000   0.020973   -0.049554
 0.485000   0.020726   -0.049190
 0.490000   0.020481   -0.048758
 0.495000   0.020239   -0.048342
 0.500000   0.019998   -0.048015
 0.505000   0.019759   -0.047697
 0.510000   0.019521   -0.047320
 0.515000   0.019285   -0.046945
 0.520000   0.019051   -0.046641
 0.525000   0.018819   -0.046349
 0.530000   0.018588   -0.046012
 0.535000   0.018359   -0.045666
 0.540000   0.018131   -0.045375
 0.545000   0.017905   -0.045104
 0.550000   0.017680   -0.044802
 0.555000   0.017457   -0.044486
 0.560000   0.017235   -0.044215
 0.565000   0.017015   -0.043972
 0.570000   0.016796   -0.043717
 0.575000   0.016578   -0.043443
 0.580000   0.016361   -0.043199
 0.585000   0.016146   -0.042995
 0.590000   0.015931   -0.042797
 0.595000   0.015718   -0.042577
 0.600000   0.015506   -0.042380
 0.605000   0.015294   -0.042233
 0.610000   0.015083   -0.042095
 0.615000   0.014873   -0.041956
 0.620000   0.014664   -0.041830
 0.625000   0.014455   -0.041737
 0.630000   0.014246   -0.041665
 0.635000   0.014038   -0.041606
 0.640000   0.013830   -0.041557
 0.645000   0.013623   -0.041530
 0.650000   0.013415   -0.041524
 0.655000   0.013207   -0.041528
 0.660000   0.013000   -0.041545
 0.665000   0.012792   -0.041579
 0.670000   0.012584   -0.041622
 0.675000   0.012376   -0.041671
 0.680000   0.012167   -0.041727
 0.685000   0.011958   -0.041796
 0.690000   0.011749   -0.041885
 0.695000   0.011540   -0.041981
 0.700000   0.011329   -0.042077
 0.705000   0.011119   -0.042179
 0.710000   0.010908   -0.042292
 0.715000   0.010696   -0.042420
 0.720000   0.010483   -0.042546
 0.725000   0.010270   -0.042662
 0.730000   0.010057   -0.042778
 0.735000   0.009843   -0.042893
 0.740000   0.009628   -0.043019
 0.745000   0.009412   -0.043142
 0.750000   0.009196   -0.043245
 0.755000   0.008980   -0.043335
 0.760000   0.008763   -0.043413
 0.765000   0.008546   -0.043480
 0.770000   0.008328   -0.043539
 0.775000   0.008110   -0.043578
 0.780000   0.007892   -0.043597
 0.785000   0.007674   -0.043601
 0.790000   0.007456   -0.043586
 0.795000   0.007239   -0.043552
 0.800000   0.007021   -0.043496
 0.805000   0.006804   -0.043406
 0.810000   0.006587   -0.043289
 0.815000   0.006371   -0.043153
 0.820000   0.006155   -0.042988
 0.825000   0.005941   -0.042794
 0.830000   0.005727   -0.042566
 0.835000   0.005515   -0.042304
 0.840000   0.005304   -0.041999
 0.845000   0.005095   -0.041633
 0.850000   0.004888   -0.041228
 0.855000   0.004683   -0.040796
 0.860000   0.004480   -0.040323
 0.865000   0.004280   -0.039832
 0.870000   0.004082   -0.039350
 0.875000   0.003886   -0.038891
 0.880000   0.003693   -0.038457
 0.885000   0.003502   -0.038048
 0.890000   0.003312   -0.037665
 0.895000   0.003125   -0.037309
 0.900000   0.002939   -0.036979
 0.905000   0.002755   -0.036692
 0.910000   0.002572   -0.036459
 0.915000   0.002391   -0.036260
 0.920000   0.002210   -0.036071
 0.925000   0.002030   -0.035858
 0.930000   0.001851   -0.035579
 0.935000   0.001674   -0.035184
 0.940000   0.001499   -0.034636
 0.945000   0.001328   -0.033939
 0.950000   0.001160   -0.033103
 0.955000   0.000997   -0.031939
 0.960000   0.000841   -0.030099
 0.965000   0.000696   -0.027357
 0.970000   0.000567   -0.023784
 0.975000   0.000458   -0.019743
 0.980000   0.000370   -0.015961
 0.985000   0.000298   -0.013365
 0.990000   0.000236   -0.012002
 0.995000   0.000178   -0.011798
 1.000000   0.000118   -0.012332
201 psinorm pb(KPa) dpb/dpsiN
 0.000000   41.253879   6.572932
 0.005000   41.207040   -25.308717
 0.010000   41.000792   -53.757207
 0.015000   40.669468   -76.836212
 0.020000   40.232430   -95.710457
 0.025000   39.712363   -110.538187
 0.030000   39.127048   -122.133382
 0.035000   38.491029   -131.452029
 0.040000   37.812528   -139.066392
 0.045000   37.100365   -144.976757
 0.050000   36.362760   -149.713971
 0.055000   35.603226   -153.197295
 0.060000   34.830787   -155.373911
 0.065000   34.049487   -156.639079
 0.070000   33.264396   -157.082585
 0.075000   32.478661   -156.975377
 0.080000   31.694643   -156.271205
 0.085000   30.915949   -154.817879
 0.090000   30.146464   -152.862306
 0.095000   29.387326   -150.611098
 0.100000   28.640353   -148.029355
 0.105000   27.907032   -145.018936
 0.110000   27.190164   -141.663173
 0.115000   26.490400   -138.242029
 0.120000   25.807743   -134.738187
 0.125000   25.143018   -131.093866
 0.130000   24.496805   -127.343299
 0.135000   23.869585   -123.505048
 0.140000   23.261754   -119.596113
 0.145000   22.673624   -115.661179
 0.150000   22.105142   -111.749348
 0.155000   21.556131   -107.869996
 0.160000   21.026442   -104.029038
 0.165000   20.515840   -100.241602
 0.170000   20.024026   -96.519442
 0.175000   19.550646   -92.880108
 0.180000   19.095225   -89.342844
 0.185000   18.657218   -85.904984
 0.190000   18.236175   -82.553868
 0.195000   17.831679   -79.300853
 0.200000   17.443167   -76.038831
 0.205000   17.071291   -72.814164
 0.210000   16.715025   -69.825585
 0.215000   16.373035   -67.032167
 0.220000   16.044704   -64.356405
 0.225000   15.729471   -61.793114
 0.230000   15.426772   -59.346816
 0.235000   15.136003   -57.026848
 0.240000   14.856504   -54.630472
 0.245000   14.589698   -52.342588
 0.250000   14.333078   -50.375095
 0.255000   14.085947   -48.527968
 0.260000   13.847798   -46.779547
 0.265000   13.618151   -45.125237
 0.270000   13.396546   -43.382255
 0.275000   13.184329   -41.733283
 0.280000   12.979213   -40.363452
 0.285000   12.780694   -39.082112
 0.290000   12.588392   -37.874012
 0.295000   12.401954   -36.624565
 0.300000   12.222146   -35.410390
 0.305000   12.047850   -34.387104
 0.310000   11.878275   -33.470606
 0.315000   11.713144   -32.608444
 0.320000   11.552191   -31.696715
 0.325000   11.396177   -30.834548
 0.330000   11.243845   -30.139533
 0.335000   11.094782   -29.504891
 0.340000   10.948797   -28.880275
 0.345000   10.805979   -28.229693
 0.350000   10.666500   -27.652013
 0.355000   10.529459   -27.177731
 0.360000   10.394722   -26.729630
 0.365000   10.262163   -26.249629
 0.370000   10.132226   -25.794038
 0.375000   10.004222   -25.427536
 0.380000   9.877951   -25.089749
 0.385000   9.753325   -24.739419
 0.390000   9.630556   -24.392558
 0.395000   9.509399   -24.097669
 0.400000   9.389580   -23.834582
 0.405000   9.271053   -23.565317
 0.410000   9.153927   -23.282535
 0.415000   9.038228   -23.026221
 0.420000   8.923664   -22.800691
 0.425000   8.810221   -22.568408
 0.430000   8.697980   -22.308931
 0.435000   8.587132   -22.061687
 0.440000   8.477363   -21.846703
 0.445000   8.368665   -21.628542
 0.450000   8.261078   -21.380903
 0.455000   8.154856   -21.138801
 0.460000   8.049690   -20.931442
 0.465000   7.945541   -20.730711
 0.470000   7.842383   -20.504956
 0.475000   7.740492   -20.289224
 0.480000   7.639491   -20.112728
 0.485000   7.539364   -19.939210
 0.490000   7.440099   -19.745452
 0.495000   7.341910   -19.560142
 0.500000   7.244497   -19.406953
 0.505000   7.147840   -19.257340
 0.510000   7.051924   -19.090894
 0.515000   6.956931   -18.925551
 0.520000   6.862668   -18.782905
 0.525000   6.769102   -18.644202
 0.530000   6.676226   -18.491683
 0.535000   6.584186   -18.337315
 0.540000   6.492853   -18.200418
 0.545000   6.402181   -18.068321
 0.550000   6.312170   -17.924399
 0.555000   6.222937   -17.775289
 0.560000   6.134417   -17.640676
 0.565000   6.046531   -17.514494
 0.570000   5.959272   -17.383894
 0.575000   5.872692   -17.246099
 0.580000   5.786811   -17.118630
 0.585000   5.701505   -17.004496
 0.590000   5.616766   -16.891082
 0.595000   5.532595   -16.768846
 0.600000   5.449078   -16.656540
 0.605000   5.366029   -16.562746
 0.610000   5.283450   -16.469161
 0.615000   5.201338   -16.373529
 0.620000   5.119715   -16.282706
 0.625000   5.038510   -16.203823
 0.630000   4.957677   -16.131994
 0.635000   4.877191   -16.064839
 0.640000   4.797028   -16.001050
 0.645000   4.717180   -15.944277
 0.650000   4.637585   -15.894693
 0.655000   4.558233   -15.847724
 0.660000   4.479108   -15.805265
 0.665000   4.400180   -15.766958
 0.670000   4.321439   -15.730741
 0.675000   4.242873   -15.696109
 0.680000   4.164478   -15.662841
 0.685000   4.086245   -15.633648
 0.690000   4.008141   -15.610156
 0.695000   3.930143   -15.589312
 0.700000   3.852248   -15.569441
 0.705000   3.774449   -15.551116
 0.710000   3.696737   -15.536965
 0.715000   3.619079   -15.527380
 0.720000   3.541463   -15.517582
 0.725000   3.463903   -15.506002
 0.730000   3.386403   -15.494086
 0.735000   3.308962   -15.482641
 0.740000   3.231577   -15.474461
 0.745000   3.154218   -15.464978
 0.750000   3.076927   -15.448879
 0.755000   2.999729   -15.427714
 0.760000   2.922650   -15.401622
 0.765000   2.845713   -15.371564
 0.770000   2.768934   -15.337432
 0.775000   2.692338   -15.296886
 0.780000   2.615965   -15.250736
 0.785000   2.539831   -15.200115
 0.790000   2.463964   -15.143581
 0.795000   2.388395   -15.080737
 0.800000   2.313157   -15.010815
 0.805000   2.238287   -14.928240
 0.810000   2.163874   -14.835345
 0.815000   2.089934   -14.736128
 0.820000   2.016513   -14.626939
 0.825000   1.943664   -14.506796
 0.830000   1.871445   -14.374995
 0.835000   1.799914   -14.231597
 0.840000   1.729129   -14.073019
 0.845000   1.659184   -13.892283
 0.850000   1.590206   -13.698633
 0.855000   1.522198   -13.497618
 0.860000   1.455230   -13.283348
 0.865000   1.389364   -13.060387
 0.870000   1.324626   -12.835045
 0.875000   1.261014   -12.610627
 0.880000   1.198520   -12.387732
 0.885000   1.137137   -12.167357
 0.890000   1.076846   -11.951134
 0.895000   1.017625   -11.739713
 0.900000   0.959449   -11.529237
 0.905000   0.902333   -11.333687
 0.910000   0.846112   -11.164696
 0.915000   0.790686   -11.016787
 0.920000   0.735944   -10.889203
 0.925000   0.681794   -10.778235
 0.930000   0.628162   -10.676793
 0.935000   0.575026   -10.574073
 0.940000   0.522421   -10.463577
 0.945000   0.470390   -10.355260
 0.950000   0.418869   -10.274188
 0.955000   0.367648   -10.214742
 0.960000   0.316721   -10.112929
 0.965000   0.266519   -9.853011
 0.970000   0.218191   -9.299333
 0.975000   0.173526   -8.360402
 0.980000   0.134587   -7.122125
 0.985000   0.102304   -5.845714
 0.990000   0.076130   -4.663594
 0.995000   0.055668   -3.846151
 1.000000   0.037669   -3.353804
201 psinorm ptot(KPa) dptot/dpsiN
 0.000000   99.952054   -82.787048
 0.005000   99.476392   -107.478113
 0.010000   98.877273   -130.035464
 0.015000   98.176037   -149.002632
 0.020000   97.387247   -164.699605
 0.025000   96.529041   -177.190714
 0.030000   95.615340   -187.138613
 0.035000   94.657655   -195.335843
 0.040000   93.661981   -202.256480
 0.045000   92.635090   -207.870934
 0.050000   91.583272   -212.594847
 0.055000   90.509141   -216.350850
 0.060000   89.419764   -219.078738
 0.065000   88.318354   -221.092646
 0.070000   87.208837   -222.458880
 0.075000   86.093765   -223.405659
 0.080000   84.974781   -223.884701
 0.085000   83.854918   -223.736116
 0.090000   82.737419   -223.167601
 0.095000   81.623242   -222.347866
 0.100000   80.513941   -221.235986
 0.105000   79.410882   -219.740092
 0.110000   78.316540   -217.930602
 0.115000   77.231576   -216.031914
 0.120000   76.156221   -214.016788
 0.125000   75.091409   -211.829066
 0.130000   74.037930   -209.485579
 0.135000   72.996553   -206.996074
 0.140000   71.967969   -204.374195
 0.145000   70.952811   -201.655338
 0.150000   69.951416   -198.877910
 0.155000   68.964032   -196.047367
 0.160000   67.990942   -193.164798
 0.165000   67.032384   -190.241360
 0.170000   66.088529   -187.289671
 0.175000   65.159487   -184.323840
 0.180000   64.245290   -181.358479
 0.185000   63.345902   -178.392749
 0.190000   62.461363   -175.417064
 0.195000   61.591732   -172.451297
 0.200000   60.736850   -169.425030
 0.205000   59.897481   -166.382715
 0.210000   59.073023   -163.489006
 0.215000   58.262591   -160.713562
 0.220000   57.465887   -157.998500
 0.225000   56.682606   -155.350850
 0.230000   55.912378   -152.757656
 0.235000   55.155030   -150.212882
 0.240000   54.410250   -147.549951
 0.245000   53.679530   -144.912266
 0.250000   52.961127   -142.469097
 0.255000   52.254839   -140.048447
 0.260000   51.560643   -137.619931
 0.265000   50.878640   -135.183557
 0.270000   50.208807   -132.599967
 0.275000   49.552640   -130.027993
 0.280000   48.908527   -127.627809
 0.285000   48.276362   -125.229941
 0.290000   47.656228   -122.836183
 0.295000   47.048000   -120.369788
 0.300000   46.452530   -117.901483
 0.305000   45.868985   -115.578333
 0.310000   45.296746   -113.342898
 0.315000   44.735556   -111.158568
 0.320000   44.185161   -108.959505
 0.325000   43.645961   -106.842147
 0.330000   43.116739   -104.896230
 0.335000   42.596999   -103.030183
 0.340000   42.086437   -101.200469
 0.345000   41.584994   -99.387700
 0.350000   41.092560   -97.670843
 0.355000   40.608286   -96.058618
 0.360000   40.131974   -94.485091
 0.365000   39.663435   -92.896713
 0.370000   39.203007   -91.336320
 0.375000   38.750072   -89.854076
 0.380000   38.304466   -88.364052
 0.385000   37.866431   -86.812991
 0.390000   37.436336   -85.235549
 0.395000   37.014076   -83.685857
 0.400000   36.599478   -82.154829
 0.405000   36.192528   -80.600480
 0.410000   35.793473   -79.031702
 0.415000   35.402211   -77.526697
 0.420000   35.018206   -76.101414
 0.425000   34.641196   -74.722718
 0.430000   34.270979   -73.376006
 0.435000   33.907436   -72.088498
 0.440000   33.550094   -70.884140
 0.445000   33.198595   -69.747918
 0.450000   32.852615   -68.649693
 0.455000   32.512098   -67.611714
 0.460000   32.176498   -66.658688
 0.465000   31.845511   -65.765264
 0.470000   31.518845   -64.905067
 0.475000   31.196460   -64.102978
 0.480000   30.877815   -63.372290
 0.485000   30.562738   -62.671579
 0.490000   30.251099   -61.972626
 0.495000   29.943011   -61.295207
 0.500000   29.638147   -60.655543
 0.505000   29.336456   -60.029306
 0.510000   29.037854   -59.405278
 0.515000   28.742403   -58.802903
 0.520000   28.449825   -58.241541
 0.525000   28.159988   -57.704079
 0.530000   27.872784   -57.173524
 0.535000   27.588252   -56.661464
 0.540000   27.306170   -56.185075
 0.545000   27.026402   -55.731138
 0.550000   26.748858   -55.283940
 0.555000   26.473562   -54.848268
 0.560000   26.200376   -54.439825
 0.565000   25.929164   -54.053653
 0.570000   25.659839   -53.678103
 0.575000   25.392383   -53.308277
 0.580000   25.126756   -52.958882
 0.585000   24.862794   -52.631665
 0.590000   24.600440   -52.314465
 0.595000   24.339650   -51.998243
 0.600000   24.080457   -51.699384
 0.605000   23.822656   -51.424485
 0.610000   23.566213   -51.155773
 0.615000   23.311098   -50.889968
 0.620000   23.057313   -50.633339
 0.625000   22.804765   -50.388822
 0.630000   22.553425   -50.148194
 0.635000   22.303283   -49.909071
 0.640000   22.054334   -49.668770
 0.645000   21.806595   -49.429256
 0.650000   21.560041   -49.191591
 0.655000   21.314679   -48.954254
 0.660000   21.070499   -48.722337
 0.665000   20.827456   -48.497189
 0.670000   20.585527   -48.274621
 0.675000   20.344709   -48.049005
 0.680000   20.105037   -47.812923
 0.685000   19.866580   -47.550559
 0.690000   19.629531   -47.251864
 0.695000   19.394062   -46.920770
 0.700000   19.160324   -46.562138
 0.705000   18.928440   -46.182012
 0.710000   18.698503   -45.782915
 0.715000   18.470611   -45.370720
 0.720000   18.244796   -44.953218
 0.725000   18.021079   -44.532650
 0.730000   17.799470   -44.112712
 0.735000   17.579952   -43.699296
 0.740000   17.362477   -43.299729
 0.745000   17.146954   -42.922933
 0.750000   16.933247   -42.575469
 0.755000   16.721200   -42.256695
 0.760000   16.510681   -41.962047
 0.765000   16.301579   -41.687013
 0.770000   16.093810   -41.429676
 0.775000   15.887283   -41.175811
 0.780000   15.682052   -40.897239
 0.785000   15.478310   -40.586602
 0.790000   15.276186   -40.249711
 0.795000   15.075813   -39.887360
 0.800000   14.877313   -39.500663
 0.805000   14.680806   -39.087590
 0.810000   14.486437   -38.664400
 0.815000   14.294162   -38.249924
 0.820000   14.103938   -37.846587
 0.825000   13.915697   -37.457013
 0.830000   13.729367   -37.081877
 0.835000   13.544878   -36.720680
 0.840000   13.362161   -36.367852
 0.845000   13.181199   -36.020737
 0.850000   13.001953   -35.695955
 0.855000   12.824240   -35.402312
 0.860000   12.647930   -35.136827
 0.865000   12.472871   -34.916856
 0.870000   12.298762   -34.725005
 0.875000   12.125621   -34.542088
 0.880000   11.953341   -34.380454
 0.885000   11.781817   -34.241680
 0.890000   11.610924   -34.135668
 0.895000   11.440460   -34.135868
 0.900000   11.269565   -34.285065
 0.905000   11.097609   -34.671793
 0.910000   10.922847   -35.526621
 0.915000   10.742343   -37.195720
 0.920000   10.550890   -40.297835
 0.925000   10.339365   -45.977627
 0.930000   10.091114   -55.736306
 0.935000   9.782002   -71.632214
 0.940000   9.374792   -96.111617
 0.945000   8.820886   -130.224724
 0.950000   8.072544   -170.921442
 0.955000   7.111671   -208.779050
 0.960000   5.984754   -230.182589
 0.965000   4.809845   -225.720149
 0.970000   3.727552   -197.429307
 0.975000   2.835552   -156.757751
 0.980000   2.159975   -116.296960
 0.985000   1.672583   -83.517083
 0.990000   1.324804   -59.954153
 0.995000   1.073041   -44.118973
 1.000000   0.883614   -31.651762
201 psinorm omeg(kRad/s) domeg/dpsiN
 0.000000   60.821175   0.019656
 0.005000   60.820837   -0.155118
 0.010000   60.819624   -0.362396
 0.015000   60.817213   -0.640600
 0.020000   60.813218   -1.000098
 0.025000   60.807212   -1.448807
 0.030000   60.798730   -1.992061
 0.035000   60.787291   -2.631479
 0.040000   60.772415   -3.359018
 0.045000   60.753701   -4.165136
 0.050000   60.730764   -5.041714
 0.055000   60.703284   -5.975008
 0.060000   60.671014   -6.950856
 0.065000   60.633775   -7.956771
 0.070000   60.591446   -8.964650
 0.075000   60.544129   -9.976948
 0.080000   60.491677   -11.009752
 0.085000   60.434031   -12.049193
 0.090000   60.371185   -13.090514
 0.095000   60.303126   -14.135113
 0.100000   60.229834   -15.164952
 0.105000   60.151477   -16.188500
 0.110000   60.067949   -17.229887
 0.115000   59.979178   -18.278213
 0.120000   59.885167   -19.325259
 0.125000   59.785925   -20.367572
 0.130000   59.681491   -21.378731
 0.135000   59.572138   -22.355400
 0.140000   59.457937   -23.331181
 0.145000   59.338826   -24.312122
 0.150000   59.214816   -25.296743
 0.155000   59.085859   -26.296920
 0.160000   58.951846   -27.320792
 0.165000   58.812651   -28.379353
 0.170000   58.668053   -29.475594
 0.175000   58.517895   -30.597664
 0.180000   58.362076   -31.741582
 0.185000   58.200479   -32.910219
 0.190000   58.032974   -34.104866
 0.195000   57.859430   -35.301650
 0.200000   57.679958   -36.451483
 0.205000   57.494915   -37.525694
 0.210000   57.304701   -38.514503
 0.215000   57.109770   -39.407072
 0.220000   56.910630   -40.181434
 0.225000   56.707956   -40.800126
 0.230000   56.502629   -41.307162
 0.235000   56.294884   -41.739399
 0.240000   56.085235   -42.066775
 0.245000   55.874217   -42.283523
 0.250000   55.662399   -42.367773
 0.255000   55.450539   -42.268140
 0.260000   55.239718   -42.102831
 0.265000   55.029511   -41.967814
 0.270000   54.820040   -41.819744
 0.275000   54.611313   -41.681719
 0.280000   54.403223   -41.574465
 0.285000   54.195569   -41.516048
 0.290000   53.988062   -41.584343
 0.295000   53.779725   -41.801247
 0.300000   53.570050   -42.108749
 0.305000   53.358638   -42.479986
 0.310000   53.145250   -42.878495
 0.315000   52.929853   -43.289708
 0.320000   52.712353   -43.663238
 0.325000   52.493220   -43.965175
 0.330000   52.272701   -44.215820
 0.335000   52.051062   -44.410400
 0.340000   51.828597   -44.544048
 0.345000   51.605622   -44.607039
 0.350000   51.382527   -44.588399
 0.355000   51.159738   -44.492406
 0.360000   50.937603   -44.327727
 0.365000   50.716460   -44.095898
 0.370000   50.496644   -43.798177
 0.375000   50.278479   -43.405580
 0.380000   50.062588   -42.926540
 0.385000   49.849213   -42.401530
 0.390000   49.638572   -41.830569
 0.395000   49.430908   -41.216162
 0.400000   49.226411   -40.568687
 0.405000   49.025221   -39.872598
 0.410000   48.827685   -39.216644
 0.415000   48.633054   -38.793898
 0.420000   48.439746   -38.720599
 0.425000   48.245848   -39.048647
 0.430000   48.049259   -39.794984
 0.435000   47.847898   -41.083188
 0.440000   47.638428   -42.879901
 0.445000   47.419099   -44.841701
 0.450000   47.190011   -46.844005
 0.455000   46.950659   -48.910382
 0.460000   46.700907   -50.967480
 0.465000   46.440985   -53.080447
 0.470000   46.170102   -55.153316
 0.475000   45.889451   -56.769850
 0.480000   45.602404   -57.860498
 0.485000   45.310846   -58.556625
 0.490000   45.016837   -58.832108
 0.495000   44.722525   -58.693352
 0.500000   44.429904   -58.104721
 0.505000   44.141478   -57.089427
 0.510000   43.859010   -55.839415
 0.515000   43.583084   -54.502116
 0.520000   43.313989   -53.129431
 0.525000   43.051790   -51.744327
 0.530000   42.796545   -50.337567
 0.535000   42.548414   -48.996536
 0.540000   42.306580   -47.797099
 0.545000   42.070443   -46.728099
 0.550000   41.839299   -45.808707
 0.555000   41.612356   -45.044870
 0.560000   41.388850   -44.414481
 0.565000   41.168211   -44.011667
 0.570000   40.948734   -43.894104
 0.575000   40.729270   -44.011380
 0.580000   40.508620   -44.374118
 0.585000   40.285529   -44.993216
 0.590000   40.058688   -45.873724
 0.595000   39.826792   -46.963803
 0.600000   39.589050   -48.174258
 0.605000   39.345049   -49.454718
 0.610000   39.094502   -50.782126
 0.615000   38.837228   -52.137418
 0.620000   38.573128   -53.440378
 0.625000   38.302824   -54.717896
 0.630000   38.025949   -56.030774
 0.635000   37.742516   -57.335294
 0.640000   37.452596   -58.624091
 0.645000   37.156275   -59.896829
 0.650000   36.853628   -61.119125
 0.655000   36.545084   -62.454651
 0.660000   36.229082   -64.093930
 0.665000   35.904145   -66.038556
 0.670000   35.568696   -68.314490
 0.675000   35.221000   -70.942209
 0.680000   34.859274   -74.041516
 0.685000   34.480585   -77.391495
 0.690000   34.085359   -80.576947
 0.695000   33.674815   -83.554895
 0.700000   33.249810   -86.355496
 0.705000   32.811260   -88.966821
 0.710000   32.360142   -91.431967
 0.715000   31.896941   -93.635098
 0.720000   31.423791   -95.387137
 0.725000   30.943069   -96.684445
 0.730000   30.456946   -97.528061
 0.735000   29.967789   -97.889365
 0.740000   29.478053   -97.785522
 0.745000   28.989933   -97.363864
 0.750000   28.504414   -96.821017
 0.755000   28.021723   -96.239691
 0.760000   27.542017   -95.610876
 0.765000   27.065615   -94.886862
 0.770000   26.593148   -94.090216
 0.775000   26.124712   -93.078183
 0.780000   25.662367   -91.415045
 0.785000   25.210562   -89.005081
 0.790000   24.772316   -86.030328
 0.795000   24.350259   -82.590793
 0.800000   23.946408   -78.830234
 0.805000   23.561956   -74.941119
 0.810000   23.196997   -71.158200
 0.815000   22.850374   -67.689145
 0.820000   22.520105   -64.671381
 0.825000   22.203660   -62.208466
 0.830000   21.898021   -60.398065
 0.835000   21.599680   -59.301077
 0.840000   21.305010   -58.977747
 0.845000   21.009902   -59.619345
 0.850000   20.708816   -61.466129
 0.855000   20.395241   -64.708612
 0.860000   20.061730   -69.562589
 0.865000   19.699615   -76.488248
 0.870000   19.296848   -85.453085
 0.875000   18.845084   -96.282907
 0.880000   18.334019   -109.170636
 0.885000   17.753378   -124.043686
 0.890000   17.093582   -140.691223
 0.895000   16.346466   -159.306406
 0.900000   15.500518   -178.597763
 0.905000   14.560488   -196.960123
 0.910000   13.530917   -213.784482
 0.915000   12.422643   -227.745410
 0.920000   11.253462   -237.451755
 0.925000   10.048126   -241.613718
 0.930000   8.837325   -238.495584
 0.935000   7.663170   -227.568222
 0.940000   6.561643   -209.993057
 0.945000   5.563239   -187.139691
 0.950000   4.690246   -160.828802
 0.955000   3.954951   -132.686597
 0.960000   3.363380   -105.121040
 0.965000   2.903741   -80.380907
 0.970000   2.559571   -59.194478
 0.975000   2.311796   -41.919569
 0.980000   2.140375   -28.560535
 0.985000   2.026191   -18.758127
 0.990000   1.952794   -12.105597
 0.995000   1.905135   -8.101125
 1.000000   1.871783   -5.239629
201 psinorm omegp(kRad/s) domegp/dpsiN
 0.000000   -0.007296   136.216913
 0.005000   0.546819   85.428895
 0.010000   0.846993   58.397455
 0.015000   1.130793   56.485057
 0.020000   1.411844   55.895979
 0.025000   1.689753   54.594626
 0.030000   1.957790   51.971166
 0.035000   2.209465   48.999951
 0.040000   2.447790   46.190171
 0.045000   2.671367   43.420176
 0.050000   2.881991   41.170215
 0.055000   3.083069   39.789958
 0.060000   3.279891   39.308476
 0.065000   3.476154   39.269512
 0.070000   3.672586   39.338608
 0.075000   3.869540   39.303669
 0.080000   4.065623   38.918493
 0.085000   4.258725   38.069748
 0.090000   4.446320   36.648267
 0.095000   4.625207   34.672903
 0.100000   4.793049   32.433307
 0.105000   4.949540   30.016779
 0.110000   5.093217   27.667451
 0.115000   5.226215   25.405050
 0.120000   5.347268   23.504145
 0.125000   5.461256   22.219042
 0.130000   5.569458   21.353534
 0.135000   5.674792   20.701010
 0.140000   5.776468   20.202610
 0.145000   5.876818   19.713083
 0.150000   5.973599   19.069682
 0.155000   6.067514   18.222114
 0.160000   6.155820   17.181074
 0.165000   6.239325   15.992625
 0.170000   6.315746   14.510398
 0.175000   6.384429   12.828140
 0.180000   6.444028   10.812223
 0.185000   6.492551   8.785340
 0.190000   6.531881   6.717181
 0.195000   6.559723   4.607493
 0.200000   6.577956   2.668160
 0.205000   6.586405   0.741290
 0.210000   6.585369   -0.803504
 0.215000   6.578370   -2.115951
 0.220000   6.564209   -3.396479
 0.225000   6.544405   -4.583237
 0.230000   6.518377   -5.974058
 0.235000   6.484664   -7.408418
 0.240000   6.444293   -9.027993
 0.245000   6.394385   -11.010146
 0.250000   6.334191   -13.005859
 0.255000   6.264326   -15.161639
 0.260000   6.182575   -17.447883
 0.265000   6.089847   -19.615020
 0.270000   5.986425   -21.828166
 0.275000   5.871565   -23.961894
 0.280000   5.746806   -25.922290
 0.285000   5.612343   -27.837077
 0.290000   5.468435   -29.488116
 0.295000   5.317461   -30.898169
 0.300000   5.159453   -32.287656
 0.305000   4.994585   -33.523409
 0.310000   4.824219   -34.695538
 0.315000   4.647629   -35.981168
 0.320000   4.464408   -37.201100
 0.325000   4.275618   -38.407696
 0.330000   4.080331   -39.598043
 0.335000   3.879638   -40.459023
 0.340000   3.675741   -41.044008
 0.345000   3.469198   -41.461804
 0.350000   3.261122   -41.470401
 0.355000   3.054494   -41.217736
 0.360000   2.848945   -41.024484
 0.365000   2.644249   -40.816310
 0.370000   2.440782   -40.619617
 0.375000   2.238053   -40.558951
 0.380000   2.035192   -40.666916
 0.385000   1.831384   -40.932755
 0.390000   1.625865   -41.286358
 0.395000   1.418520   -41.638172
 0.400000   1.209483   -41.922524
 0.405000   0.999295   -42.165766
 0.410000   0.787826   -42.657650
 0.415000   0.572718   -43.988631
 0.420000   0.347939   -46.748461
 0.425000   0.105234   -51.152196
 0.430000   -0.163583   -57.181774
 0.435000   -0.466584   -64.936690
 0.440000   -0.812950   -74.867028
 0.445000   -1.215254   -85.292871
 0.450000   -1.665878   -94.699678
 0.455000   -2.162251   -103.227210
 0.460000   -2.698150   -110.215274
 0.465000   -3.264404   -115.191247
 0.470000   -3.850063   -117.100371
 0.475000   -4.435407   -115.046375
 0.480000   -5.000527   -109.630739
 0.485000   -5.531715   -101.665141
 0.490000   -6.017178   -91.675852
 0.495000   -6.448473   -79.960586
 0.500000   -6.816784   -67.403602
 0.505000   -7.122509   -55.801093
 0.510000   -7.374795   -45.798950
 0.515000   -7.580499   -37.373813
 0.520000   -7.748533   -30.600469
 0.525000   -7.886504   -25.390935
 0.530000   -8.002442   -22.138987
 0.535000   -8.107893   -20.505168
 0.540000   -8.207494   -19.385321
 0.545000   -8.301747   -18.335038
 0.550000   -8.390844   -17.348025
 0.555000   -8.475227   -16.311381
 0.560000   -8.553958   -15.005761
 0.565000   -8.625284   -13.424359
 0.570000   -8.688202   -11.688540
 0.575000   -8.742170   -9.757049
 0.580000   -8.785772   -7.643326
 0.585000   -8.818603   -5.527517
 0.590000   -8.841047   -3.429578
 0.595000   -8.852899   -1.357767
 0.600000   -8.854625   0.556308
 0.605000   -8.847336   2.210582
 0.610000   -8.832519   3.666900
 0.615000   -8.810667   4.950989
 0.620000   -8.783009   5.968243
 0.625000   -8.750984   6.791200
 0.630000   -8.715097   7.518248
 0.635000   -8.675802   8.160134
 0.640000   -8.633496   8.692188
 0.645000   -8.588880   9.179229
 0.650000   -8.541704   9.673199
 0.655000   -8.492148   10.091650
 0.660000   -8.440787   10.424589
 0.665000   -8.387902   10.722534
 0.670000   -8.333562   10.992893
 0.675000   -8.277973   11.262533
 0.680000   -8.220937   11.615976
 0.685000   -8.161813   12.078407
 0.690000   -8.100153   12.604015
 0.695000   -8.035773   13.135449
 0.700000   -7.968798   13.689499
 0.705000   -7.898878   14.181106
 0.710000   -7.826987   14.375702
 0.715000   -7.755121   14.194337
 0.720000   -7.685044   13.641149
 0.725000   -7.618710   12.688017
 0.730000   -7.558163   11.333336
 0.735000   -7.505376   9.618274
 0.740000   -7.461981   7.680451
 0.745000   -7.428572   5.672953
 0.750000   -7.405251   3.711744
 0.755000   -7.391454   1.926548
 0.760000   -7.385986   0.415168
 0.765000   -7.387303   -0.869171
 0.770000   -7.394677   -2.077452
 0.775000   -7.408077   -3.345787
 0.780000   -7.428135   -4.818374
 0.785000   -7.456261   -6.656573
 0.790000   -7.494701   -9.115231
 0.795000   -7.547413   -12.063907
 0.800000   -7.615340   -15.168581
 0.805000   -7.699099   -18.309218
 0.810000   -7.798432   -21.167772
 0.815000   -7.910777   -23.392495
 0.820000   -8.032357   -24.684216
 0.825000   -8.157619   -24.747474
 0.830000   -8.279832   -23.564054
 0.835000   -8.393260   -21.397102
 0.840000   -8.493803   -18.593631
 0.845000   -8.579196   -15.405691
 0.850000   -8.647860   -11.974406
 0.855000   -8.698940   -8.578475
 0.860000   -8.733645   -5.450952
 0.865000   -8.753450   -2.472730
 0.870000   -8.758372   0.510265
 0.875000   -8.748347   3.517244
 0.880000   -8.723199   6.479350
 0.885000   -8.683553   9.565686
 0.890000   -8.627543   12.827527
 0.895000   -8.555278   15.989418
 0.900000   -8.467648   18.870385
 0.905000   -8.366574   21.492576
 0.910000   -8.252723   23.949854
 0.915000   -8.127076   26.455965
 0.920000   -7.988163   29.373207
 0.925000   -7.833344   32.394122
 0.930000   -7.664222   35.633680
 0.935000   -7.477007   41.185189
 0.940000   -7.252370   47.351579
 0.945000   -7.003491   48.009758
 0.950000   -6.772272   39.796905
 0.955000   -6.605522   22.604638
 0.960000   -6.546226   1.158270
 0.965000   -6.593939   -7.392245
 0.970000   -6.620148   29.459437
 0.975000   -6.299345   140.441574
 0.980000   -5.215733   323.331963
 0.985000   -3.066025   522.507706
 0.990000   0.009344   640.443792
 0.995000   3.338413   597.039097
 1.000000   5.979735   459.489985
201 psinorm omgvb(kRad/s) domgvb/dpsiN
 0.000000   60.813880   136.236569
 0.005000   61.367656   85.273777
 0.010000   61.666618   58.035059
 0.015000   61.948006   55.844458
 0.020000   62.225062   54.895880
 0.025000   62.496965   53.145819
 0.030000   62.756520   49.979106
 0.035000   62.996756   46.368472
 0.040000   63.220205   42.831153
 0.045000   63.425068   39.255040
 0.050000   63.612755   36.128501
 0.055000   63.786353   33.814950
 0.060000   63.950905   32.357620
 0.065000   64.109929   31.312741
 0.070000   64.264032   30.373958
 0.075000   64.413668   29.326721
 0.080000   64.557300   27.908741
 0.085000   64.692756   26.020554
 0.090000   64.817505   23.557753
 0.095000   64.928333   20.537790
 0.100000   65.022883   17.268355
 0.105000   65.101017   13.828279
 0.110000   65.161166   10.437563
 0.115000   65.205393   7.126837
 0.120000   65.232434   4.178886
 0.125000   65.247181   1.851470
 0.130000   65.250949   -0.025198
 0.135000   65.246929   -1.654391
 0.140000   65.234405   -3.128571
 0.145000   65.215644   -4.599038
 0.150000   65.188415   -6.227061
 0.155000   65.153373   -8.074806
 0.160000   65.107667   -10.139718
 0.165000   65.051976   -12.386728
 0.170000   64.983799   -14.965196
 0.175000   64.902324   -17.769524
 0.180000   64.806104   -20.929359
 0.185000   64.693030   -24.124879
 0.190000   64.564855   -27.387685
 0.195000   64.419154   -30.694157
 0.200000   64.257914   -33.783323
 0.205000   64.081320   -36.784404
 0.210000   63.890070   -39.318007
 0.215000   63.688140   -41.523024
 0.220000   63.474839   -43.577912
 0.225000   63.252361   -45.383363
 0.230000   63.021006   -47.281220
 0.235000   62.779549   -49.147817
 0.240000   62.529528   -51.094768
 0.245000   62.268601   -53.293669
 0.250000   61.996591   -55.373632
 0.255000   61.714865   -57.429779
 0.260000   61.422293   -59.550713
 0.265000   61.119358   -61.582834
 0.270000   60.806465   -63.647910
 0.275000   60.482879   -65.643613
 0.280000   60.150029   -67.496755
 0.285000   59.807911   -69.353126
 0.290000   59.456497   -71.072459
 0.295000   59.097187   -72.699417
 0.300000   58.729503   -74.396405
 0.305000   58.353223   -76.003395
 0.310000   57.969469   -77.574033
 0.315000   57.577482   -79.270876
 0.320000   57.176760   -80.864338
 0.325000   56.768839   -82.372871
 0.330000   56.353032   -83.813863
 0.335000   55.930700   -84.869424
 0.340000   55.504338   -85.588055
 0.345000   55.074820   -86.068843
 0.350000   54.643649   -86.058800
 0.355000   54.214232   -85.710141
 0.360000   53.786548   -85.352210
 0.365000   53.360710   -84.912209
 0.370000   52.937426   -84.417794
 0.375000   52.516532   -83.964531
 0.380000   52.097780   -83.593455
 0.385000   51.680597   -83.334286
 0.390000   51.264437   -83.116927
 0.395000   50.849428   -82.854334
 0.400000   50.435894   -82.491212
 0.405000   50.024516   -82.038364
 0.410000   49.615510   -81.874294
 0.415000   49.205773   -82.782529
 0.420000   48.787685   -85.469060
 0.425000   48.351082   -90.200842
 0.430000   47.885677   -96.976758
 0.435000   47.381314   -106.019878
 0.440000   46.825478   -117.746929
 0.445000   46.203845   -130.134572
 0.450000   45.524132   -141.543683
 0.455000   44.788408   -152.137592
 0.460000   44.002756   -161.182755
 0.465000   43.176581   -168.271694
 0.470000   42.320039   -172.253687
 0.475000   41.454044   -171.816225
 0.480000   40.601877   -167.491237
 0.485000   39.779132   -160.221766
 0.490000   38.999659   -150.507960
 0.495000   38.274052   -138.653937
 0.500000   37.613120   -125.508323
 0.505000   37.018969   -112.890520
 0.510000   36.484215   -101.638365
 0.515000   36.002585   -91.875930
 0.520000   35.565456   -83.729900
 0.525000   35.165286   -77.135262
 0.530000   34.794103   -72.476554
 0.535000   34.440521   -69.501704
 0.540000   34.099086   -67.182420
 0.545000   33.768696   -65.063137
 0.550000   33.448455   -63.156732
 0.555000   33.137129   -61.356251
 0.560000   32.834892   -59.420241
 0.565000   32.542927   -57.436026
 0.570000   32.260532   -55.582644
 0.575000   31.987100   -53.768429
 0.580000   31.722847   -52.017445
 0.585000   31.466926   -50.520733
 0.590000   31.217640   -49.303302
 0.595000   30.973893   -48.321570
 0.600000   30.734424   -47.617950
 0.605000   30.497713   -47.244136
 0.610000   30.261983   -47.115226
 0.615000   30.026561   -47.186428
 0.620000   29.790119   -47.472134
 0.625000   29.551840   -47.926696
 0.630000   29.310852   -48.512526
 0.635000   29.066714   -49.175159
 0.640000   28.819100   -49.931902
 0.645000   28.567395   -50.717600
 0.650000   28.311924   -51.445926
 0.655000   28.052936   -52.363001
 0.660000   27.788294   -53.669341
 0.665000   27.516243   -55.316022
 0.670000   27.235134   -57.321596
 0.675000   26.943027   -59.679676
 0.680000   26.638337   -62.425540
 0.685000   26.318771   -65.313088
 0.690000   25.985206   -67.972932
 0.695000   25.639042   -70.419447
 0.700000   25.281012   -72.665997
 0.705000   24.912382   -74.785715
 0.710000   24.533155   -77.056265
 0.715000   24.141819   -79.440761
 0.720000   23.738747   -81.745987
 0.725000   23.324359   -83.996428
 0.730000   22.898783   -86.194725
 0.735000   22.462412   -88.271091
 0.740000   22.016072   -90.105072
 0.745000   21.561362   -91.690911
 0.750000   21.099163   -93.109273
 0.755000   20.630269   -94.313143
 0.760000   20.156031   -95.195709
 0.765000   19.678312   -95.756033
 0.770000   19.198471   -96.167668
 0.775000   18.716635   -96.423970
 0.780000   18.234231   -96.233419
 0.785000   17.754301   -95.661654
 0.790000   17.277615   -95.145560
 0.795000   16.802845   -94.654700
 0.800000   16.331068   -93.998815
 0.805000   15.862857   -93.250338
 0.810000   15.398564   -92.325972
 0.815000   14.939597   -91.081640
 0.820000   14.487748   -89.355597
 0.825000   14.046041   -86.955940
 0.830000   13.618189   -83.962119
 0.835000   13.206420   -80.698180
 0.840000   12.811207   -77.571378
 0.845000   12.430706   -75.025036
 0.850000   12.060957   -73.440535
 0.855000   11.696301   -73.287087
 0.860000   11.328086   -75.013540
 0.865000   10.946166   -78.960978
 0.870000   10.538476   -84.942820
 0.875000   10.096737   -92.765663
 0.880000   9.610819   -102.691286
 0.885000   9.069825   -114.478000
 0.890000   8.466039   -127.863696
 0.895000   7.791188   -143.316987
 0.900000   7.032869   -159.727378
 0.905000   6.193914   -175.467547
 0.910000   5.278194   -189.834628
 0.915000   4.295568   -201.289445
 0.920000   3.265299   -208.078548
 0.925000   2.214782   -209.219596
 0.930000   1.173103   -202.861904
 0.935000   0.186163   -186.383033
 0.940000   -0.690727   -162.641478
 0.945000   -1.440252   -139.129933
 0.950000   -2.082026   -121.031898
 0.955000   -2.650571   -110.081958
 0.960000   -3.182846   -103.962770
 0.965000   -3.690198   -87.773152
 0.970000   -4.060577   -29.735041
 0.975000   -3.987549   98.522004
 0.980000   -3.075357   294.771428
 0.985000   -1.039834   503.749579
 0.990000   1.962139   628.338195
 0.995000   5.243547   588.937972
 1.000000   7.851518   454.250357
201 psinorm omgpp(kRad/s) domgpp/dpsiN
 0.000000   -0.049803   -24.753477
 0.005000   -0.201991   -36.121532
 0.010000   -0.411018   -42.501586
 0.015000   -0.627006   -43.818607
 0.020000   -0.849204   -44.958656
 0.025000   -1.076593   -45.871966
 0.030000   -1.307924   -46.563229
 0.035000   -1.542225   -47.019004
 0.040000   -1.778114   -47.202922
 0.045000   -2.014254   -47.122083
 0.050000   -2.249335   -46.724613
 0.055000   -2.481501   -46.013439
 0.060000   -2.709469   -45.308858
 0.065000   -2.934589   -44.595732
 0.070000   -3.155427   -43.692460
 0.075000   -3.371514   -42.699551
 0.080000   -3.582422   -41.572899
 0.085000   -3.787243   -40.324100
 0.090000   -3.985663   -39.240247
 0.095000   -4.179645   -38.164617
 0.100000   -4.367309   -36.848501
 0.105000   -4.548130   -35.419732
 0.110000   -4.721507   -33.853165
 0.115000   -4.886662   -32.090417
 0.120000   -5.042411   -30.329013
 0.125000   -5.189952   -28.536885
 0.130000   -5.327780   -26.564508
 0.135000   -5.455597   -24.546028
 0.140000   -5.573240   -22.503348
 0.145000   -5.680631   -20.322329
 0.150000   -5.776463   -18.339395
 0.155000   -5.864025   -16.528535
 0.160000   -5.941749   -14.551997
 0.165000   -6.009544   -12.557610
 0.170000   -6.067325   -10.545527
 0.175000   -6.115000   -8.417260
 0.180000   -6.151497   -6.438968
 0.185000   -6.179389   -4.664453
 0.190000   -6.198142   -2.917395
 0.195000   -6.208563   -1.351142
 0.200000   -6.211653   0.008652
 0.205000   -6.208477   0.972867
 0.210000   -6.201925   1.776949
 0.215000   -6.190707   2.743413
 0.220000   -6.174490   3.721873
 0.225000   -6.153489   4.696190
 0.230000   -6.127529   5.716637
 0.235000   -6.096322   6.416651
 0.240000   -6.063362   7.710751
 0.245000   -6.019215   10.025579
 0.250000   -5.963106   12.277046
 0.255000   -5.896444   14.366704
 0.260000   -5.819439   16.391058
 0.265000   -5.732534   18.350549
 0.270000   -5.635934   20.420381
 0.275000   -5.528330   22.420014
 0.280000   -5.411734   24.120188
 0.285000   -5.287128   25.643776
 0.290000   -5.155296   27.000548
 0.295000   -5.017123   28.389711
 0.300000   -4.871399   29.451635
 0.305000   -4.722606   29.578718
 0.310000   -4.575612   29.270474
 0.315000   -4.429901   28.924433
 0.320000   -4.286367   28.432361
 0.325000   -4.145578   27.820451
 0.330000   -4.008163   27.016666
 0.335000   -3.875411   26.271020
 0.340000   -3.745452   25.761255
 0.345000   -3.617799   25.333088
 0.350000   -3.492122   24.970180
 0.355000   -3.368097   24.535379
 0.360000   -3.246768   23.975422
 0.365000   -3.128343   23.963669
 0.370000   -3.007131   24.443158
 0.375000   -2.883911   24.943367
 0.380000   -2.757697   25.570044
 0.385000   -2.628211   26.223949
 0.390000   -2.495458   27.014650
 0.395000   -2.358064   27.367615
 0.400000   -2.221782   27.064273
 0.405000   -2.087421   26.523489
 0.410000   -1.956547   25.666339
 0.415000   -1.830758   24.538625
 0.420000   -1.711161   23.378035
 0.425000   -1.596978   21.440948
 0.430000   -1.496751   19.189696
 0.435000   -1.405081   17.524775
 0.440000   -1.321503   15.945144
 0.445000   -1.245629   14.433685
 0.450000   -1.177167   13.081730
 0.455000   -1.114812   11.524437
 0.460000   -1.061922   9.848322
 0.465000   -1.016329   8.375584
 0.470000   -0.978166   6.890564
 0.475000   -0.947423   5.421091
 0.480000   -0.923955   3.924523
 0.485000   -0.908178   2.831968
 0.490000   -0.895636   2.143998
 0.495000   -0.886738   1.385669
 0.500000   -0.881779   0.568747
 0.505000   -0.881050   -0.314370
 0.510000   -0.884923   -1.265565
 0.515000   -0.893706   -2.250482
 0.520000   -0.907428   -3.213479
 0.525000   -0.925841   -4.125690
 0.530000   -0.948685   -4.989296
 0.535000   -0.975734   -5.808053
 0.540000   -1.006765   -6.555722
 0.545000   -1.041291   -7.273684
 0.550000   -1.079502   -7.997735
 0.555000   -1.121268   -8.682354
 0.560000   -1.166325   -9.325225
 0.565000   -1.214521   -9.938303
 0.570000   -1.265708   -10.510841
 0.575000   -1.319629   -11.065709
 0.580000   -1.376366   -11.587093
 0.585000   -1.435500   -12.017113
 0.590000   -1.496537   -12.359749
 0.595000   -1.559097   -12.626583
 0.600000   -1.622802   -12.830545
 0.605000   -1.687403   -12.988651
 0.610000   -1.752689   -13.101644
 0.615000   -1.818419   -13.189880
 0.620000   -1.884588   -13.265985
 0.625000   -1.951079   -13.317332
 0.630000   -2.017761   -13.392449
 0.635000   -2.085004   -13.478339
 0.640000   -2.152545   -13.355900
 0.645000   -2.218563   -13.104742
 0.650000   -2.283592   -12.905777
 0.655000   -2.347620   -12.707005
 0.660000   -2.410662   -12.596991
 0.665000   -2.473590   -12.745828
 0.670000   -2.538120   -12.941160
 0.675000   -2.603002   -13.340149
 0.680000   -2.671522   -14.062573
 0.685000   -2.743628   -14.719006
 0.690000   -2.818712   -15.414080
 0.695000   -2.897769   -16.691271
 0.700000   -2.985625   -16.620705
 0.705000   -3.063976   -15.365923
 0.710000   -3.139284   -14.584142
 0.715000   -3.209817   -13.429980
 0.720000   -3.273584   -11.934446
 0.725000   -3.329161   -10.417934
 0.730000   -3.377763   -7.144927
 0.735000   -3.400611   -2.820108
 0.740000   -3.405964   0.733359
 0.745000   -3.393277   4.351483
 0.750000   -3.362449   7.933044
 0.755000   -3.313947   12.035934
 0.760000   -3.242090   15.466509
 0.765000   -3.159282   17.522738
 0.770000   -3.066862   19.245576
 0.775000   -2.966826   20.564000
 0.780000   -2.861222   21.477021
 0.785000   -2.752056   22.618147
 0.790000   -2.635041   22.527052
 0.795000   -2.526785   21.120942
 0.800000   -2.423832   19.970139
 0.805000   -2.327084   18.637719
 0.810000   -2.237454   17.205862
 0.815000   -2.155025   16.042053
 0.820000   -2.077034   15.209872
 0.825000   -2.002926   14.480465
 0.830000   -1.932229   13.750712
 0.835000   -1.865419   12.860783
 0.840000   -1.803621   11.715140
 0.845000   -1.748268   10.139206
 0.850000   -1.702229   7.873381
 0.855000   -1.669534   5.238498
 0.860000   -1.649844   2.499480
 0.865000   -1.644539   -0.501513
 0.870000   -1.654859   -3.741052
 0.875000   -1.681950   -7.832621
 0.880000   -1.733186   -12.185609
 0.885000   -1.803806   -15.888572
 0.890000   -1.892071   -20.525570
 0.895000   -2.009062   -27.003155
 0.900000   -2.162103   -35.072999
 0.905000   -2.359792   -46.842305
 0.910000   -2.630526   -62.974513
 0.915000   -2.989537   -80.028823
 0.920000   -3.430814   -100.670302
 0.925000   -3.996240   -128.990732
 0.930000   -4.720722   -165.434643
 0.935000   -5.650586   -217.688530
 0.940000   -6.897607   -289.370297
 0.945000   -8.544289   -359.116925
 0.950000   -10.488776   -425.119173
 0.955000   -12.795481   -489.527926
 0.960000   -15.384055   -526.674517
 0.965000   -18.062226   -518.990370
 0.970000   -20.573959   -443.495853
 0.975000   -22.497185   -264.063195
 0.980000   -23.214591   -26.203420
 0.985000   -22.759219   198.990350
 0.990000   -21.224687   386.161583
 0.995000   -18.897603   504.074249
 1.000000   -16.183945   581.388915
201 psinorm omgeb(kRad/s) domgeb/dpsiN
 0.000000   60.764077   111.483092
 0.005000   61.165665   49.152245
 0.010000   61.255599   15.533474
 0.015000   61.321000   12.025851
 0.020000   61.375858   9.937225
 0.025000   61.420372   7.273853
 0.030000   61.448596   3.415876
 0.035000   61.454531   -0.650532
 0.040000   61.442091   -4.371769
 0.045000   61.410813   -7.867043
 0.050000   61.363421   -10.596112
 0.055000   61.304852   -12.198489
 0.060000   61.241436   -12.951238
 0.065000   61.175340   -13.282991
 0.070000   61.108606   -13.318502
 0.075000   61.042155   -13.372830
 0.080000   60.974877   -13.664159
 0.085000   60.905513   -14.303546
 0.090000   60.831842   -15.682494
 0.095000   60.748688   -17.626827
 0.100000   60.655574   -19.580146
 0.105000   60.552887   -21.591452
 0.110000   60.439659   -23.415601
 0.115000   60.318731   -24.963579
 0.120000   60.190023   -26.150127
 0.125000   60.057229   -26.685416
 0.130000   59.923169   -26.589706
 0.135000   59.791332   -26.200419
 0.140000   59.661165   -25.631919
 0.145000   59.535013   -24.921367
 0.150000   59.411951   -24.566456
 0.155000   59.289349   -24.603341
 0.160000   59.165918   -24.691715
 0.165000   59.042431   -24.944338
 0.170000   58.916475   -25.510723
 0.175000   58.787324   -26.186785
 0.180000   58.654607   -27.368327
 0.185000   58.513641   -28.789332
 0.190000   58.366713   -30.305080
 0.195000   58.210590   -32.045299
 0.200000   58.046260   -33.774671
 0.205000   57.872843   -35.811537
 0.210000   57.688145   -37.541058
 0.215000   57.497433   -38.779611
 0.220000   57.300349   -39.856040
 0.225000   57.098872   -40.687174
 0.230000   56.893477   -41.564584
 0.235000   56.683227   -42.731166
 0.240000   56.466166   -43.384017
 0.245000   56.249386   -43.268090
 0.250000   56.033485   -43.096586
 0.255000   55.818421   -43.063076
 0.260000   55.602854   -43.159655
 0.265000   55.386824   -43.232285
 0.270000   55.170531   -43.227529
 0.275000   54.954549   -43.223599
 0.280000   54.738295   -43.376567
 0.285000   54.520783   -43.709350
 0.290000   54.301202   -44.071911
 0.295000   54.080064   -44.309706
 0.300000   53.858104   -44.944770
 0.305000   53.630616   -46.424677
 0.310000   53.393858   -48.303559
 0.315000   53.147581   -50.346443
 0.320000   52.890393   -52.431977
 0.325000   52.623261   -54.552420
 0.330000   52.344869   -56.797197
 0.335000   52.055289   -58.598404
 0.340000   51.758885   -59.826801
 0.345000   51.457021   -60.735755
 0.350000   51.151527   -61.088620
 0.355000   50.846135   -61.174762
 0.360000   50.539780   -61.376789
 0.365000   50.232367   -60.948539
 0.370000   49.930294   -59.974635
 0.375000   49.632621   -59.021165
 0.380000   49.340083   -58.023411
 0.385000   49.052386   -57.110337
 0.390000   48.768979   -56.102278
 0.395000   48.491364   -55.486719
 0.400000   48.214112   -55.426939
 0.405000   47.937094   -55.514876
 0.410000   47.658964   -56.207956
 0.415000   47.375015   -58.243904
 0.420000   47.076524   -62.091026
 0.425000   46.754104   -68.759895
 0.430000   46.388926   -77.787062
 0.435000   45.976234   -88.495103
 0.440000   45.503975   -101.801785
 0.445000   44.958216   -115.700888
 0.450000   44.346966   -128.461953
 0.455000   43.673596   -140.613154
 0.460000   42.940834   -151.334432
 0.465000   42.160252   -159.896110
 0.470000   41.341873   -165.363122
 0.475000   40.506621   -166.395135
 0.480000   39.677922   -163.566714
 0.485000   38.870954   -157.389798
 0.490000   38.104024   -148.363962
 0.495000   37.387314   -137.268268
 0.500000   36.731341   -124.939576
 0.505000   36.137918   -113.204890
 0.510000   35.599292   -102.903929
 0.515000   35.108879   -94.126411
 0.520000   34.658028   -86.943379
 0.525000   34.239445   -81.260952
 0.530000   33.845418   -77.465849
 0.535000   33.464787   -75.309757
 0.540000   33.092321   -73.738142
 0.545000   32.727405   -72.336821
 0.550000   32.368953   -71.154467
 0.555000   32.015861   -70.038605
 0.560000   31.668567   -68.745466
 0.565000   31.328406   -67.374329
 0.570000   30.994823   -66.093485
 0.575000   30.667471   -64.834138
 0.580000   30.346482   -63.604537
 0.585000   30.031426   -62.537845
 0.590000   29.721103   -61.663051
 0.595000   29.414795   -60.948153
 0.600000   29.111622   -60.448496
 0.605000   28.810310   -60.232788
 0.610000   28.509294   -60.216870
 0.615000   28.208142   -60.376308
 0.620000   27.905531   -60.738120
 0.625000   27.600760   -61.244028
 0.630000   27.293091   -61.904976
 0.635000   26.981711   -62.653498
 0.640000   26.666556   -63.287802
 0.645000   26.348833   -63.822342
 0.650000   26.028332   -64.351703
 0.655000   25.705316   -65.070006
 0.660000   25.377632   -66.266333
 0.665000   25.042652   -68.061850
 0.670000   24.697014   -70.262756
 0.675000   24.340025   -73.019825
 0.680000   23.966816   -76.488114
 0.685000   23.575144   -80.032093
 0.690000   23.166495   -83.387012
 0.695000   22.741273   -87.110717
 0.700000   22.295387   -89.286702
 0.705000   21.848406   -90.151639
 0.710000   21.393871   -91.640407
 0.715000   20.932002   -92.870742
 0.720000   20.465164   -93.680433
 0.725000   19.995198   -94.414362
 0.730000   19.521020   -93.339652
 0.735000   19.061802   -91.091199
 0.740000   18.610108   -89.371712
 0.745000   18.168084   -87.339429
 0.750000   17.736714   -85.176229
 0.755000   17.316322   -82.277209
 0.760000   16.913942   -79.729200
 0.765000   16.519030   -78.233295
 0.770000   16.131609   -76.922093
 0.775000   15.749809   -75.859970
 0.780000   15.373009   -74.756398
 0.785000   15.002245   -73.043507
 0.790000   14.642574   -72.618507
 0.795000   14.276060   -73.533758
 0.800000   13.907236   -74.028675
 0.805000   13.535773   -74.612619
 0.810000   13.161110   -75.120110
 0.815000   12.784572   -75.039587
 0.820000   12.410714   -74.145725
 0.825000   12.043115   -72.475474
 0.830000   11.685960   -70.211408
 0.835000   11.341001   -67.837397
 0.840000   11.007586   -65.856238
 0.845000   10.682439   -64.885831
 0.850000   10.358727   -65.567154
 0.855000   10.026767   -68.048589
 0.860000   9.678241   -72.514060
 0.865000   9.301626   -79.462491
 0.870000   8.883616   -88.683872
 0.875000   8.414788   -100.598284
 0.880000   7.877634   -114.876895
 0.885000   7.266019   -130.366573
 0.890000   6.573968   -148.389266
 0.895000   5.782126   -170.320142
 0.900000   4.870766   -194.800376
 0.905000   3.834122   -222.309852
 0.910000   2.647668   -252.809141
 0.915000   1.306031   -281.318268
 0.920000   -0.165515   -308.748850
 0.925000   -1.781458   -338.210327
 0.930000   -3.547618   -368.296547
 0.935000   -5.464423   -404.071563
 0.940000   -7.588334   -452.011776
 0.945000   -9.984541   -498.246858
 0.950000   -12.570802   -546.151071
 0.955000   -15.446051   -599.609884
 0.960000   -18.566901   -630.637288
 0.965000   -21.752424   -606.763522
 0.970000   -24.634536   -473.230894
 0.975000   -26.484733   -165.541191
 0.980000   -26.289948   268.568008
 0.985000   -23.799053   702.739929
 0.990000   -19.262549   1014.499777
 0.995000   -13.654055   1093.012221
 1.000000   -8.332427   1035.639272
201 psinorm er(kV/m) der/dpsiN
 0.000000   0.885283   1082.931462
 0.005000   5.247660   662.019565
 0.010000   7.505478   401.412766
 0.015000   9.261788   322.976059
 0.020000   10.735239   278.525996
 0.025000   12.047048   250.098804
 0.030000   13.236227   227.882155
 0.035000   14.325869   209.917699
 0.040000   15.335404   195.189417
 0.045000   16.277763   182.432479
 0.050000   17.159729   172.544654
 0.055000   18.003210   164.268183
 0.060000   18.802410   155.379994
 0.065000   19.557010   147.026179
 0.070000   20.272672   142.571194
 0.075000   20.982722   137.305551
 0.080000   21.645728   129.872459
 0.085000   22.281446   127.154492
 0.090000   22.917273   120.486010
 0.095000   23.486307   115.914782
 0.100000   24.076420   112.271162
 0.105000   24.609018   106.503181
 0.110000   25.141452   103.097168
 0.115000   25.639990   97.917324
 0.120000   26.120626   94.883641
 0.125000   26.588826   91.141718
 0.130000   27.032043   88.151546
 0.135000   27.470342   85.947605
 0.140000   27.891519   82.620025
 0.145000   28.296542   81.454406
 0.150000   28.706063   77.667707
 0.155000   29.073219   76.885560
 0.160000   29.474918   72.609870
 0.165000   29.799318   71.709950
 0.170000   30.192018   68.442276
 0.175000   30.483741   64.652212
 0.180000   30.838540   65.879169
 0.185000   31.142532   59.089927
 0.190000   31.429439   59.962840
 0.195000   31.742161   53.425984
 0.200000   31.963699   51.118287
 0.205000   32.253343   51.161756
 0.210000   32.475317   44.253902
 0.215000   32.695882   46.520520
 0.220000   32.940522   39.530919
 0.225000   33.091192   37.198908
 0.230000   33.312511   40.140494
 0.235000   33.492597   32.378026
 0.240000   33.636291   33.311017
 0.245000   33.825707   31.357541
 0.250000   33.949867   27.090132
 0.255000   34.096608   31.241359
 0.260000   34.262280   24.659144
 0.265000   34.343200   22.372120
 0.270000   34.486001   27.301949
 0.275000   34.616219   20.150988
 0.280000   34.687511   19.207011
 0.285000   34.808289   21.910534
 0.290000   34.906617   15.652793
 0.295000   34.964817   15.434553
 0.300000   35.060962   16.562575
 0.305000   35.130443   10.470515
 0.310000   35.165667   9.442669
 0.315000   35.224870   8.967787
 0.320000   35.255345   3.045064
 0.325000   35.255320   1.742487
 0.330000   35.272770   0.954963
 0.335000   35.264870   -4.424837
 0.340000   35.228522   -5.442110
 0.345000   35.210449   -5.153440
 0.350000   35.176987   -9.289516
 0.355000   35.117554   -9.920316
 0.360000   35.077784   -8.780895
 0.365000   35.029745   -12.145650
 0.370000   34.956328   -12.449594
 0.375000   34.905249   -10.089451
 0.380000   34.855433   -12.791343
 0.385000   34.777335   -13.517137
 0.390000   34.720262   -11.215919
 0.395000   34.665176   -13.028167
 0.400000   34.589980   -14.663623
 0.405000   34.518540   -14.162585
 0.410000   34.448354   -15.519910
 0.415000   34.363341   -18.880796
 0.420000   34.259546   -22.004338
 0.425000   34.143297   -26.878878
 0.430000   33.990757   -35.328994
 0.435000   33.790007   -44.094424
 0.440000   33.549813   -53.710881
 0.445000   33.252899   -65.657786
 0.450000   32.893235   -76.439343
 0.455000   32.488505   -85.624957
 0.460000   32.036986   -94.675206
 0.465000   31.541753   -102.667049
 0.470000   31.010315   -107.594213
 0.475000   30.465811   -108.857522
 0.480000   29.921740   -108.254969
 0.485000   29.383261   -104.652086
 0.490000   28.875219   -98.067823
 0.495000   28.402583   -90.740218
 0.500000   27.967817   -82.448541
 0.505000   27.578098   -73.835260
 0.510000   27.229464   -66.382268
 0.515000   26.914275   -60.704467
 0.520000   26.622420   -55.750812
 0.525000   26.356767   -51.354051
 0.530000   26.108879   -49.276273
 0.535000   25.864004   -48.293692
 0.540000   25.625942   -47.062106
 0.545000   25.393383   -46.314464
 0.550000   25.162798   -46.238377
 0.555000   24.930999   -45.693613
 0.560000   24.705862   -44.546229
 0.565000   24.485537   -44.275372
 0.570000   24.263108   -43.812682
 0.575000   24.047410   -42.637709
 0.580000   23.836731   -41.956376
 0.585000   23.627846   -41.904640
 0.590000   23.417684   -41.394269
 0.595000   23.213904   -40.562207
 0.600000   23.012062   -40.912413
 0.605000   22.804780   -41.232599
 0.610000   22.599736   -40.928661
 0.615000   22.395493   -41.187686
 0.620000   22.187859   -42.314828
 0.625000   21.972345   -42.846110
 0.630000   21.759398   -42.934056
 0.635000   21.543004   -44.181464
 0.640000   21.317584   -45.249834
 0.645000   21.090506   -45.388090
 0.650000   20.863703   -45.642723
 0.655000   20.634079   -47.250625
 0.660000   20.391197   -48.412991
 0.665000   20.149949   -49.160026
 0.670000   19.899596   -51.426524
 0.675000   19.635683   -54.416766
 0.680000   19.355429   -57.047144
 0.685000   19.065212   -59.480412
 0.690000   18.760625   -63.139012
 0.695000   18.433822   -66.611065
 0.700000   18.094514   -67.772927
 0.705000   17.756093   -68.492940
 0.710000   17.409584   -70.895265
 0.715000   17.047140   -71.993264
 0.720000   16.689652   -71.827945
 0.725000   16.328860   -73.099704
 0.730000   15.958655   -73.089706
 0.735000   15.597963   -70.935268
 0.740000   15.249302   -69.026185
 0.745000   14.907702   -68.425526
 0.750000   14.565047   -67.136168
 0.755000   14.236340   -64.050611
 0.760000   13.924541   -61.884430
 0.765000   13.617496   -61.871571
 0.770000   13.305825   -60.924783
 0.775000   13.008248   -59.185916
 0.780000   12.713966   -58.748539
 0.785000   12.420762   -58.148554
 0.790000   12.132480   -57.685014
 0.795000   11.843912   -57.987551
 0.800000   11.552605   -59.020284
 0.805000   11.253709   -60.021712
 0.810000   10.952388   -60.183647
 0.815000   10.651873   -59.956607
 0.820000   10.352822   -59.920758
 0.825000   10.052665   -58.840346
 0.830000   9.764418   -56.595022
 0.835000   9.486715   -54.675408
 0.840000   9.217664   -53.668211
 0.845000   8.950033   -53.025167
 0.850000   8.687412   -53.267772
 0.855000   8.417355   -55.574716
 0.860000   8.131665   -59.820554
 0.865000   7.819150   -65.761431
 0.870000   7.474051   -73.346343
 0.875000   7.085686   -83.660174
 0.880000   6.637449   -96.122884
 0.885000   6.124457   -109.249537
 0.890000   5.544954   -124.372252
 0.895000   4.880735   -143.236098
 0.900000   4.112593   -164.212487
 0.905000   3.238610   -187.424996
 0.910000   2.238343   -213.219960
 0.915000   1.106410   -237.705200
 0.920000   -0.138709   -260.965129
 0.925000   -1.503241   -285.832360
 0.930000   -2.997033   -312.084595
 0.935000   -4.624087   -346.951802
 0.940000   -6.466551   -388.780482
 0.945000   -8.511892   -425.397594
 0.950000   -10.720527   -473.020255
 0.955000   -13.242094   -544.782802
 0.960000   -16.168355   -572.696901
 0.965000   -18.969063   -534.502206
 0.970000   -21.513377   -427.551008
 0.975000   -23.244573   -176.973536
 0.980000   -23.283112   214.180532
 0.985000   -21.102768   617.220136
 0.990000   -17.110911   896.514886
 0.995000   -12.137619   970.441942
 1.000000   -7.406491   922.009150
201 psinorm ommvb() dommvb/dpsiN
 0.000000   44.368960   19374.537423
 0.005000   125.401816   13038.604920
 0.010000   174.755009   9914.199126
 0.015000   224.543807   9221.005047
 0.020000   266.965059   7594.178530
 0.025000   300.485592   6185.555072
 0.030000   328.820610   5285.965008
 0.035000   353.345242   4648.759230
 0.040000   375.308202   4091.270818
 0.045000   394.257950   3604.497133
 0.050000   411.353174   3258.298133
 0.055000   426.840932   2799.340408
 0.060000   439.346578   2393.042403
 0.065000   450.771356   2107.331445
 0.070000   460.419892   1843.768179
 0.075000   469.209038   1649.722037
 0.080000   476.917113   1375.387372
 0.085000   482.962911   1113.757492
 0.090000   488.054688   852.761271
 0.095000   491.490524   622.830977
 0.100000   494.282997   483.641960
 0.105000   496.326944   310.633379
 0.110000   497.389331   149.828750
 0.115000   497.825231   7.682449
 0.120000   497.466156   -151.117012
 0.125000   496.314061   -300.472864
 0.130000   494.461427   -498.939614
 0.135000   491.324665   -632.391234
 0.140000   488.137515   -706.426353
 0.145000   484.260401   -805.007775
 0.150000   480.087437   -886.032638
 0.155000   475.400075   -979.639295
 0.160000   470.291044   -1062.483163
 0.165000   464.775243   -1192.921370
 0.170000   458.361830   -1301.385658
 0.175000   451.761387   -1311.792686
 0.180000   445.243903   -1325.190695
 0.185000   438.509480   -1374.892557
 0.190000   431.494978   -1417.644193
 0.195000   424.333038   -1442.545621
 0.200000   417.069522   -1461.252593
 0.205000   409.720512   -1473.271895
 0.210000   402.336803   -1475.563574
 0.215000   394.964876   -1470.318019
 0.220000   387.633622   -1675.232985
 0.225000   378.212546   -1683.062862
 0.230000   370.802994   -1438.559333
 0.235000   363.826953   -1376.390842
 0.240000   357.039085   -1343.614440
 0.245000   350.390809   -1311.589506
 0.250000   343.923190   -1350.448526
 0.255000   336.886323   -1466.042803
 0.260000   329.262762   -1329.412205
 0.265000   323.592201   -1111.030417
 0.270000   318.152458   -1070.322190
 0.275000   312.888979   -1033.529054
 0.280000   307.817168   -1156.740329
 0.285000   301.321576   -1141.474081
 0.290000   296.402427   -907.427070
 0.295000   292.247305   -811.741108
 0.300000   288.285016   -772.330043
 0.305000   284.524005   -870.289118
 0.310000   279.582125   -857.401352
 0.315000   275.949991   -654.102568
 0.320000   273.041099   -564.822553
 0.325000   270.301766   -534.018931
 0.330000   267.700910   -634.689611
 0.335000   263.954870   -573.503311
 0.340000   261.965876   -383.183904
 0.345000   260.123031   -354.945519
 0.350000   258.416421   -391.441326
 0.355000   256.208618   -402.920441
 0.360000   254.387217   -291.995908
 0.365000   253.288658   -208.809195
 0.370000   252.299125   -205.412752
 0.375000   251.234531   -250.197803
 0.380000   249.797147   -193.649224
 0.385000   249.298039   -89.496171
 0.390000   248.902185   -68.244586
 0.395000   248.615593   -124.402979
 0.400000   247.658155   -107.055158
 0.405000   247.545041   -15.146349
 0.410000   247.506692   -4.223797
 0.415000   247.502803   -54.004545
 0.420000   246.966646   -66.150508
 0.425000   246.841298   -14.944465
 0.430000   246.817202   -9.643106
 0.435000   246.744867   -68.497905
 0.440000   246.132223   -101.473232
 0.445000   245.730135   -63.842721
 0.450000   245.493796   -54.521003
 0.455000   245.184925   -116.290466
 0.460000   244.330891   -142.418015
 0.465000   243.760745   -89.322366
 0.470000   243.437667   -63.699509
 0.475000   243.123750   -86.087959
 0.480000   242.576788   -98.342547
 0.485000   242.140324   -46.937740
 0.490000   242.107410   2.439971
 0.495000   242.164724   -0.690969
 0.500000   242.100501   -4.124478
 0.505000   242.123479   42.165242
 0.510000   242.522153   86.309064
 0.515000   242.986570   83.061437
 0.520000   243.352767   65.955214
 0.525000   243.646122   95.411082
 0.530000   244.306878   135.460221
 0.535000   245.000724   133.548939
 0.540000   245.642368   104.125888
 0.545000   246.041983   116.758921
 0.550000   246.809957   157.239772
 0.555000   247.614381   165.457796
 0.560000   248.464535   131.771378
 0.565000   248.932094   141.991207
 0.570000   249.884447   195.014896
 0.575000   250.882243   204.512866
 0.580000   251.929575   192.503015
 0.585000   252.807273   197.910858
 0.590000   253.908684   237.597997
 0.595000   255.183253   264.831102
 0.600000   256.556995   283.058635
 0.605000   258.013840   286.745555
 0.610000   259.424451   310.976845
 0.615000   261.123608   351.232075
 0.620000   262.936771   375.123739
 0.625000   264.874846   390.081385
 0.630000   266.837585   422.342166
 0.635000   269.098267   465.617555
 0.640000   271.493761   493.209654
 0.645000   274.030364   524.891021
 0.650000   276.742671   557.982119
 0.655000   279.610185   592.855155
 0.660000   282.671222   624.878946
 0.665000   285.858975   651.088107
 0.670000   289.182104   685.776732
 0.675000   292.716742   722.480041
 0.680000   296.406904   753.416856
 0.685000   300.250910   787.829395
 0.690000   304.285198   827.745463
 0.695000   308.528365   879.455370
 0.700000   313.079752   935.858459
 0.705000   317.886950   980.607072
 0.710000   322.885822   1021.853873
 0.715000   328.105488   1069.668263
 0.720000   333.582505   1129.314238
 0.725000   339.398631   1205.384369
 0.730000   345.636349   1263.634505
 0.735000   352.034976   1311.132354
 0.740000   358.747672   1374.808925
 0.745000   365.783065   1439.785235
 0.750000   373.145525   1510.876050
 0.755000   380.891826   1575.614614
 0.760000   388.901671   1629.997561
 0.765000   397.191801   1693.567630
 0.770000   405.837347   1766.718478
 0.775000   414.858986   1845.491636
 0.780000   424.292263   1934.201890
 0.785000   434.201005   2012.046918
 0.790000   444.412733   2089.410297
 0.795000   455.095108   2183.082179
 0.800000   466.243554   2275.368370
 0.805000   477.848791   2368.046782
 0.810000   489.924022   2465.331592
 0.815000   502.502107   2567.529016
 0.820000   515.599312   2617.750213
 0.825000   528.679610   2695.962374
 0.830000   542.558936   2837.905610
 0.835000   557.058666   2956.332778
 0.840000   572.122264   3068.622143
 0.845000   587.744887   3177.594749
 0.850000   603.898211   3283.334983
 0.855000   620.578237   3391.891282
 0.860000   637.817124   3516.274226
 0.865000   655.740979   3585.371713
 0.870000   673.670841   3871.202265
 0.875000   694.453002   4336.424651
 0.880000   717.035088   4736.210748
 0.885000   741.815109   5221.125395
 0.890000   769.246342   5806.272454
 0.895000   799.877834   6532.204034
 0.900000   834.568382   7463.572740
 0.905000   874.513561   8661.645509
 0.910000   921.184837   10196.455458
 0.915000   976.478116   12135.004062
 0.920000   1042.534878   14524.847424
 0.925000   1121.726590   17435.985107
 0.930000   1216.894729   20943.922516
 0.935000   1331.165815   25206.756449
 0.940000   1468.962293   30803.578862
 0.945000   1639.201604   39060.972964
 0.950000   1859.572023   51439.582340
 0.955000   2153.597427   67370.574431
 0.960000   2533.277767   83744.297587
 0.965000   2991.040403   93675.157779
 0.970000   3470.029345   86883.997173
 0.975000   3859.880375   59733.221061
 0.980000   4067.361556   27923.712513
 0.985000   4139.117500   12352.651786
 0.990000   4190.888074   15312.398184
 0.995000   4292.241482   249464.519633
 1.000000   6685.533270   707852.195611
201 psinorm ommpp() dommpp/dpsiN
 0.000000   16.395117   -19263.054331
 0.005000   -64.236150   -12989.452675
 0.010000   -113.499410   -9898.665652
 0.015000   -163.222807   -9208.979196
 0.020000   -205.589202   -7584.241305
 0.025000   -239.065220   -6178.281219
 0.030000   -267.372014   -5282.549132
 0.035000   -291.890711   -4649.409762
 0.040000   -313.866111   -4095.642586
 0.045000   -332.847137   -3612.364176
 0.050000   -349.989753   -3268.894245
 0.055000   -365.536080   -2811.538897
 0.060000   -378.105142   -2405.993641
 0.065000   -389.596016   -2120.614436
 0.070000   -399.311287   -1857.086681
 0.075000   -408.166883   -1663.094867
 0.080000   -415.942235   -1389.051531
 0.085000   -422.057398   -1128.061038
 0.090000   -427.222846   -868.443765
 0.095000   -430.741836   -640.457804
 0.100000   -433.627424   -503.222106
 0.105000   -435.774057   -332.224831
 0.110000   -436.949672   -173.244351
 0.115000   -437.506500   -32.646029
 0.120000   -437.276132   124.966885
 0.125000   -436.256832   273.787449
 0.130000   -434.538258   472.349909
 0.135000   -431.533332   606.190815
 0.140000   -428.476350   680.794434
 0.145000   -424.725388   780.086408
 0.150000   -420.675486   861.466182
 0.155000   -416.110726   955.035953
 0.160000   -411.125126   1037.791448
 0.165000   -405.732812   1167.977033
 0.170000   -399.445356   1275.874935
 0.175000   -392.974063   1285.605901
 0.180000   -386.589297   1297.822368
 0.185000   -379.995839   1346.103225
 0.190000   -373.128264   1387.339113
 0.195000   -366.122448   1410.500322
 0.200000   -359.023261   1427.477922
 0.205000   -351.847668   1437.460357
 0.210000   -344.648658   1438.022515
 0.215000   -337.467443   1431.538408
 0.220000   -330.333274   1635.376945
 0.225000   -321.113674   1642.375689
 0.230000   -313.909517   1396.994749
 0.235000   -307.143726   1333.659676
 0.240000   -300.572920   1300.230423
 0.245000   -294.141422   1268.321416
 0.250000   -287.889706   1307.351940
 0.255000   -281.067903   1422.979727
 0.260000   -273.659908   1286.252550
 0.265000   -268.205377   1067.798133
 0.270000   -262.981927   1027.094661
 0.275000   -257.934431   990.305455
 0.280000   -253.078873   1113.363763
 0.285000   -246.800793   1097.764731
 0.290000   -242.101225   863.355159
 0.295000   -238.167241   767.431402
 0.300000   -234.426911   727.385273
 0.305000   -230.893389   823.864440
 0.310000   -226.188267   809.097792
 0.315000   -222.802411   603.756125
 0.320000   -220.150706   512.390576
 0.325000   -217.678505   479.466511
 0.330000   -215.356040   577.892414
 0.335000   -211.899581   514.904907
 0.340000   -210.206991   323.357104
 0.345000   -208.666010   294.209764
 0.350000   -207.264894   330.352706
 0.355000   -205.362483   341.745679
 0.360000   -203.847437   230.619119
 0.365000   -203.056292   147.860656
 0.370000   -202.368830   145.438117
 0.375000   -201.601910   191.176639
 0.380000   -200.457064   135.625812
 0.385000   -200.245652   32.385834
 0.390000   -200.133206   12.142308
 0.395000   -200.124229   68.916259
 0.400000   -199.444043   51.628219
 0.405000   -199.607947   -40.368527
 0.410000   -199.847728   -51.984158
 0.415000   -200.127789   -4.239360
 0.420000   -199.890122   4.059482
 0.425000   -200.087194   -53.815429
 0.430000   -200.428276   -68.143956
 0.435000   -200.768633   -19.997198
 0.440000   -200.628248   -0.328554
 0.445000   -200.771919   -51.858167
 0.450000   -201.146830   -73.940951
 0.455000   -201.511328   -24.322688
 0.460000   -201.390057   -8.916417
 0.465000   -201.600493   -70.573744
 0.470000   -202.095794   -101.663613
 0.475000   -202.617129   -80.307176
 0.480000   -202.898866   -65.224167
 0.485000   -203.269370   -110.452058
 0.490000   -204.003387   -150.803933
 0.495000   -204.777410   -136.577299
 0.500000   -205.369160   -120.815098
 0.505000   -205.985561   -155.370132
 0.510000   -206.922861   -189.212993
 0.515000   -207.877691   -177.187848
 0.520000   -208.694739   -152.898593
 0.525000   -209.406677   -176.672034
 0.530000   -210.461460   -212.926070
 0.535000   -211.535937   -208.858696
 0.540000   -212.550047   -177.864030
 0.545000   -213.314578   -189.095743
 0.550000   -214.441004   -228.394239
 0.555000   -215.598520   -235.496401
 0.560000   -216.795968   -200.516844
 0.565000   -217.603688   -209.365536
 0.570000   -218.889623   -261.108380
 0.575000   -220.214772   -269.347004
 0.580000   -221.583093   -256.107552
 0.585000   -222.775848   -260.448704
 0.590000   -224.187581   -299.261049
 0.595000   -225.768458   -325.779254
 0.600000   -227.445373   -343.507131
 0.605000   -229.203529   -346.978343
 0.610000   -230.915157   -371.193715
 0.615000   -232.915467   -411.608383
 0.620000   -235.031240   -435.861859
 0.625000   -237.274085   -451.325413
 0.630000   -239.544494   -484.247142
 0.635000   -242.116557   -528.271053
 0.640000   -244.827205   -556.497456
 0.645000   -247.681531   -588.713363
 0.650000   -250.714339   -622.333822
 0.655000   -253.904869   -657.925160
 0.660000   -257.293590   -691.145278
 0.665000   -260.816322   -719.149957
 0.670000   -264.485090   -756.039488
 0.675000   -268.376717   -795.499866
 0.680000   -272.440088   -829.904970
 0.685000   -276.675767   -867.861488
 0.690000   -281.118703   -911.132476
 0.695000   -285.787092   -966.566088
 0.700000   -290.784364   -1025.145162
 0.705000   -296.038543   -1070.758711
 0.710000   -301.491951   -1113.494280
 0.715000   -307.173486   -1162.539005
 0.720000   -313.117341   -1222.994671
 0.725000   -319.403433   -1299.798731
 0.730000   -326.115329   -1356.974156
 0.735000   -332.973174   -1402.223553
 0.740000   -340.137564   -1464.180637
 0.745000   -347.614981   -1527.124664
 0.750000   -355.408811   -1596.052279
 0.755000   -363.575503   -1657.891823
 0.760000   -371.987729   -1709.726761
 0.765000   -380.672771   -1771.800924
 0.770000   -389.705738   -1843.640571
 0.775000   -399.109177   -1921.351606
 0.780000   -408.919254   -2008.958288
 0.785000   -419.198760   -2085.090426
 0.790000   -429.770159   -2162.028804
 0.795000   -440.819048   -2256.615937
 0.800000   -452.336318   -2349.397045
 0.805000   -464.313018   -2442.659401
 0.810000   -476.762912   -2540.451702
 0.815000   -489.717535   -2642.568603
 0.820000   -503.188598   -2691.895938
 0.825000   -516.636494   -2768.437848
 0.830000   -530.872977   -2908.117017
 0.835000   -545.717665   -3024.170175
 0.840000   -561.114678   -3134.478381
 0.845000   -577.062448   -3242.480579
 0.850000   -593.539484   -3348.902137
 0.855000   -610.551470   -3459.939871
 0.860000   -628.138883   -3588.788286
 0.865000   -646.439353   -3664.834204
 0.870000   -664.787225   -3959.886137
 0.875000   -686.038214   -4437.022935
 0.880000   -709.157454   -4851.087643
 0.885000   -734.549090   -5351.491968
 0.890000   -762.672374   -5954.661720
 0.895000   -794.095708   -6702.524177
 0.900000   -829.697616   -7658.373116
 0.905000   -870.679439   -8883.955360
 0.910000   -918.537169   -10449.264599
 0.915000   -975.172085   -12416.322330
 0.920000   -1042.700393   -14833.596274
 0.925000   -1123.508048   -17774.195434
 0.930000   -1220.442347   -21312.219062
 0.935000   -1336.630238   -25610.828012
 0.940000   -1476.550627   -31255.590638
 0.945000   -1649.186145   -39559.219823
 0.950000   -1872.142825   -51985.733411
 0.955000   -2169.043479   -67970.184316
 0.960000   -2551.844668   -84374.934875
 0.965000   -3012.792827   -94281.921300
 0.970000   -3494.663881   -87357.228067
 0.975000   -3886.365108   -59898.762252
 0.980000   -4093.651504   -27655.144504
 0.985000   -4162.916553   -11649.911858
 0.990000   -4210.150622   -14297.898406
 0.995000   -4305.895537   -248371.507412
 1.000000   -6693.865697   -706816.556339
201 psinorm omevb() domevb/dpsiN
 0.000000   38.139367   119.128826
 0.005000   38.584649   58.983881
 0.010000   38.729206   26.519639
 0.015000   38.849845   23.134595
 0.020000   38.960552   21.167382
 0.025000   39.061519   18.624251
 0.030000   39.146794   14.885335
 0.035000   39.210372   10.936800
 0.040000   39.256162   7.332243
 0.045000   39.283695   3.952449
 0.050000   39.295687   1.337653
 0.055000   39.297071   -0.151665
 0.060000   39.294170   -0.792573
 0.065000   39.289146   -1.013711
 0.070000   39.284033   -0.939837
 0.075000   39.279747   -0.886017
 0.080000   39.275173   -1.070441
 0.085000   39.269043   -1.604170
 0.090000   39.259131   -2.878712
 0.095000   39.240256   -4.719896
 0.100000   39.211932   -6.571328
 0.105000   39.174543   -8.482014
 0.110000   39.127112   -10.206813
 0.115000   39.072474   -11.656716
 0.120000   39.010545   -12.746468
 0.125000   38.945010   -13.186243
 0.130000   38.878683   -12.996306
 0.135000   38.815047   -12.514083
 0.140000   38.753542   -11.853939
 0.145000   38.696507   -11.053039
 0.150000   38.643011   -10.609080
 0.155000   38.590416   -10.558217
 0.160000   38.537429   -10.560149
 0.165000   38.484815   -10.727636
 0.170000   38.430153   -11.210194
 0.175000   38.372713   -11.803740
 0.180000   38.312115   -12.904079
 0.185000   38.243672   -14.245196
 0.190000   38.169663   -15.682372
 0.195000   38.086849   -17.345336
 0.200000   37.996210   -18.998772
 0.205000   37.896861   -20.961022
 0.210000   37.786600   -22.617247
 0.215000   37.670688   -23.783825
 0.220000   37.548762   -24.789600
 0.225000   37.422792   -25.551403
 0.230000   37.293248   -26.360804
 0.235000   37.159184   -27.460699
 0.240000   37.018641   -28.048185
 0.245000   36.878702   -27.868214
 0.250000   36.739958   -27.633987
 0.255000   36.602363   -27.539075
 0.260000   36.464568   -27.575571
 0.265000   36.326607   -27.589437
 0.270000   36.188673   -27.527235
 0.275000   36.051335   -27.467175
 0.280000   35.914002   -27.565327
 0.285000   35.775681   -27.844607
 0.290000   35.635556   -28.154977
 0.295000   35.494131   -28.341890
 0.300000   35.352137   -28.927380
 0.305000   35.204858   -30.359017
 0.310000   35.048546   -32.190933
 0.315000   34.882948   -34.188150
 0.320000   34.706665   -36.229314
 0.325000   34.520655   -38.306683
 0.330000   34.323598   -40.509676
 0.335000   34.115558   -42.270389
 0.340000   33.900894   -43.459576
 0.345000   33.680963   -44.330603
 0.350000   33.457588   -44.646819
 0.355000   33.234495   -44.697586
 0.360000   33.010612   -44.865509
 0.365000   32.785839   -44.404422
 0.370000   32.566568   -43.398944
 0.375000   32.351850   -42.415158
 0.380000   32.142417   -41.388343
 0.385000   31.937967   -40.447456
 0.390000   31.737942   -39.412830
 0.395000   31.543838   -38.771944
 0.400000   31.350223   -38.688073
 0.405000   31.156958   -38.753149
 0.410000   30.962691   -39.424593
 0.415000   30.762712   -41.440126
 0.420000   30.548290   -45.268046
 0.425000   30.310031   -51.918923
 0.430000   30.029101   -60.929302
 0.435000   29.700738   -71.621753
 0.440000   29.312883   -84.914037
 0.445000   28.851598   -98.799927
 0.450000   28.324884   -111.548960
 0.455000   27.736108   -123.689302
 0.460000   27.087991   -134.400890
 0.465000   26.392099   -142.954037
 0.470000   25.658450   -148.413675
 0.475000   24.907963   -149.439461
 0.480000   24.164056   -146.605955
 0.485000   23.441903   -140.425089
 0.490000   22.759805   -131.396430
 0.495000   22.127939   -120.299034
 0.500000   21.556815   -107.969754
 0.505000   21.048241   -96.235587
 0.510000   20.594459   -85.936244
 0.515000   20.188879   -77.161436
 0.520000   19.822844   -69.982199
 0.525000   19.489057   -64.304644
 0.530000   19.179798   -60.515483
 0.535000   18.883902   -58.366394
 0.540000   18.596134   -56.802836
 0.545000   18.315874   -55.410619
 0.550000   18.042028   -54.238407
 0.555000   17.773489   -53.133718
 0.560000   17.510691   -51.852774
 0.565000   17.254962   -50.494845
 0.570000   17.005742   -49.228216
 0.575000   16.762680   -47.984083
 0.580000   16.525901   -46.770684
 0.585000   16.294973   -45.721176
 0.590000   16.068690   -44.864538
 0.595000   15.846327   -44.168759
 0.600000   15.627002   -43.689178
 0.605000   15.409436   -43.494492
 0.610000   15.192057   -43.500535
 0.615000   14.974430   -43.682863
 0.620000   14.755228   -44.068485
 0.625000   14.533745   -44.599115
 0.630000   14.309237   -45.285687
 0.635000   14.080888   -46.060728
 0.640000   13.848630   -46.722434
 0.645000   13.613664   -47.285252
 0.650000   13.375777   -47.843756
 0.655000   13.135227   -48.592059
 0.660000   12.889857   -49.819233
 0.665000   12.637034   -51.646433
 0.670000   12.373393   -53.879850
 0.675000   12.098236   -56.670244
 0.680000   11.806690   -60.172663
 0.685000   11.496509   -63.751565
 0.690000   11.169174   -67.142187
 0.695000   10.825087   -70.902360
 0.700000   10.460151   -73.115561
 0.705000   10.093932   -74.018443
 0.710000   9.719966   -75.545865
 0.715000   9.338473   -76.815532
 0.720000   8.951811   -77.665201
 0.725000   8.561821   -78.439709
 0.730000   8.167414   -77.406122
 0.735000   7.787760   -75.199264
 0.740000   7.415421   -73.521743
 0.745000   7.052542   -71.531667
 0.750000   6.700105   -69.410739
 0.755000   6.358435   -66.553816
 0.760000   6.034567   -64.047406
 0.765000   5.717961   -62.592163
 0.770000   5.408645   -61.320086
 0.775000   5.104760   -60.294740
 0.780000   4.805698   -59.224484
 0.785000   4.512515   -57.539941
 0.790000   4.230298   -57.136265
 0.795000   3.941153   -58.063024
 0.800000   3.649668   -58.555843
 0.805000   3.355594   -59.118956
 0.810000   3.058478   -59.579956
 0.815000   2.759795   -59.417964
 0.820000   2.464299   -58.395170
 0.825000   2.175843   -56.531896
 0.830000   1.898980   -53.988719
 0.835000   1.635956   -51.220694
 0.840000   1.386773   -48.693324
 0.845000   1.149022   -46.977068
 0.850000   0.917002   -46.653975
 0.855000   0.682483   -47.801787
 0.860000   0.438984   -50.524448
 0.865000   0.177238   -55.239251
 0.870000   -0.113408   -61.670865
 0.875000   -0.439470   -70.227320
 0.880000   -0.815681   -80.692263
 0.885000   -1.246393   -92.281479
 0.890000   -1.738496   -107.179793
 0.895000   -2.318191   -128.537684
 0.900000   -3.023873   -158.406538
 0.905000   -3.902256   -203.529562
 0.910000   -5.059169   -274.969667
 0.915000   -6.651953   -386.746649
 0.920000   -8.926635   -570.885854
 0.925000   -12.360812   -878.147296
 0.930000   -17.708108   -1371.893661
 0.935000   -26.079748   -2124.897988
 0.940000   -38.957088   -3164.909167
 0.945000   -57.728840   -4350.755984
 0.950000   -82.464648   -5292.388617
 0.955000   -110.652726   -5360.487564
 0.960000   -136.069524   -4012.275405
 0.965000   -150.775480   -1362.093004
 0.970000   -149.690454   1696.988055
 0.975000   -133.805600   4071.171214
 0.980000   -108.978741   5140.750577
 0.985000   -82.398094   5030.645353
 0.990000   -58.672288   4276.940891
 0.995000   -39.628685   3310.671659
 1.000000   -25.565571   2314.573773
201 psinorm omepp() domepp/dpsiN
 0.000000   22.624710   -7.645735
 0.005000   22.581016   -9.831636
 0.010000   22.526393   -10.986166
 0.015000   22.471155   -11.108744
 0.020000   22.415306   -11.230157
 0.025000   22.358853   -11.350398
 0.030000   22.301802   -11.469458
 0.035000   22.244158   -11.587332
 0.040000   22.185929   -11.704012
 0.045000   22.127118   -11.819492
 0.050000   22.067734   -11.933765
 0.055000   22.007781   -12.046825
 0.060000   21.947265   -12.158665
 0.065000   21.886194   -12.269280
 0.070000   21.824573   -12.378665
 0.075000   21.762407   -12.486812
 0.080000   21.699704   -12.593718
 0.085000   21.636470   -12.699376
 0.090000   21.572711   -12.803782
 0.095000   21.508432   -12.906931
 0.100000   21.443641   -13.008818
 0.105000   21.378344   -13.109439
 0.110000   21.312547   -13.208788
 0.115000   21.246256   -13.306863
 0.120000   21.179478   -13.403659
 0.125000   21.112220   -13.499172
 0.130000   21.044487   -13.593399
 0.135000   20.976286   -13.686336
 0.140000   20.907623   -13.777980
 0.145000   20.838506   -13.868328
 0.150000   20.768940   -13.957377
 0.155000   20.698932   -14.045124
 0.160000   20.628489   -14.131566
 0.165000   20.557616   -14.216702
 0.170000   20.486322   -14.300529
 0.175000   20.414611   -14.383045
 0.180000   20.342491   -14.464248
 0.185000   20.269969   -14.544136
 0.190000   20.197050   -14.622708
 0.195000   20.123742   -14.699963
 0.200000   20.050050   -14.775899
 0.205000   19.975983   -14.850515
 0.210000   19.901545   -14.923812
 0.215000   19.826745   -14.995786
 0.220000   19.751587   -15.066440
 0.225000   19.676080   -15.135771
 0.230000   19.600230   -15.203780
 0.235000   19.524042   -15.270467
 0.240000   19.447525   -15.335833
 0.245000   19.370684   -15.399876
 0.250000   19.293526   -15.462599
 0.255000   19.216058   -15.524001
 0.260000   19.138286   -15.584084
 0.265000   19.060217   -15.642847
 0.270000   18.981858   -15.700294
 0.275000   18.903214   -15.756424
 0.280000   18.824293   -15.811240
 0.285000   18.745102   -15.864742
 0.290000   18.665646   -15.916934
 0.295000   18.585932   -15.967816
 0.300000   18.505968   -16.017390
 0.305000   18.425759   -16.065660
 0.310000   18.345311   -16.112627
 0.315000   18.264632   -16.158293
 0.320000   18.183728   -16.202663
 0.325000   18.102606   -16.245738
 0.330000   18.021271   -16.287521
 0.335000   17.939730   -16.328015
 0.340000   17.857991   -16.367225
 0.345000   17.776058   -16.405152
 0.350000   17.693939   -16.441801
 0.355000   17.611640   -16.477176
 0.360000   17.529168   -16.511280
 0.365000   17.446527   -16.544117
 0.370000   17.363726   -16.575691
 0.375000   17.280771   -16.606007
 0.380000   17.197666   -16.635069
 0.385000   17.114420   -16.662881
 0.390000   17.031037   -16.689448
 0.395000   16.947525   -16.714775
 0.400000   16.863890   -16.738866
 0.405000   16.780137   -16.761727
 0.410000   16.696272   -16.783363
 0.415000   16.612303   -16.803778
 0.420000   16.528235   -16.822980
 0.425000   16.444073   -16.840971
 0.430000   16.359825   -16.857760
 0.435000   16.275496   -16.873350
 0.440000   16.191091   -16.887749
 0.445000   16.106618   -16.900961
 0.450000   16.022082   -16.912993
 0.455000   15.937488   -16.923852
 0.460000   15.852843   -16.933543
 0.465000   15.768153   -16.942072
 0.470000   15.683423   -16.949447
 0.475000   15.598658   -16.955674
 0.480000   15.513866   -16.960759
 0.485000   15.429051   -16.964710
 0.490000   15.344219   -16.967532
 0.495000   15.259375   -16.969234
 0.500000   15.174526   -16.969822
 0.505000   15.089677   -16.969303
 0.510000   15.004833   -16.967685
 0.515000   14.920000   -16.964975
 0.520000   14.835184   -16.961180
 0.525000   14.750389   -16.956308
 0.530000   14.665621   -16.950367
 0.535000   14.580885   -16.943363
 0.540000   14.496187   -16.935306
 0.545000   14.411532   -16.926202
 0.550000   14.326925   -16.916060
 0.555000   14.242371   -16.904887
 0.560000   14.157876   -16.892692
 0.565000   14.073444   -16.879483
 0.570000   13.989081   -16.865268
 0.575000   13.904792   -16.850055
 0.580000   13.820581   -16.833853
 0.585000   13.736453   -16.816669
 0.590000   13.652414   -16.798513
 0.595000   13.568468   -16.779393
 0.600000   13.484620   -16.759318
 0.605000   13.400875   -16.738295
 0.610000   13.317237   -16.716335
 0.615000   13.233711   -16.693445
 0.620000   13.150303   -16.669635
 0.625000   13.067015   -16.644913
 0.630000   12.983853   -16.619289
 0.635000   12.900822   -16.592770
 0.640000   12.817926   -16.565368
 0.645000   12.735169   -16.537090
 0.650000   12.652555   -16.507947
 0.655000   12.570089   -16.477947
 0.660000   12.487775   -16.447100
 0.665000   12.405618   -16.415417
 0.670000   12.323621   -16.382907
 0.675000   12.241789   -16.349581
 0.680000   12.160125   -16.315451
 0.685000   12.078634   -16.280528
 0.690000   11.997320   -16.244825
 0.695000   11.916186   -16.208358
 0.700000   11.835237   -16.171141
 0.705000   11.754475   -16.133195
 0.710000   11.673905   -16.094542
 0.715000   11.593529   -16.055210
 0.720000   11.513353   -16.015232
 0.725000   11.433377   -15.974653
 0.730000   11.353606   -15.933530
 0.735000   11.274042   -15.891935
 0.740000   11.194687   -15.849969
 0.745000   11.115542   -15.807762
 0.750000   11.036609   -15.765490
 0.755000   10.957887   -15.723393
 0.760000   10.879375   -15.681794
 0.765000   10.801069   -15.641132
 0.770000   10.722964   -15.602006
 0.775000   10.645049   -15.565230
 0.780000   10.567311   -15.531913
 0.785000   10.489730   -15.503566
 0.790000   10.412276   -15.482242
 0.795000   10.334908   -15.470735
 0.800000   10.257568   -15.472832
 0.805000   10.180179   -15.493663
 0.810000   10.102632   -15.540154
 0.815000   10.024778   -15.621623
 0.820000   9.946416   -15.750555
 0.825000   9.867272   -15.943578
 0.830000   9.786980   -16.222688
 0.835000   9.705045   -16.616703
 0.840000   9.620813   -17.162914
 0.845000   9.533416   -17.908763
 0.850000   9.441725   -18.913179
 0.855000   9.344284   -20.246802
 0.860000   9.239257   -21.989612
 0.865000   9.124388   -24.223240
 0.870000   8.997025   -27.013007
 0.875000   8.854258   -30.370964
 0.880000   8.693315   -34.184631
 0.885000   8.512412   -38.085093
 0.890000   8.312464   -41.209473
 0.895000   8.100317   -41.782459
 0.900000   7.894640   -36.393839
 0.905000   7.736379   -18.780290
 0.910000   7.706837   22.160526
 0.915000   7.957984   105.428381
 0.920000   8.761120   262.137004
 0.925000   10.579354   539.936969
 0.930000   14.160490   1003.597114
 0.935000   20.615325   1720.826424
 0.940000   31.368754   2712.897391
 0.945000   47.744299   3852.509126
 0.950000   69.893846   4746.237546
 0.955000   95.206675   4760.877680
 0.960000   117.502622   3381.638117
 0.965000   129.023056   755.329482
 0.970000   125.055917   -2170.218948
 0.975000   107.320866   -4236.712405
 0.980000   82.688793   -4872.182569
 0.985000   58.599041   -4327.905424
 0.990000   39.409739   -3262.441113
 0.995000   25.974629   -2217.659438
 1.000000   17.233145   -1278.934501
201 psinorm kpol(km/s/T) dkpol/dpsiN
 0.000000   -0.007202   138.233186
 0.005000   0.560860   88.991678
 0.010000   0.882715   63.194983
 0.015000   1.192810   62.152586
 0.020000   1.504241   62.320781
 0.025000   1.816018   61.637726
 0.030000   2.120618   59.446591
 0.035000   2.410484   56.754606
 0.040000   2.688164   54.140887
 0.045000   2.951893   51.512559
 0.050000   3.203290   49.390187
 0.055000   3.445794   48.177110
 0.060000   3.685061   47.946017
 0.065000   3.925255   48.210856
 0.070000   4.167169   48.579584
 0.075000   4.411050   48.818421
 0.080000   4.655353   48.659421
 0.085000   4.897645   47.956368
 0.090000   5.134917   46.561748
 0.095000   5.363262   44.502941
 0.100000   5.579947   42.112860
 0.105000   5.784391   39.479640
 0.110000   5.974743   36.885109
 0.115000   6.153242   34.366844
 0.120000   6.318411   32.253038
 0.125000   6.475772   30.836203
 0.130000   6.626773   29.907855
 0.135000   6.774851   29.228537
 0.140000   6.919059   28.721828
 0.145000   7.062069   28.218657
 0.150000   7.201245   27.529109
 0.155000   7.337360   26.586151
 0.160000   7.467107   25.394290
 0.165000   7.591303   24.009294
 0.170000   7.707200   22.262015
 0.175000   7.813923   20.250913
 0.180000   7.909709   17.811499
 0.185000   7.992038   15.337525
 0.190000   8.063084   12.795272
 0.195000   8.119991   10.181745
 0.200000   8.164902   7.755141
 0.205000   8.197542   5.332827
 0.210000   8.218230   3.367607
 0.215000   8.231218   1.676454
 0.220000   8.234994   0.017938
 0.225000   8.231398   -1.533895
 0.230000   8.219655   -3.351507
 0.235000   8.197883   -5.239786
 0.240000   8.167258   -7.374501
 0.245000   8.124138   -9.977653
 0.250000   8.067481   -12.622133
 0.255000   7.997916   -15.487066
 0.260000   7.912610   -18.531827
 0.265000   7.812598   -21.447531
 0.270000   7.698135   -24.439971
 0.275000   7.568198   -27.347303
 0.280000   7.424662   -30.047944
 0.285000   7.267719   -32.702889
 0.290000   7.097633   -35.032303
 0.295000   6.917396   -37.060611
 0.300000   6.727027   -39.069324
 0.305000   6.526703   -40.891908
 0.310000   6.318108   -42.640131
 0.315000   6.100301   -44.540054
 0.320000   5.872707   -46.366570
 0.325000   5.636636   -48.185740
 0.330000   5.390850   -49.988104
 0.335000   5.136755   -51.364499
 0.340000   4.877205   -52.380864
 0.345000   4.612946   -53.174866
 0.350000   4.345456   -53.426505
 0.355000   4.078681   -53.329385
 0.360000   3.812163   -53.305813
 0.365000   3.545623   -53.259518
 0.370000   3.279567   -53.226795
 0.375000   3.013355   -53.373928
 0.380000   2.745828   -53.746940
 0.385000   2.475885   -54.333632
 0.390000   2.202492   -55.040063
 0.395000   1.925485   -55.745770
 0.400000   1.645034   -56.361925
 0.405000   1.361866   -56.922968
 0.410000   1.075804   -57.824983
 0.415000   0.783616   -59.880398
 0.420000   0.477000   -63.906462
 0.425000   0.144551   -70.213967
 0.430000   -0.225139   -78.795903
 0.435000   -0.643408   -89.806815
 0.440000   -1.123207   -103.888166
 0.445000   -1.682290   -118.731452
 0.450000   -2.310522   -132.241859
 0.455000   -3.004708   -144.603184
 0.460000   -3.756554   -154.886014
 0.465000   -4.553568   -162.410606
 0.470000   -5.380660   -165.682433
 0.475000   -6.210393   -163.416470
 0.480000   -7.014825   -156.410882
 0.485000   -7.774501   -145.773415
 0.490000   -8.472559   -132.223341
 0.495000   -9.096735   -116.157301
 0.500000   -9.634132   -98.805190
 0.505000   -10.084787   -82.708969
 0.510000   -10.461221   -68.798085
 0.515000   -10.772768   -57.047863
 0.520000   -11.031700   -47.583316
 0.525000   -11.248601   -40.303386
 0.530000   -11.434734   -35.783547
 0.535000   -11.606436   -33.550227
 0.540000   -11.770236   -32.043313
 0.545000   -11.926869   -30.633859
 0.550000   -12.076575   -29.300650
 0.555000   -12.219876   -27.886547
 0.560000   -12.355440   -26.082287
 0.565000   -12.480699   -23.867044
 0.570000   -12.594111   -21.410913
 0.575000   -12.694808   -18.659506
 0.580000   -12.780706   -15.632338
 0.585000   -12.851131   -12.580979
 0.590000   -12.906516   -9.537702
 0.595000   -12.946508   -6.521881
 0.600000   -12.971734   -3.722508
 0.605000   -12.983733   -1.283919
 0.610000   -12.984574   0.874742
 0.615000   -12.974986   2.784123
 0.620000   -12.956732   4.314502
 0.625000   -12.931841   5.567768
 0.630000   -12.901055   6.680234
 0.635000   -12.865039   7.670308
 0.640000   -12.824352   8.507730
 0.645000   -12.779961   9.282129
 0.650000   -12.731530   10.064298
 0.655000   -12.679318   10.739634
 0.660000   -12.624134   11.294602
 0.665000   -12.566372   11.796173
 0.670000   -12.506172   12.254613
 0.675000   -12.443826   12.720104
 0.680000   -12.378971   13.314591
 0.685000   -12.310680   14.070935
 0.690000   -12.238262   14.926437
 0.695000   -12.161416   15.799617
 0.700000   -12.080266   16.710379
 0.705000   -11.994312   17.524666
 0.710000   -11.905019   17.894016
 0.715000   -11.815372   17.694627
 0.720000   -11.728073   16.922048
 0.725000   -11.646151   15.530907
 0.730000   -11.572764   13.522179
 0.735000   -11.510930   10.950951
 0.740000   -11.463254   8.019133
 0.745000   -11.430738   4.965280
 0.750000   -11.413601   1.973023
 0.755000   -11.411008   -0.763461
 0.760000   -11.421236   -3.094598
 0.765000   -11.441954   -5.082321
 0.770000   -11.472059   -6.959022
 0.775000   -11.511544   -8.940841
 0.780000   -11.561468   -11.254032
 0.785000   -11.624085   -14.144009
 0.790000   -11.702908   -18.016294
 0.795000   -11.804248   -22.678900
 0.800000   -11.929697   -27.609106
 0.805000   -12.080339   -32.613672
 0.810000   -12.255833   -37.198034
 0.815000   -12.452319   -40.811365
 0.820000   -12.663947   -42.967392
 0.825000   -12.881993   -43.186873
 0.830000   -13.095816   -41.435845
 0.835000   -13.296351   -38.121109
 0.840000   -13.477027   -33.776260
 0.845000   -13.634114   -28.795810
 0.850000   -13.764985   -23.407263
 0.855000   -13.868187   -18.052792
 0.860000   -13.945513   -13.096607
 0.865000   -13.999153   -8.354353
 0.870000   -14.029056   -3.586923
 0.875000   -14.035022   1.239860
 0.880000   -14.016658   6.023025
 0.885000   -13.974792   11.029052
 0.890000   -13.906367   16.334817
 0.895000   -13.811443   21.504344
 0.900000   -13.691324   26.248113
 0.905000   -13.548962   30.593249
 0.910000   -13.385391   34.685184
 0.915000   -13.202110   38.877501
 0.920000   -12.996616   43.762441
 0.925000   -12.764486   48.836310
 0.930000   -12.508253   54.288204
 0.935000   -12.221604   63.552399
 0.940000   -11.872729   73.867098
 0.945000   -11.482933   75.188286
 0.950000   -11.120846   61.938454
 0.955000   -10.863548   33.855481
 0.960000   -10.782292   -1.360906
 0.965000   -10.877158   -15.435552
 0.970000   -10.936647   45.506045
 0.975000   -10.422097   229.464512
 0.980000   -8.642002   533.450691
 0.985000   -5.087590   865.753020
 0.990000   0.015528   1064.341660
 0.995000   5.555826   995.057207
 1.000000   9.966100   769.052346
201 psinorm omghb() domghb/dpsiN
 0.000000   -0.000052   0.017964
 0.005000   -0.000108   -0.040584
 0.010000   -0.000457   -0.045241
 0.015000   -0.000561   -0.012928
 0.020000   -0.000587   0.003719
 0.025000   -0.000523   0.024306
 0.030000   -0.000344   0.054913
 0.035000   0.000026   0.085188
 0.040000   0.000508   0.114251
 0.045000   0.001168   0.121510
 0.050000   0.001723   0.101322
 0.055000   0.002181   0.081638
 0.060000   0.002540   0.058672
 0.065000   0.002768   0.037410
 0.070000   0.002914   0.046380
 0.075000   0.003232   0.065462
 0.080000   0.003568   0.075375
 0.085000   0.003986   0.105338
 0.090000   0.004622   0.138103
 0.095000   0.005367   0.163602
 0.100000   0.006258   0.211254
 0.105000   0.007479   0.227979
 0.110000   0.008538   0.201413
 0.115000   0.009493   0.175623
 0.120000   0.010294   0.148892
 0.125000   0.010982   0.104678
 0.130000   0.011341   0.056036
 0.135000   0.011543   0.040734
 0.140000   0.011748   0.040815
 0.145000   0.011951   0.044060
 0.150000   0.012189   0.053136
 0.155000   0.012482   0.070209
 0.160000   0.012891   0.089679
 0.165000   0.013379   0.137759
 0.170000   0.014268   0.162510
 0.175000   0.015004   0.187778
 0.180000   0.016146   0.231713
 0.185000   0.017321   0.251511
 0.190000   0.018661   0.309681
 0.195000   0.020418   0.341886
 0.200000   0.022080   0.347020
 0.205000   0.023888   0.329535
 0.210000   0.025375   0.294020
 0.215000   0.026828   0.307811
 0.220000   0.028453   0.311430
 0.225000   0.029943   0.242234
 0.230000   0.030876   0.208557
 0.235000   0.032028   0.203730
 0.240000   0.032913   0.184473
 0.245000   0.033873   0.163211
 0.250000   0.034545   0.141906
 0.255000   0.035292   0.100633
 0.260000   0.035551   0.076735
 0.265000   0.036059   0.124873
 0.270000   0.036800   0.152885
 0.275000   0.037588   0.135396
 0.280000   0.038154   0.092711
 0.285000   0.038515   0.157057
 0.290000   0.039725   0.219291
 0.295000   0.040708   0.249059
 0.300000   0.042215   0.325872
 0.305000   0.043967   0.364324
 0.310000   0.045859   0.416984
 0.315000   0.048137   0.570639
 0.320000   0.051565   0.613721
 0.325000   0.054274   0.548118
 0.330000   0.057046   0.518444
 0.335000   0.059459   0.415445
 0.340000   0.061201   0.398688
 0.345000   0.063445   0.313104
 0.350000   0.064332   0.149295
 0.355000   0.064938   0.117941
 0.360000   0.065511   0.076356
 0.365000   0.065702   0.007818
 0.370000   0.065589   0.003391
 0.375000   0.065736   -0.113131
 0.380000   0.064458   -0.187866
 0.385000   0.063857   -0.067108
 0.390000   0.063787   0.001183
 0.395000   0.063869   0.037332
 0.400000   0.064160   -0.002969
 0.405000   0.063839   0.121553
 0.410000   0.065376   0.481696
 0.415000   0.068656   0.815345
 0.420000   0.073529   1.392704
 0.425000   0.082583   2.138650
 0.430000   0.094916   2.593287
 0.435000   0.108516   2.946609
 0.440000   0.124382   3.298976
 0.445000   0.141506   3.440600
 0.450000   0.158788   3.662836
 0.455000   0.178134   3.404267
 0.460000   0.192830   2.582441
 0.465000   0.203959   1.874180
 0.470000   0.211572   1.058443
 0.475000   0.214543   0.124878
 0.480000   0.212821   -0.917457
 0.485000   0.205369   -1.888781
 0.490000   0.193933   -2.495286
 0.495000   0.180416   -2.785052
 0.500000   0.166083   -2.857607
 0.505000   0.151840   -2.764513
 0.510000   0.138437   -2.650525
 0.515000   0.125334   -2.164505
 0.520000   0.116792   -1.499959
 0.525000   0.110335   -1.089165
 0.530000   0.105901   -0.691010
 0.535000   0.103425   -0.410190
 0.540000   0.101799   -0.292196
 0.545000   0.100503   -0.258580
 0.550000   0.099213   -0.247952
 0.555000   0.098023   -0.269644
 0.560000   0.096517   -0.284606
 0.565000   0.095177   -0.256648
 0.570000   0.093950   -0.277487
 0.575000   0.092402   -0.303094
 0.580000   0.090919   -0.264700
 0.585000   0.089755   -0.195608
 0.590000   0.088963   -0.149074
 0.595000   0.088265   -0.110224
 0.600000   0.087861   -0.035293
 0.605000   0.087912   0.024105
 0.610000   0.088102   0.070881
 0.615000   0.088620   0.164519
 0.620000   0.089747   0.230112
 0.625000   0.090922   0.241959
 0.630000   0.092167   0.242953
 0.635000   0.093351   0.234698
 0.640000   0.094514   0.239008
 0.645000   0.095741   0.296965
 0.650000   0.097483   0.297422
 0.655000   0.098715   0.312633
 0.660000   0.100610   0.436685
 0.665000   0.103082   0.614157
 0.670000   0.106751   0.840551
 0.675000   0.111488   1.264657
 0.680000   0.119398   1.325323
 0.685000   0.124741   0.959786
 0.690000   0.128996   0.884787
 0.695000   0.133589   0.892176
 0.700000   0.137917   0.780211
 0.705000   0.141391   0.870492
 0.710000   0.146622   0.612285
 0.715000   0.147514   0.070327
 0.720000   0.147326   0.042696
 0.725000   0.147941   0.046431
 0.730000   0.147790   -0.156587
 0.735000   0.146375   -0.367853
 0.740000   0.144111   -0.654114
 0.745000   0.139834   -0.788930
 0.750000   0.136222   -0.691655
 0.755000   0.132917   -0.584934
 0.760000   0.130373   -0.506974
 0.765000   0.127847   -0.568725
 0.770000   0.124686   -0.562120
 0.775000   0.122226   -0.246738
 0.780000   0.122218   -0.084325
 0.785000   0.121383   -0.088591
 0.790000   0.121332   -0.005533
 0.795000   0.121328   0.010588
 0.800000   0.121438   0.220345
 0.805000   0.123531   0.495914
 0.810000   0.126397   0.264620
 0.815000   0.126177   -0.164385
 0.820000   0.124753   -0.389233
 0.825000   0.122285   -0.603353
 0.830000   0.118720   -0.800126
 0.835000   0.114284   -0.731281
 0.840000   0.111407   -0.395719
 0.845000   0.110327   0.004828
 0.850000   0.111455   0.543077
 0.855000   0.115757   1.225434
 0.860000   0.123710   2.187109
 0.865000   0.137628   2.888087
 0.870000   0.152591   3.439012
 0.875000   0.172019   4.388043
 0.880000   0.196471   5.293106
 0.885000   0.224950   6.027714
 0.890000   0.256748   7.671741
 0.895000   0.301667   8.356859
 0.900000   0.340317   8.449569
 0.905000   0.386163   9.545149
 0.910000   0.435768   10.111877
 0.915000   0.487281   10.191822
 0.920000   0.537686   13.061638
 0.925000   0.617898   11.919761
 0.930000   0.656884   9.732752
 0.935000   0.715225   12.471828
 0.940000   0.781602   15.839174
 0.945000   0.873617   20.095412
 0.950000   0.982556   29.129750
 0.955000   1.164915   21.914083
 0.960000   1.201697   -2.101735
 0.965000   1.143897   -31.853343
 0.970000   0.883164   -80.711523
 0.975000   0.336782   -136.238113
 0.980000   -0.479217   -169.337074
 0.985000   -1.356589   -155.637405
 0.990000   -2.035591   -83.995483
 0.995000   -2.196544   17.447920
 1.000000   -1.861112   116.724637
201 psinorm nz1(10^20/m^3) dnz1/dpsiN
 0.000000   0.016635   0.000001
 0.005000   0.016635   -0.000183
 0.010000   0.016634   -0.000369
 0.015000   0.016631   -0.000557
 0.020000   0.016628   -0.000747
 0.025000   0.016624   -0.000938
 0.030000   0.016619   -0.001130
 0.035000   0.016612   -0.001321
 0.040000   0.016605   -0.001511
 0.045000   0.016597   -0.001699
 0.050000   0.016588   -0.001884
 0.055000   0.016578   -0.002067
 0.060000   0.016568   -0.002245
 0.065000   0.016556   -0.002419
 0.070000   0.016544   -0.002586
 0.075000   0.016530   -0.002748
 0.080000   0.016516   -0.002904
 0.085000   0.016501   -0.003055
 0.090000   0.016485   -0.003198
 0.095000   0.016469   -0.003336
 0.100000   0.016452   -0.003466
 0.105000   0.016434   -0.003591
 0.110000   0.016416   -0.003708
 0.115000   0.016397   -0.003818
 0.120000   0.016378   -0.003919
 0.125000   0.016358   -0.004010
 0.130000   0.016338   -0.004093
 0.135000   0.016317   -0.004166
 0.140000   0.016296   -0.004231
 0.145000   0.016275   -0.004287
 0.150000   0.016253   -0.004335
 0.155000   0.016232   -0.004374
 0.160000   0.016210   -0.004403
 0.165000   0.016188   -0.004424
 0.170000   0.016165   -0.004437
 0.175000   0.016143   -0.004440
 0.180000   0.016121   -0.004434
 0.185000   0.016099   -0.004419
 0.190000   0.016077   -0.004394
 0.195000   0.016055   -0.004358
 0.200000   0.016033   -0.004313
 0.205000   0.016012   -0.004257
 0.210000   0.015991   -0.004192
 0.215000   0.015970   -0.004119
 0.220000   0.015949   -0.004039
 0.225000   0.015929   -0.003954
 0.230000   0.015910   -0.003861
 0.235000   0.015891   -0.003760
 0.240000   0.015872   -0.003650
 0.245000   0.015854   -0.003531
 0.250000   0.015837   -0.003402
 0.255000   0.015820   -0.003263
 0.260000   0.015804   -0.003113
 0.265000   0.015789   -0.002949
 0.270000   0.015775   -0.002774
 0.275000   0.015761   -0.002587
 0.280000   0.015749   -0.002389
 0.285000   0.015738   -0.002181
 0.290000   0.015727   -0.001963
 0.295000   0.015718   -0.001736
 0.300000   0.015710   -0.001502
 0.305000   0.015703   -0.001262
 0.310000   0.015697   -0.001017
 0.315000   0.015693   -0.000769
 0.320000   0.015690   -0.000519
 0.325000   0.015688   -0.000269
 0.330000   0.015687   -0.000017
 0.335000   0.015687   0.000236
 0.340000   0.015689   0.000492
 0.345000   0.015692   0.000753
 0.350000   0.015697   0.001021
 0.355000   0.015703   0.001295
 0.360000   0.015710   0.001574
 0.365000   0.015718   0.001858
 0.370000   0.015728   0.002143
 0.375000   0.015740   0.002427
 0.380000   0.015753   0.002707
 0.385000   0.015767   0.002976
 0.390000   0.015782   0.003233
 0.395000   0.015799   0.003475
 0.400000   0.015817   0.003699
 0.405000   0.015836   0.003899
 0.410000   0.015856   0.004074
 0.415000   0.015877   0.004225
 0.420000   0.015898   0.004353
 0.425000   0.015920   0.004457
 0.430000   0.015943   0.004538
 0.435000   0.015966   0.004595
 0.440000   0.015989   0.004635
 0.445000   0.016012   0.004667
 0.450000   0.016035   0.004693
 0.455000   0.016059   0.004710
 0.460000   0.016083   0.004719
 0.465000   0.016106   0.004720
 0.470000   0.016130   0.004708
 0.475000   0.016153   0.004675
 0.480000   0.016177   0.004617
 0.485000   0.016199   0.004534
 0.490000   0.016222   0.004424
 0.495000   0.016244   0.004287
 0.500000   0.016265   0.004120
 0.505000   0.016285   0.003924
 0.510000   0.016304   0.003700
 0.515000   0.016322   0.003449
 0.520000   0.016338   0.003172
 0.525000   0.016354   0.002871
 0.530000   0.016367   0.002548
 0.535000   0.016379   0.002205
 0.540000   0.016389   0.001844
 0.545000   0.016398   0.001466
 0.550000   0.016404   0.001070
 0.555000   0.016408   0.000657
 0.560000   0.016410   0.000228
 0.565000   0.016411   -0.000218
 0.570000   0.016408   -0.000680
 0.575000   0.016404   -0.001160
 0.580000   0.016397   -0.001656
 0.585000   0.016387   -0.002166
 0.590000   0.016375   -0.002688
 0.595000   0.016360   -0.003219
 0.600000   0.016343   -0.003756
 0.605000   0.016323   -0.004298
 0.610000   0.016300   -0.004843
 0.615000   0.016274   -0.005392
 0.620000   0.016246   -0.005948
 0.625000   0.016215   -0.006515
 0.630000   0.016181   -0.007093
 0.635000   0.016144   -0.007682
 0.640000   0.016104   -0.008281
 0.645000   0.016061   -0.008890
 0.650000   0.016015   -0.009512
 0.655000   0.015966   -0.010139
 0.660000   0.015914   -0.010757
 0.665000   0.015858   -0.011368
 0.670000   0.015800   -0.011985
 0.675000   0.015739   -0.012629
 0.680000   0.015674   -0.013368
 0.685000   0.015605   -0.014234
 0.690000   0.015531   -0.015189
 0.695000   0.015453   -0.016215
 0.700000   0.015369   -0.017304
 0.705000   0.015280   -0.018434
 0.710000   0.015185   -0.019626
 0.715000   0.015084   -0.020825
 0.720000   0.014977   -0.021914
 0.725000   0.014865   -0.022877
 0.730000   0.014748   -0.023702
 0.735000   0.014628   -0.024353
 0.740000   0.014504   -0.024800
 0.745000   0.014380   -0.024985
 0.750000   0.014255   -0.024875
 0.755000   0.014131   -0.024506
 0.760000   0.014009   -0.023910
 0.765000   0.013892   -0.023122
 0.770000   0.013778   -0.022157
 0.775000   0.013670   -0.021058
 0.780000   0.013568   -0.019944
 0.785000   0.013471   -0.018867
 0.790000   0.013379   -0.017818
 0.795000   0.013292   -0.016819
 0.800000   0.013211   -0.015880
 0.805000   0.013134   -0.015027
 0.810000   0.013061   -0.014282
 0.815000   0.012991   -0.013604
 0.820000   0.012924   -0.012939
 0.825000   0.012861   -0.012268
 0.830000   0.012802   -0.011584
 0.835000   0.012746   -0.010888
 0.840000   0.012693   -0.010204
 0.845000   0.012644   -0.009554
 0.850000   0.012597   -0.008938
 0.855000   0.012554   -0.008362
 0.860000   0.012514   -0.007835
 0.865000   0.012476   -0.007377
 0.870000   0.012440   -0.007021
 0.875000   0.012406   -0.006771
 0.880000   0.012372   -0.006611
 0.885000   0.012340   -0.006544
 0.890000   0.012307   -0.006582
 0.895000   0.012274   -0.006814
 0.900000   0.012239   -0.007260
 0.905000   0.012201   -0.007918
 0.910000   0.012160   -0.008917
 0.915000   0.012112   -0.010434
 0.920000   0.012055   -0.012746
 0.925000   0.011984   -0.016570
 0.930000   0.011889   -0.022462
 0.935000   0.011760   -0.031115
 0.940000   0.011578   -0.043899
 0.945000   0.011321   -0.062157
 0.950000   0.010957   -0.086859
 0.955000   0.010452   -0.119120
 0.960000   0.009766   -0.155951
 0.965000   0.008893   -0.190385
 0.970000   0.007862   -0.215525
 0.975000   0.006738   -0.225020
 0.980000   0.005612   -0.216323
 0.985000   0.004574   -0.192409
 0.990000   0.003687   -0.159534
 0.995000   0.002979   -0.124974
 1.000000   0.002438   -0.091522
201 psinorm vtor1(km/s) dvtor1/dpsiN
 0.000000   106.521040   530.405297
 0.005000   108.578225   292.468851
 0.010000   109.445729   152.625270
 0.015000   110.104478   120.344379
 0.020000   110.649172   101.450359
 0.025000   111.118982   88.996933
 0.030000   111.539142   80.057751
 0.035000   111.919559   72.267882
 0.040000   112.261820   65.521988
 0.045000   112.574779   59.953979
 0.050000   112.861360   54.791071
 0.055000   113.122690   49.824431
 0.060000   113.359605   45.260232
 0.065000   113.575292   41.112895
 0.070000   113.770734   37.035790
 0.075000   113.945650   33.125637
 0.080000   114.101990   29.481044
 0.085000   114.240460   25.972731
 0.090000   114.361717   22.474413
 0.095000   114.465205   19.091876
 0.100000   114.552636   15.930065
 0.105000   114.624505   12.810190
 0.110000   114.680738   9.669159
 0.115000   114.721197   6.630954
 0.120000   114.747047   3.687590
 0.125000   114.758073   0.713672
 0.130000   114.754184   -2.123362
 0.135000   114.736839   -4.812779
 0.140000   114.706056   -7.507808
 0.145000   114.661761   -10.188905
 0.150000   114.604167   -12.818533
 0.155000   114.533576   -15.435454
 0.160000   114.449813   -18.130730
 0.165000   114.352268   -20.873903
 0.170000   114.241074   -23.622058
 0.175000   114.116048   -26.412321
 0.180000   113.976951   -29.258027
 0.185000   113.823468   -32.129739
 0.190000   113.655653   -35.017681
 0.195000   113.473291   -37.923056
 0.200000   113.276423   -40.735650
 0.205000   113.065934   -43.369589
 0.210000   112.842727   -45.823550
 0.215000   112.607699   -48.101714
 0.220000   112.361710   -50.133990
 0.225000   112.106359   -51.828497
 0.230000   111.843425   -53.306376
 0.235000   111.573295   -54.635770
 0.240000   111.297067   -55.735056
 0.245000   111.015945   -56.596496
 0.250000   110.731102   -57.203598
 0.255000   110.443909   -57.433740
 0.260000   110.156764   -57.503587
 0.265000   109.868873   -57.631302
 0.270000   109.580451   -57.738618
 0.275000   109.291486   -57.850228
 0.280000   109.001949   -57.998814
 0.285000   108.711498   -58.247361
 0.290000   108.419476   -58.744303
 0.295000   108.124055   -59.521320
 0.300000   107.824262   -60.480763
 0.305000   107.519248   -61.579880
 0.310000   107.208464   -62.722813
 0.315000   106.892020   -63.872304
 0.320000   106.569741   -64.950304
 0.325000   106.242517   -65.885974
 0.330000   105.910881   -66.713240
 0.335000   105.575384   -67.420016
 0.340000   105.236681   -68.000379
 0.345000   104.895380   -68.430298
 0.350000   104.552378   -68.688845
 0.355000   104.208492   -68.793965
 0.360000   103.864438   -68.750479
 0.365000   103.520987   -68.555923
 0.370000   103.178879   -68.223272
 0.375000   102.838754   -67.703317
 0.380000   102.501846   -66.994556
 0.385000   102.168809   -66.172495
 0.390000   101.840121   -65.259233
 0.395000   101.516216   -64.256952
 0.400000   101.197551   -63.170052
 0.405000   100.884516   -61.969492
 0.410000   100.577856   -60.858830
 0.415000   100.275928   -60.222943
 0.420000   99.975627   -60.289337
 0.425000   99.673034   -61.188095
 0.430000   99.363746   -62.959588
 0.435000   99.043438   -65.848747
 0.440000   98.705258   -69.791691
 0.445000   98.345522   -74.095278
 0.450000   97.964306   -78.491815
 0.455000   97.560603   -83.022487
 0.460000   97.134081   -87.549470
 0.465000   96.685109   -92.206573
 0.470000   96.212015   -96.783820
 0.475000   95.717270   -100.419728
 0.480000   95.207818   -102.968400
 0.485000   94.687586   -104.693182
 0.490000   94.160886   -105.540284
 0.495000   93.632184   -105.520224
 0.500000   93.105684   -104.553460
 0.505000   92.586649   -102.687672
 0.510000   92.078807   -100.320557
 0.515000   91.583443   -97.758763
 0.520000   91.101219   -95.116583
 0.525000   90.632278   -92.439370
 0.530000   90.176826   -89.701418
 0.535000   89.735263   -87.098276
 0.540000   89.305843   -84.786452
 0.545000   88.887399   -82.735663
 0.550000   88.478486   -80.998113
 0.555000   88.077418   -79.585188
 0.560000   87.682634   -78.446138
 0.565000   87.292956   -77.786560
 0.570000   86.904769   -77.729797
 0.575000   86.515658   -78.169698
 0.580000   86.123072   -79.132743
 0.585000   85.724331   -80.640574
 0.590000   85.316666   -82.709175
 0.595000   84.897239   -85.230447
 0.600000   84.464362   -88.009576
 0.605000   84.017143   -90.947389
 0.610000   83.554888   -93.993153
 0.615000   83.077212   -97.101484
 0.620000   82.583873   -100.106091
 0.625000   82.076151   -103.063426
 0.630000   81.553239   -106.102313
 0.635000   81.015128   -109.130141
 0.640000   80.461937   -112.129542
 0.645000   79.893832   -115.102448
 0.650000   79.310913   -117.973160
 0.655000   78.714101   -121.091428
 0.660000   78.099998   -124.874655
 0.665000   77.465354   -129.324637
 0.670000   76.806752   -134.498909
 0.675000   76.120365   -140.447256
 0.680000   75.402279   -147.429124
 0.685000   74.646074   -154.970605
 0.690000   73.852573   -162.172217
 0.695000   73.024352   -168.940468
 0.700000   72.163169   -175.340922
 0.705000   71.270943   -181.342553
 0.710000   70.349743   -187.040482
 0.715000   69.400538   -192.181844
 0.720000   68.427925   -196.350367
 0.725000   67.437034   -199.536803
 0.730000   66.432557   -201.739141
 0.735000   65.419643   -202.892820
 0.740000   64.403629   -203.030999
 0.745000   63.389333   -202.471385
 0.750000   62.378915   -201.645698
 0.755000   61.372876   -200.731399
 0.760000   60.371601   -199.708274
 0.765000   59.375793   -198.472956
 0.770000   58.386871   -197.073256
 0.775000   57.405060   -195.195681
 0.780000   56.434914   -191.877979
 0.785000   55.486281   -186.907892
 0.790000   54.565835   -180.680075
 0.795000   53.679480   -173.409126
 0.800000   52.831744   -165.411885
 0.805000   52.025361   -157.109889
 0.810000   51.260645   -149.021815
 0.815000   50.535143   -141.606992
 0.820000   49.844575   -135.172874
 0.825000   49.183414   -129.952461
 0.830000   48.545051   -126.164582
 0.835000   47.921768   -123.950491
 0.840000   47.305546   -123.448834
 0.845000   46.687280   -125.090118
 0.850000   46.054645   -129.415436
 0.855000   45.393126   -136.857640
 0.860000   44.686068   -147.908016
 0.865000   43.914045   -163.603089
 0.870000   43.050037   -183.884779
 0.875000   42.075198   -208.379073
 0.880000   40.966247   -237.529578
 0.885000   39.699902   -271.188229
 0.890000   38.254364   -308.896739
 0.895000   36.610935   -351.101084
 0.900000   34.743353   -394.916857
 0.905000   32.661766   -436.748250
 0.910000   30.375871   -475.220790
 0.915000   27.909558   -507.344536
 0.920000   25.302426   -529.970628
 0.925000   22.609852   -540.166234
 0.930000   19.900763   -533.982471
 0.935000   17.270027   -510.176629
 0.940000   14.798997   -471.315505
 0.945000   12.556872   -420.446157
 0.950000   10.594535   -361.645642
 0.955000   8.940416   -298.566091
 0.960000   7.608875   -236.644579
 0.965000   6.573970   -180.978264
 0.970000   5.799092   -133.237253
 0.975000   5.241597   -94.258609
 0.980000   4.856506   -64.079961
 0.985000   4.600798   -41.911890
 0.990000   4.437387   -26.853989
 0.995000   4.332258   -17.785805
 1.000000   4.259529   -11.305769
201 psinorm vpol1(km/s) dvpol1/dpsiN
 0.000000   -0.000043   4.742188
 0.005000   0.026840   6.010937
 0.010000   0.060066   7.270313
 0.015000   0.099543   8.472656
 0.020000   0.144793   9.546875
 0.025000   0.195012   10.425000
 0.030000   0.249043   11.032422
 0.035000   0.305336   11.422656
 0.040000   0.363270   11.696875
 0.045000   0.422305   11.893359
 0.050000   0.482203   12.073437
 0.055000   0.543039   12.314453
 0.060000   0.605348   12.676953
 0.065000   0.669809   13.118750
 0.070000   0.736535   13.555469
 0.075000   0.805363   13.945312
 0.080000   0.875988   14.264453
 0.085000   0.948008   14.463672
 0.090000   1.020625   14.479687
 0.095000   1.092805   14.338281
 0.100000   1.164008   14.087109
 0.105000   1.233676   13.744531
 0.110000   1.301453   13.351562
 0.115000   1.367191   12.944531
 0.120000   1.430898   12.600000
 0.125000   1.493191   12.375000
 0.130000   1.554648   12.247266
 0.135000   1.615664   12.174609
 0.140000   1.676395   12.121484
 0.145000   1.736879   12.062109
 0.150000   1.797016   11.953125
 0.155000   1.856410   11.766016
 0.160000   1.914676   11.507422
 0.165000   1.971484   11.169141
 0.170000   2.026367   10.746484
 0.175000   2.078949   10.212500
 0.180000   2.128492   9.565625
 0.185000   2.174605   8.860156
 0.190000   2.217094   8.119531
 0.195000   2.255801   7.361719
 0.200000   2.290711   6.603125
 0.205000   2.321832   5.869531
 0.210000   2.349406   5.210156
 0.215000   2.373934   4.621094
 0.220000   2.395617   4.060547
 0.225000   2.414539   3.486719
 0.230000   2.430484   2.866016
 0.235000   2.443199   2.178125
 0.240000   2.452266   1.399219
 0.245000   2.457191   0.523438
 0.250000   2.457500   -0.435547
 0.255000   2.452836   -1.459766
 0.260000   2.442902   -2.524219
 0.265000   2.427594   -3.605469
 0.270000   2.406848   -4.691797
 0.275000   2.380676   -5.768750
 0.280000   2.349160   -6.816016
 0.285000   2.312516   -7.814844
 0.290000   2.271012   -8.744922
 0.295000   2.225066   -9.599219
 0.300000   2.175020   -10.403125
 0.305000   2.121035   -11.189062
 0.310000   2.063129   -11.962891
 0.315000   2.001406   -12.739063
 0.320000   1.935738   -13.532812
 0.325000   1.866078   -14.334375
 0.330000   1.792395   -15.088281
 0.335000   1.715195   -15.733984
 0.340000   1.635055   -16.266211
 0.345000   1.552533   -16.685547
 0.350000   1.468199   -16.941797
 0.355000   1.383115   -17.084570
 0.360000   1.297354   -17.219531
 0.365000   1.210920   -17.353320
 0.370000   1.123820   -17.497266
 0.375000   1.035947   -17.680664
 0.380000   0.947014   -17.939844
 0.385000   0.856549   -18.280664
 0.390000   0.764207   -18.650586
 0.395000   0.670043   -19.013086
 0.400000   0.574076   -19.352344
 0.405000   0.476520   -19.665625
 0.410000   0.377420   -20.088672
 0.415000   0.275633   -20.923633
 0.420000   0.168184   -22.454492
 0.425000   0.051088   -24.794141
 0.430000   -0.079758   -27.952344
 0.435000   -0.228436   -31.987695
 0.440000   -0.399635   -37.139062
 0.445000   -0.599826   -42.586523
 0.450000   -0.825500   -47.574023
 0.455000   -1.075566   -52.175195
 0.460000   -1.347252   -56.059961
 0.465000   -1.636166   -58.938477
 0.470000   -1.936637   -60.289453
 0.475000   -2.239061   -59.670898
 0.480000   -2.533346   -57.302539
 0.485000   -2.812086   -53.582812
 0.490000   -3.069174   -48.811719
 0.495000   -3.300203   -43.105273
 0.500000   -3.500227   -36.860156
 0.505000   -3.668805   -31.054102
 0.510000   -3.810768   -26.060742
 0.515000   -3.929412   -21.788086
 0.520000   -4.028648   -18.320312
 0.525000   -4.112615   -15.684570
 0.530000   -4.185494   -14.042187
 0.535000   -4.253037   -13.193359
 0.540000   -4.317428   -12.626367
 0.545000   -4.379301   -12.130859
 0.550000   -4.438736   -11.615039
 0.555000   -4.495451   -11.058789
 0.560000   -4.549324   -10.402930
 0.565000   -4.599480   -9.584570
 0.570000   -4.645170   -8.641602
 0.575000   -4.685896   -7.603711
 0.580000   -4.721207   -6.494336
 0.585000   -4.750840   -5.337402
 0.590000   -4.774581   -4.171973
 0.595000   -4.792560   -3.050195
 0.600000   -4.805083   -2.005566
 0.605000   -4.812615   -1.063965
 0.610000   -4.815723   -0.234180
 0.615000   -4.814957   0.475684
 0.620000   -4.810966   1.067188
 0.625000   -4.804285   1.566504
 0.630000   -4.795301   1.992871
 0.635000   -4.784356   2.366504
 0.640000   -4.771636   2.705566
 0.645000   -4.757301   3.019336
 0.650000   -4.741442   3.314453
 0.655000   -4.724156   3.578516
 0.660000   -4.705657   3.807129
 0.665000   -4.686085   4.007422
 0.670000   -4.665583   4.182617
 0.675000   -4.644259   4.371289
 0.680000   -4.621870   4.609961
 0.685000   -4.598159   4.898633
 0.690000   -4.572884   5.224658
 0.695000   -4.545913   5.564160
 0.700000   -4.517242   5.916211
 0.705000   -4.486750   6.225830
 0.710000   -4.454984   6.372314
 0.715000   -4.423027   6.308398
 0.720000   -4.391900   6.026514
 0.725000   -4.362762   5.510107
 0.730000   -4.336799   4.765356
 0.735000   -4.315109   3.809375
 0.740000   -4.298705   2.713403
 0.745000   -4.287975   1.570947
 0.750000   -4.282996   0.454492
 0.755000   -4.283430   -0.568054
 0.760000   -4.288676   -1.443408
 0.765000   -4.297864   -2.186694
 0.770000   -4.310543   -2.884888
 0.775000   -4.326713   -3.627112
 0.780000   -4.346814   -4.498755
 0.785000   -4.371700   -5.577783
 0.790000   -4.402592   -7.024097
 0.795000   -4.441941   -8.779272
 0.800000   -4.490385   -10.639038
 0.805000   -4.548332   -12.506934
 0.810000   -4.615454   -14.218066
 0.815000   -4.690512   -15.585400
 0.820000   -4.771308   -16.394971
 0.825000   -4.854462   -16.449951
 0.830000   -4.935808   -15.770703
 0.835000   -5.012169   -14.525781
 0.840000   -5.081065   -12.866016
 0.845000   -5.140829   -10.940723
 0.850000   -5.190473   -8.885840
 0.855000   -5.229687   -6.867578
 0.860000   -5.259148   -4.948438
 0.865000   -5.279172   -3.091309
 0.870000   -5.290062   -1.275195
 0.875000   -5.291924   0.544824
 0.880000   -5.284613   2.432031
 0.885000   -5.267604   4.406641
 0.890000   -5.240547   6.408398
 0.895000   -5.203520   8.360742
 0.900000   -5.156939   10.196680
 0.905000   -5.101553   11.871875
 0.910000   -5.038221   13.403711
 0.915000   -4.967516   14.834375
 0.920000   -4.889877   16.271680
 0.925000   -4.804799   17.931641
 0.930000   -4.710561   20.002930
 0.935000   -4.604770   22.816406
 0.940000   -4.482396   25.487500
 0.945000   -4.349895   25.551953
 0.950000   -4.226877   20.707813
 0.955000   -4.142816   9.915820
 0.960000   -4.127719   -3.819922
 0.965000   -4.181016   -9.312109
 0.970000   -4.220840   14.266797
 0.975000   -4.038348   86.709375
 0.980000   -3.353746   206.250000
 0.985000   -1.975848   335.978125
 0.990000   0.006035   413.676953
 0.995000   2.160922   386.490234
 1.000000   3.870938   297.516016
3 N Z A of ION SPECIES
 6.000000   6.000000   12.010700
 1.000000   1.000000   2.000000
 1.000000   1.000000   2.000000
