201 psinorm ne(10^20/m^3) dne/dpsiN
 0.000000   0.541023   -0.627154
 0.005000   0.537904   -0.620704
 0.010000   0.534816   -0.614288
 0.015000   0.531761   -0.607943
 0.020000   0.528737   -0.601665
 0.025000   0.525744   -0.595456
 0.030000   0.522782   -0.589313
 0.035000   0.519851   -0.583235
 0.040000   0.516950   -0.577223
 0.045000   0.514079   -0.571275
 0.050000   0.511237   -0.565391
 0.055000   0.508425   -0.559569
 0.060000   0.505642   -0.553808
 0.065000   0.502887   -0.548109
 0.070000   0.500160   -0.542470
 0.075000   0.497462   -0.536890
 0.080000   0.494792   -0.531368
 0.085000   0.492148   -0.525905
 0.090000   0.489533   -0.520498
 0.095000   0.486944   -0.515148
 0.100000   0.484381   -0.509854
 0.105000   0.481845   -0.504614
 0.110000   0.479335   -0.499429
 0.115000   0.476851   -0.494297
 0.120000   0.474392   -0.489218
 0.125000   0.471958   -0.484191
 0.130000   0.469550   -0.479216
 0.135000   0.467166   -0.474291
 0.140000   0.464807   -0.469417
 0.145000   0.462472   -0.464592
 0.150000   0.460161   -0.459816
 0.155000   0.457874   -0.455089
 0.160000   0.455610   -0.450409
 0.165000   0.453370   -0.445776
 0.170000   0.451153   -0.441189
 0.175000   0.448958   -0.436648
 0.180000   0.446786   -0.432153
 0.185000   0.444636   -0.427702
 0.190000   0.442509   -0.423295
 0.195000   0.440404   -0.418932
 0.200000   0.438320   -0.414612
 0.205000   0.436257   -0.410334
 0.210000   0.434216   -0.406099
 0.215000   0.432196   -0.401904
 0.220000   0.430197   -0.397751
 0.225000   0.428219   -0.393637
 0.230000   0.426261   -0.389564
 0.235000   0.424323   -0.385530
 0.240000   0.422406   -0.381535
 0.245000   0.420508   -0.377578
 0.250000   0.418630   -0.373658
 0.255000   0.416771   -0.369777
 0.260000   0.414932   -0.365932
 0.265000   0.413112   -0.362123
 0.270000   0.411311   -0.358350
 0.275000   0.409529   -0.354613
 0.280000   0.407765   -0.350911
 0.285000   0.406019   -0.347243
 0.290000   0.404292   -0.343610
 0.295000   0.402583   -0.340010
 0.300000   0.400892   -0.336443
 0.305000   0.399219   -0.332910
 0.310000   0.397563   -0.329409
 0.315000   0.395925   -0.325939
 0.320000   0.394304   -0.322502
 0.325000   0.392700   -0.319095
 0.330000   0.391113   -0.315720
 0.335000   0.389543   -0.312374
 0.340000   0.387989   -0.309059
 0.345000   0.386452   -0.305773
 0.350000   0.384931   -0.302517
 0.355000   0.383427   -0.299290
 0.360000   0.381938   -0.296091
 0.365000   0.380466   -0.292920
 0.370000   0.379009   -0.289777
 0.375000   0.377568   -0.286661
 0.380000   0.376143   -0.283573
 0.385000   0.374732   -0.280511
 0.390000   0.373338   -0.277475
 0.395000   0.371958   -0.274466
 0.400000   0.370593   -0.271482
 0.405000   0.369243   -0.268524
 0.410000   0.367908   -0.265590
 0.415000   0.366587   -0.262682
 0.420000   0.365281   -0.259797
 0.425000   0.363989   -0.256937
 0.430000   0.362711   -0.254101
 0.435000   0.361448   -0.251288
 0.440000   0.360199   -0.248498
 0.445000   0.358963   -0.245731
 0.450000   0.357741   -0.242986
 0.455000   0.356533   -0.240264
 0.460000   0.355339   -0.237564
 0.465000   0.354158   -0.234885
 0.470000   0.352990   -0.232228
 0.475000   0.351835   -0.229592
 0.480000   0.350694   -0.226976
 0.485000   0.349565   -0.224382
 0.490000   0.348450   -0.221807
 0.495000   0.347347   -0.219253
 0.500000   0.346257   -0.216718
 0.505000   0.345180   -0.214202
 0.510000   0.344115   -0.211706
 0.515000   0.343063   -0.209229
 0.520000   0.342023   -0.206770
 0.525000   0.340995   -0.204330
 0.530000   0.339980   -0.201908
 0.535000   0.338976   -0.199504
 0.540000   0.337985   -0.197118
 0.545000   0.337005   -0.194749
 0.550000   0.336037   -0.192398
 0.555000   0.335081   -0.190063
 0.560000   0.334137   -0.187745
 0.565000   0.333204   -0.185443
 0.570000   0.332282   -0.183158
 0.575000   0.331372   -0.180889
 0.580000   0.330473   -0.178635
 0.585000   0.329586   -0.176398
 0.590000   0.328709   -0.174175
 0.595000   0.327844   -0.171968
 0.600000   0.326990   -0.169775
 0.605000   0.326146   -0.167597
 0.610000   0.325314   -0.165434
 0.615000   0.324492   -0.163284
 0.620000   0.323681   -0.161149
 0.625000   0.322880   -0.159027
 0.630000   0.322091   -0.156919
 0.635000   0.321311   -0.154824
 0.640000   0.320542   -0.152742
 0.645000   0.319784   -0.150673
 0.650000   0.319036   -0.148616
 0.655000   0.318298   -0.146570
 0.660000   0.317570   -0.144537
 0.665000   0.316852   -0.142514
 0.670000   0.316145   -0.140503
 0.675000   0.315447   -0.138501
 0.680000   0.314760   -0.136509
 0.685000   0.314082   -0.134526
 0.690000   0.313415   -0.132551
 0.695000   0.312757   -0.130583
 0.700000   0.312109   -0.128620
 0.705000   0.311471   -0.126662
 0.710000   0.310842   -0.124707
 0.715000   0.310223   -0.122752
 0.720000   0.309615   -0.120794
 0.725000   0.309016   -0.118832
 0.730000   0.308426   -0.116860
 0.735000   0.307847   -0.114874
 0.740000   0.307278   -0.112869
 0.745000   0.306718   -0.110837
 0.750000   0.306169   -0.108770
 0.755000   0.305631   -0.106656
 0.760000   0.305103   -0.104484
 0.765000   0.304586   -0.102238
 0.770000   0.304080   -0.099899
 0.775000   0.303587   -0.097443
 0.780000   0.303106   -0.094844
 0.785000   0.302638   -0.092069
 0.790000   0.302185   -0.089077
 0.795000   0.301747   -0.085821
 0.800000   0.301327   -0.082246
 0.805000   0.300925   -0.078285
 0.810000   0.300544   -0.073862
 0.815000   0.300186   -0.068891
 0.820000   0.299855   -0.063269
 0.825000   0.299554   -0.056888
 0.830000   0.299286   -0.049627
 0.835000   0.299057   -0.041360
 0.840000   0.298873   -0.031967
 0.845000   0.298738   -0.021337
 0.850000   0.298659   -0.009399
 0.855000   0.298644   0.003855
 0.860000   0.298698   0.018323
 0.865000   0.298827   0.033724
 0.870000   0.299035   0.049502
 0.875000   0.299322   0.064685
 0.880000   0.299682   0.077695
 0.885000   0.300099   0.086086
 0.890000   0.300543   0.086200
 0.895000   0.300961   0.072752
 0.900000   0.301270   0.038357
 0.905000   0.301345   -0.026892
 0.910000   0.301001   -0.135623
 0.915000   0.299988   -0.302777
 0.920000   0.297974   -0.544081
 0.925000   0.294548   -0.872739
 0.930000   0.289246   -1.293954
 0.935000   0.281608   -1.797787
 0.940000   0.271268   -2.352640
 0.945000   0.258082   -2.903571
 0.950000   0.242233   -3.379811
 0.955000   0.224283   -3.712267
 0.960000   0.205110   -3.855034
 0.965000   0.185733   -3.800167
 0.970000   0.167108   -3.577607
 0.975000   0.149957   -3.241209
 0.980000   0.134696   -2.849717
 0.985000   0.121460   -2.452014
 0.990000   0.110176   -2.080711
 0.995000   0.100653   -1.752737
 1.000000   0.092649   -1.448903
201 psinorm te(KeV) dte/dpsiN
 0.000000   4.235025   -4.314161
 0.005000   4.213460   -4.311678
 0.010000   4.191908   -4.309102
 0.015000   4.170369   -4.306339
 0.020000   4.148845   -4.303391
 0.025000   4.127335   -4.300258
 0.030000   4.105842   -4.296942
 0.035000   4.084366   -4.293445
 0.040000   4.062908   -4.289767
 0.045000   4.041468   -4.285910
 0.050000   4.020048   -4.281874
 0.055000   3.998649   -4.277661
 0.060000   3.977272   -4.273273
 0.065000   3.955917   -4.268710
 0.070000   3.934585   -4.263974
 0.075000   3.913277   -4.259066
 0.080000   3.891994   -4.253987
 0.085000   3.870737   -4.248738
 0.090000   3.849507   -4.243322
 0.095000   3.828304   -4.237738
 0.100000   3.807129   -4.231990
 0.105000   3.785984   -4.226076
 0.110000   3.764869   -4.220000
 0.115000   3.743784   -4.213763
 0.120000   3.722731   -4.207365
 0.125000   3.701710   -4.200808
 0.130000   3.680723   -4.194094
 0.135000   3.659769   -4.187223
 0.140000   3.638851   -4.180198
 0.145000   3.617967   -4.173019
 0.150000   3.597120   -4.165689
 0.155000   3.576311   -4.158207
 0.160000   3.555538   -4.150576
 0.165000   3.534805   -4.142798
 0.170000   3.514110   -4.134873
 0.175000   3.493456   -4.126803
 0.180000   3.472842   -4.118589
 0.185000   3.452270   -4.110233
 0.190000   3.431740   -4.101736
 0.195000   3.411253   -4.093099
 0.200000   3.390809   -4.084325
 0.205000   3.370410   -4.075414
 0.210000   3.350055   -4.066368
 0.215000   3.329746   -4.057189
 0.220000   3.309483   -4.047877
 0.225000   3.289267   -4.038435
 0.230000   3.269099   -4.028863
 0.235000   3.248978   -4.019163
 0.240000   3.228907   -4.009338
 0.245000   3.208885   -3.999387
 0.250000   3.188913   -3.989313
 0.255000   3.168992   -3.979116
 0.260000   3.149122   -3.968800
 0.265000   3.129304   -3.958364
 0.270000   3.109538   -3.947811
 0.275000   3.089826   -3.937141
 0.280000   3.070167   -3.926357
 0.285000   3.050562   -3.915460
 0.290000   3.031012   -3.904451
 0.295000   3.011518   -3.893332
 0.300000   2.992079   -3.882105
 0.305000   2.972697   -3.870770
 0.310000   2.953371   -3.859330
 0.315000   2.934103   -3.847785
 0.320000   2.914893   -3.836137
 0.325000   2.895742   -3.824389
 0.330000   2.876650   -3.812540
 0.335000   2.857617   -3.800593
 0.340000   2.838644   -3.788550
 0.345000   2.819731   -3.776411
 0.350000   2.800880   -3.764178
 0.355000   2.782089   -3.751852
 0.360000   2.763361   -3.739436
 0.365000   2.744695   -3.726931
 0.370000   2.726092   -3.714337
 0.375000   2.707552   -3.701657
 0.380000   2.689075   -3.688892
 0.385000   2.670663   -3.676043
 0.390000   2.652315   -3.663112
 0.395000   2.634032   -3.650101
 0.400000   2.615814   -3.637010
 0.405000   2.597661   -3.623842
 0.410000   2.579575   -3.610597
 0.415000   2.561555   -3.597278
 0.420000   2.543603   -3.583885
 0.425000   2.525717   -3.570420
 0.430000   2.507898   -3.556885
 0.435000   2.490148   -3.543281
 0.440000   2.472465   -3.529609
 0.445000   2.454852   -3.515871
 0.450000   2.437307   -3.502068
 0.455000   2.419831   -3.488202
 0.460000   2.402425   -3.474274
 0.465000   2.385088   -3.460286
 0.470000   2.367822   -3.446238
 0.475000   2.350626   -3.432133
 0.480000   2.333501   -3.417971
 0.485000   2.316446   -3.403755
 0.490000   2.299463   -3.389485
 0.495000   2.282551   -3.375163
 0.500000   2.265711   -3.360790
 0.505000   2.248943   -3.346368
 0.510000   2.232248   -3.331897
 0.515000   2.215624   -3.317380
 0.520000   2.199074   -3.302818
 0.525000   2.182596   -3.288212
 0.530000   2.166192   -3.273563
 0.535000   2.149861   -3.258873
 0.540000   2.133603   -3.244143
 0.545000   2.117419   -3.229375
 0.550000   2.101309   -3.214569
 0.555000   2.085274   -3.199727
 0.560000   2.069312   -3.184850
 0.565000   2.053425   -3.169940
 0.570000   2.037613   -3.154998
 0.575000   2.021875   -3.140026
 0.580000   2.006212   -3.125023
 0.585000   1.990625   -3.109993
 0.590000   1.975112   -3.094935
 0.595000   1.959675   -3.079852
 0.600000   1.944314   -3.064744
 0.605000   1.929028   -3.049613
 0.610000   1.913818   -3.034460
 0.615000   1.898683   -3.019286
 0.620000   1.883625   -3.004093
 0.625000   1.868642   -2.988881
 0.630000   1.853736   -2.973652
 0.635000   1.838906   -2.958407
 0.640000   1.824152   -2.943148
 0.645000   1.809474   -2.927874
 0.650000   1.794873   -2.912589
 0.655000   1.780349   -2.897292
 0.660000   1.765900   -2.881984
 0.665000   1.751529   -2.866668
 0.670000   1.737234   -2.851344
 0.675000   1.723015   -2.836013
 0.680000   1.708874   -2.820677
 0.685000   1.694809   -2.805336
 0.690000   1.680820   -2.789991
 0.695000   1.666909   -2.774644
 0.700000   1.653074   -2.759295
 0.705000   1.639316   -2.743946
 0.710000   1.625634   -2.728597
 0.715000   1.612030   -2.713250
 0.720000   1.598502   -2.697904
 0.725000   1.585051   -2.682562
 0.730000   1.571676   -2.667223
 0.735000   1.558378   -2.651889
 0.740000   1.545157   -2.636559
 0.745000   1.532013   -2.621233
 0.750000   1.518945   -2.605913
 0.755000   1.505954   -2.590596
 0.760000   1.493039   -2.575283
 0.765000   1.480201   -2.559972
 0.770000   1.467439   -2.544662
 0.775000   1.454754   -2.529349
 0.780000   1.442146   -2.514029
 0.785000   1.429614   -2.498699
 0.790000   1.417159   -2.483349
 0.795000   1.404780   -2.467974
 0.800000   1.392479   -2.452560
 0.805000   1.380255   -2.437096
 0.810000   1.368108   -2.421564
 0.815000   1.356039   -2.405946
 0.820000   1.344049   -2.390219
 0.825000   1.332137   -2.374360
 0.830000   1.320305   -2.358342
 0.835000   1.308554   -2.342145
 0.840000   1.296884   -2.325756
 0.845000   1.285296   -2.309180
 0.850000   1.273792   -2.292462
 0.855000   1.262371   -2.275706
 0.860000   1.251035   -2.259123
 0.865000   1.239780   -2.243097
 0.870000   1.228604   -2.228286
 0.875000   1.217497   -2.215779
 0.880000   1.206446   -2.207331
 0.885000   1.195424   -2.205719
 0.890000   1.184389   -2.215269
 0.895000   1.173271   -2.242634
 0.900000   1.161962   -2.297929
 0.905000   1.150292   -2.396351
 0.910000   1.137999   -2.560442
 0.915000   1.124688   -2.823126
 0.920000   1.109768   -3.231488
 0.925000   1.092373   -3.850888
 0.930000   1.071259   -4.767988
 0.935000   1.044693   -6.089343
 0.940000   1.010365   -7.928899
 0.945000   0.965404   -10.373645
 0.950000   0.906629   -13.415479
 0.955000   0.831249   -16.849133
 0.960000   0.738138   -20.175130
 0.965000   0.629498   -22.609641
 0.970000   0.512041   -23.322163
 0.975000   0.396276   -21.877933
 0.980000   0.293262   -18.583941
 0.985000   0.210437   -14.376063
 0.990000   0.149501   -10.288371
 0.995000   0.107553   -6.969358
 1.000000   0.079808   -4.128796
201 psinorm ni(10^20/m^3) dni/dpsiN
 0.000000   0.353899   -0.752296
 0.005000   0.350388   -0.652057
 0.010000   0.347379   -0.567281
 0.015000   0.344715   -0.504217
 0.020000   0.342336   -0.450548
 0.025000   0.340210   -0.403155
 0.030000   0.338305   -0.360999
 0.035000   0.336600   -0.324442
 0.040000   0.335060   -0.293686
 0.045000   0.333663   -0.267583
 0.050000   0.332385   -0.245604
 0.055000   0.331207   -0.226798
 0.060000   0.330117   -0.211083
 0.065000   0.329096   -0.197987
 0.070000   0.328137   -0.187261
 0.075000   0.327224   -0.178892
 0.080000   0.326348   -0.172373
 0.085000   0.325500   -0.167710
 0.090000   0.324671   -0.164580
 0.095000   0.323854   -0.162802
 0.100000   0.323043   -0.162456
 0.105000   0.322230   -0.163131
 0.110000   0.321411   -0.164458
 0.115000   0.320585   -0.166468
 0.120000   0.319747   -0.169071
 0.125000   0.318894   -0.172204
 0.130000   0.318025   -0.175793
 0.135000   0.317136   -0.179679
 0.140000   0.316228   -0.183825
 0.145000   0.315298   -0.188237
 0.150000   0.314345   -0.192698
 0.155000   0.313371   -0.197063
 0.160000   0.312375   -0.201441
 0.165000   0.311357   -0.205869
 0.170000   0.310316   -0.210193
 0.175000   0.309255   -0.214292
 0.180000   0.308173   -0.218226
 0.185000   0.307072   -0.221948
 0.190000   0.305954   -0.225417
 0.195000   0.304818   -0.228648
 0.200000   0.303667   -0.231624
 0.205000   0.302502   -0.234336
 0.210000   0.301324   -0.236783
 0.215000   0.300134   -0.238959
 0.220000   0.298934   -0.240869
 0.225000   0.297726   -0.242937
 0.230000   0.296505   -0.244805
 0.235000   0.295278   -0.245982
 0.240000   0.294045   -0.246835
 0.245000   0.292809   -0.247446
 0.250000   0.291571   -0.247821
 0.255000   0.290331   -0.248011
 0.260000   0.289091   -0.248481
 0.265000   0.287846   -0.248686
 0.270000   0.286604   -0.248204
 0.275000   0.285364   -0.247588
 0.280000   0.284128   -0.246845
 0.285000   0.282896   -0.246143
 0.290000   0.281666   -0.245548
 0.295000   0.280440   -0.244645
 0.300000   0.279220   -0.243395
 0.305000   0.278006   -0.242093
 0.310000   0.276799   -0.240862
 0.315000   0.275598   -0.239819
 0.320000   0.274401   -0.238601
 0.325000   0.273212   -0.237105
 0.330000   0.272030   -0.235592
 0.335000   0.270856   -0.234220
 0.340000   0.269688   -0.232936
 0.345000   0.268526   -0.231466
 0.350000   0.267373   -0.229876
 0.355000   0.266228   -0.228307
 0.360000   0.265090   -0.226951
 0.365000   0.263958   -0.225592
 0.370000   0.262834   -0.224059
 0.375000   0.261717   -0.222578
 0.380000   0.260608   -0.221267
 0.385000   0.259505   -0.220051
 0.390000   0.258408   -0.218763
 0.395000   0.257317   -0.217478
 0.400000   0.256233   -0.216299
 0.405000   0.255154   -0.215219
 0.410000   0.254081   -0.214096
 0.415000   0.253013   -0.212920
 0.420000   0.251952   -0.211783
 0.425000   0.250895   -0.210717
 0.430000   0.249844   -0.209604
 0.435000   0.248799   -0.208389
 0.440000   0.247760   -0.207161
 0.445000   0.246728   -0.205985
 0.450000   0.245701   -0.204758
 0.455000   0.244680   -0.203411
 0.460000   0.243666   -0.202038
 0.465000   0.242660   -0.200703
 0.470000   0.241659   -0.199313
 0.475000   0.240667   -0.197798
 0.480000   0.239681   -0.196236
 0.485000   0.238704   -0.194687
 0.490000   0.237735   -0.193057
 0.495000   0.236774   -0.191264
 0.500000   0.235822   -0.189384
 0.505000   0.234880   -0.187484
 0.510000   0.233947   -0.185481
 0.515000   0.233025   -0.183297
 0.520000   0.232114   -0.181003
 0.525000   0.231215   -0.178657
 0.530000   0.230328   -0.176195
 0.535000   0.229453   -0.173549
 0.540000   0.228592   -0.170781
 0.545000   0.227745   -0.167938
 0.550000   0.226913   -0.164968
 0.555000   0.226096   -0.161809
 0.560000   0.225295   -0.158505
 0.565000   0.224511   -0.155088
 0.570000   0.223744   -0.151522
 0.575000   0.222995   -0.147764
 0.580000   0.222266   -0.143839
 0.585000   0.221557   -0.139776
 0.590000   0.220868   -0.135567
 0.595000   0.220201   -0.131187
 0.600000   0.219556   -0.126658
 0.605000   0.218935   -0.122006
 0.610000   0.218336   -0.117236
 0.615000   0.217762   -0.112339
 0.620000   0.217213   -0.107318
 0.625000   0.216689   -0.102181
 0.630000   0.216191   -0.096917
 0.635000   0.215720   -0.091530
 0.640000   0.215276   -0.086036
 0.645000   0.214860   -0.080443
 0.650000   0.214471   -0.074733
 0.655000   0.214112   -0.068919
 0.660000   0.213782   -0.063062
 0.665000   0.213482   -0.057188
 0.670000   0.213210   -0.051305
 0.675000   0.212969   -0.045398
 0.680000   0.212756   -0.039428
 0.685000   0.212574   -0.033249
 0.690000   0.212424   -0.026679
 0.695000   0.212308   -0.019629
 0.700000   0.212228   -0.012015
 0.705000   0.212187   -0.003881
 0.710000   0.212189   0.004922
 0.715000   0.212237   0.014264
 0.720000   0.212331   0.023613
 0.725000   0.212473   0.032904
 0.730000   0.212661   0.042061
 0.735000   0.212893   0.050836
 0.740000   0.213169   0.059162
 0.745000   0.213485   0.066621
 0.750000   0.213835   0.072682
 0.755000   0.214212   0.077278
 0.760000   0.214608   0.080388
 0.765000   0.215016   0.081972
 0.770000   0.215428   0.081916
 0.775000   0.215835   0.080203
 0.780000   0.216230   0.077544
 0.785000   0.216610   0.074532
 0.790000   0.216975   0.071334
 0.795000   0.217324   0.068274
 0.800000   0.217658   0.065534
 0.805000   0.217979   0.063387
 0.810000   0.218292   0.062384
 0.815000   0.218603   0.062634
 0.820000   0.218918   0.063927
 0.825000   0.219242   0.066234
 0.830000   0.219580   0.069498
 0.835000   0.219937   0.073668
 0.840000   0.220317   0.078772
 0.845000   0.220725   0.084938
 0.850000   0.221166   0.092266
 0.855000   0.221647   0.100806
 0.860000   0.222174   0.110516
 0.865000   0.222753   0.121185
 0.870000   0.223386   0.132429
 0.875000   0.224077   0.143434
 0.880000   0.224821   0.152628
 0.885000   0.225603   0.157486
 0.890000   0.226395   0.154248
 0.895000   0.227146   0.137683
 0.900000   0.227772   0.100311
 0.905000   0.228149   0.032207
 0.910000   0.228094   -0.078934
 0.915000   0.227359   -0.247672
 0.920000   0.225618   -0.488664
 0.925000   0.222473   -0.811790
 0.930000   0.217500   -1.215926
 0.935000   0.210313   -1.679921
 0.940000   0.200700   -2.154443
 0.945000   0.188769   -2.562583
 0.950000   0.175075   -2.814726
 0.955000   0.160622   -2.832972
 0.960000   0.146745   -2.615796
 0.965000   0.134464   -2.254363
 0.970000   0.124201   -1.876979
 0.975000   0.115694   -1.590339
 0.980000   0.108298   -1.424562
 0.985000   0.101448   -1.340506
 0.990000   0.094893   -1.280109
 0.995000   0.088647   -1.203426
 1.000000   0.082859   -1.112087
201 psinorm ti(KeV) dti/dpsiN
 0.000000   5.724818   0.003224
 0.005000   5.723996   -0.332096
 0.010000   5.721497   -0.672054
 0.015000   5.717276   -1.020883
 0.020000   5.711289   -1.377713
 0.025000   5.703499   -1.741559
 0.030000   5.693873   -2.111359
 0.035000   5.682385   -2.486009
 0.040000   5.669013   -2.864088
 0.045000   5.653744   -3.244485
 0.050000   5.636568   -3.626292
 0.055000   5.617481   -4.008205
 0.060000   5.596486   -4.388833
 0.065000   5.573593   -4.766483
 0.070000   5.548821   -5.137889
 0.075000   5.522214   -5.500965
 0.080000   5.493812   -5.855386
 0.085000   5.463660   -6.199776
 0.090000   5.431814   -6.532777
 0.095000   5.398332   -6.853369
 0.100000   5.363280   -7.158951
 0.105000   5.326743   -7.449679
 0.110000   5.288783   -7.727704
 0.115000   5.249466   -7.992304
 0.120000   5.208860   -8.243326
 0.125000   5.167033   -8.481885
 0.130000   5.124041   -8.709066
 0.135000   5.079942   -8.925709
 0.140000   5.034784   -9.130465
 0.145000   4.988637   -9.320821
 0.150000   4.941576   -9.495901
 0.155000   4.893678   -9.655516
 0.160000   4.845021   -9.799078
 0.165000   4.795687   -9.925730
 0.170000   4.745764   -10.035361
 0.175000   4.695334   -10.127739
 0.180000   4.644486   -10.202520
 0.185000   4.593309   -10.259973
 0.190000   4.541887   -10.299704
 0.195000   4.490312   -10.321844
 0.200000   4.438668   -10.330054
 0.205000   4.387011   -10.327407
 0.210000   4.335394   -10.315221
 0.215000   4.283859   -10.295736
 0.220000   4.232437   -10.271276
 0.225000   4.181146   -10.245307
 0.230000   4.129984   -10.216977
 0.235000   4.078976   -10.183837
 0.240000   4.028145   -10.146316
 0.245000   3.977513   -10.103898
 0.250000   3.927106   -10.056655
 0.255000   3.876947   -10.005593
 0.260000   3.827050   -9.941268
 0.265000   3.777534   -9.858247
 0.270000   3.728468   -9.761051
 0.275000   3.679923   -9.649572
 0.280000   3.631972   -9.523811
 0.285000   3.584685   -9.383493
 0.290000   3.538137   -9.226457
 0.295000   3.492421   -9.053113
 0.300000   3.447606   -8.865543
 0.305000   3.403765   -8.663777
 0.310000   3.360968   -8.448606
 0.315000   3.319279   -8.219446
 0.320000   3.278774   -7.989074
 0.325000   3.239389   -7.768306
 0.330000   3.201091   -7.554207
 0.335000   3.163846   -7.347177
 0.340000   3.127619   -7.147495
 0.345000   3.092371   -6.957691
 0.350000   3.058042   -6.777370
 0.355000   3.024598   -6.602849
 0.360000   2.992014   -6.433071
 0.365000   2.960267   -6.267358
 0.370000   2.929340   -6.104784
 0.375000   2.899219   -5.948374
 0.380000   2.869856   -5.792322
 0.385000   2.841296   -5.626778
 0.390000   2.813589   -5.451740
 0.395000   2.786779   -5.267829
 0.400000   2.760910   -5.075679
 0.405000   2.736022   -4.874423
 0.410000   2.712166   -4.665462
 0.415000   2.689367   -4.455993
 0.420000   2.667606   -4.251118
 0.425000   2.646856   -4.052545
 0.430000   2.627081   -3.861924
 0.435000   2.608237   -3.678048
 0.440000   2.590300   -3.502874
 0.445000   2.573208   -3.341524
 0.450000   2.556885   -3.193393
 0.455000   2.541274   -3.056689
 0.460000   2.526318   -2.931558
 0.465000   2.511959   -2.817392
 0.470000   2.498144   -2.715173
 0.475000   2.484807   -2.626812
 0.480000   2.471876   -2.551238
 0.485000   2.459294   -2.486728
 0.490000   2.447009   -2.432290
 0.495000   2.434972   -2.386378
 0.500000   2.423145   -2.345900
 0.505000   2.411513   -2.308305
 0.510000   2.400062   -2.273907
 0.515000   2.388773   -2.243679
 0.520000   2.377625   -2.218092
 0.525000   2.366593   -2.197210
 0.530000   2.355653   -2.180620
 0.535000   2.344786   -2.169458
 0.540000   2.333958   -2.164236
 0.545000   2.323144   -2.163988
 0.550000   2.312319   -2.168544
 0.555000   2.301459   -2.177638
 0.560000   2.290542   -2.190915
 0.565000   2.279549   -2.209126
 0.570000   2.268451   -2.232391
 0.575000   2.257225   -2.259805
 0.580000   2.245853   -2.291156
 0.585000   2.234314   -2.326234
 0.590000   2.222591   -2.365563
 0.595000   2.210658   -2.408498
 0.600000   2.198506   -2.453994
 0.605000   2.186118   -2.502087
 0.610000   2.173485   -2.552368
 0.615000   2.160595   -2.604336
 0.620000   2.147441   -2.659154
 0.625000   2.134003   -2.714493
 0.630000   2.120296   -2.767554
 0.635000   2.106328   -2.818992
 0.640000   2.092106   -2.868085
 0.645000   2.077647   -2.914007
 0.650000   2.062966   -2.956746
 0.655000   2.048079   -2.994200
 0.660000   2.033024   -3.024948
 0.665000   2.017830   -3.050490
 0.670000   2.002519   -3.071416
 0.675000   1.987116   -3.088005
 0.680000   1.971639   -3.100920
 0.685000   1.956106   -3.109388
 0.690000   1.940546   -3.111580
 0.695000   1.924991   -3.106695
 0.700000   1.909479   -3.094331
 0.705000   1.894047   -3.074586
 0.710000   1.878733   -3.048120
 0.715000   1.863566   -3.016239
 0.720000   1.848570   -2.979974
 0.725000   1.833766   -2.939554
 0.730000   1.819175   -2.895180
 0.735000   1.804815   -2.847181
 0.740000   1.790703   -2.795903
 0.745000   1.776856   -2.741813
 0.750000   1.763285   -2.685352
 0.755000   1.750002   -2.626980
 0.760000   1.737015   -2.567592
 0.765000   1.724326   -2.508359
 0.770000   1.711931   -2.450977
 0.775000   1.699816   -2.395832
 0.780000   1.687973   -2.340338
 0.785000   1.676413   -2.283335
 0.790000   1.665140   -2.225823
 0.795000   1.654155   -2.168437
 0.800000   1.643455   -2.111888
 0.805000   1.633036   -2.056685
 0.810000   1.622889   -2.004187
 0.815000   1.612994   -1.956815
 0.820000   1.603320   -1.916558
 0.825000   1.593828   -1.884786
 0.830000   1.584473   -1.862808
 0.835000   1.575200   -1.852418
 0.840000   1.565948   -1.852610
 0.845000   1.556674   -1.862313
 0.850000   1.547325   -1.883476
 0.855000   1.537839   -1.918288
 0.860000   1.528142   -1.970241
 0.865000   1.518137   -2.046875
 0.870000   1.507674   -2.147428
 0.875000   1.496663   -2.269511
 0.880000   1.484979   -2.418514
 0.885000   1.472478   -2.598632
 0.890000   1.458992   -2.816235
 0.895000   1.444315   -3.098744
 0.900000   1.428005   -3.453264
 0.905000   1.409783   -3.877445
 0.910000   1.389230   -4.390567
 0.915000   1.365877   -5.002724
 0.920000   1.339203   -5.722624
 0.925000   1.308651   -6.602064
 0.930000   1.273182   -7.601310
 0.935000   1.232638   -8.649089
 0.940000   1.186692   -9.743968
 0.945000   1.135198   -10.836969
 0.950000   1.078322   -11.857733
 0.955000   1.016621   -12.761762
 0.960000   0.950704   -13.424392
 0.965000   0.882377   -13.745313
 0.970000   0.813251   -13.747220
 0.975000   0.744905   -13.437027
 0.980000   0.678881   -12.832204
 0.985000   0.616583   -11.983873
 0.990000   0.559042   -10.928659
 0.995000   0.507296   -9.717952
 1.000000   0.461863   -8.455385
201 psinorm nb(10^20/m^3) dnb/dpsiN
 0.000000   0.096578   0.125145
 0.005000   0.096967   0.030686
 0.010000   0.096884   -0.048347
 0.015000   0.096484   -0.105743
 0.020000   0.095827   -0.153816
 0.025000   0.094946   -0.195678
 0.030000   0.093870   -0.232362
 0.035000   0.092622   -0.263499
 0.040000   0.091235   -0.288881
 0.045000   0.089733   -0.309651
 0.050000   0.088139   -0.326333
 0.055000   0.086470   -0.339873
 0.060000   0.084740   -0.350347
 0.065000   0.082966   -0.358225
 0.070000   0.081158   -0.363752
 0.075000   0.079329   -0.366938
 0.080000   0.077488   -0.368286
 0.085000   0.075646   -0.367788
 0.090000   0.073811   -0.365762
 0.095000   0.071988   -0.362384
 0.100000   0.070187   -0.357571
 0.105000   0.068413   -0.351731
 0.110000   0.066669   -0.345235
 0.115000   0.064960   -0.338050
 0.120000   0.063289   -0.330260
 0.125000   0.061658   -0.321932
 0.130000   0.060070   -0.313134
 0.135000   0.058526   -0.304028
 0.140000   0.057029   -0.294656
 0.145000   0.055580   -0.285012
 0.150000   0.054179   -0.275316
 0.155000   0.052827   -0.265714
 0.160000   0.051522   -0.256099
 0.165000   0.050266   -0.246438
 0.170000   0.049058   -0.236891
 0.175000   0.047897   -0.227580
 0.180000   0.046782   -0.218447
 0.185000   0.045712   -0.209543
 0.190000   0.044686   -0.200908
 0.195000   0.043703   -0.192532
 0.200000   0.042761   -0.184434
 0.205000   0.041859   -0.176627
 0.210000   0.040995   -0.169117
 0.215000   0.040168   -0.161913
 0.220000   0.039376   -0.155014
 0.225000   0.038617   -0.147999
 0.230000   0.037896   -0.141227
 0.235000   0.037205   -0.135191
 0.240000   0.036544   -0.129526
 0.245000   0.035910   -0.124153
 0.250000   0.035302   -0.119069
 0.255000   0.034719   -0.114223
 0.260000   0.034160   -0.109158
 0.265000   0.033628   -0.104427
 0.270000   0.033116   -0.100457
 0.275000   0.032623   -0.096699
 0.280000   0.032149   -0.093154
 0.285000   0.031692   -0.089659
 0.290000   0.031252   -0.086154
 0.295000   0.030830   -0.083063
 0.300000   0.030422   -0.080425
 0.305000   0.030026   -0.077952
 0.310000   0.029642   -0.075520
 0.315000   0.029271   -0.073020
 0.320000   0.028912   -0.070812
 0.325000   0.028562   -0.068995
 0.330000   0.028222   -0.067303
 0.335000   0.027889   -0.065571
 0.340000   0.027566   -0.063849
 0.345000   0.027251   -0.062403
 0.350000   0.026942   -0.061162
 0.355000   0.026639   -0.059990
 0.360000   0.026342   -0.058701
 0.365000   0.026052   -0.057515
 0.370000   0.025767   -0.056605
 0.375000   0.025486   -0.055747
 0.380000   0.025210   -0.054828
 0.385000   0.024938   -0.053922
 0.390000   0.024670   -0.053185
 0.395000   0.024406   -0.052535
 0.400000   0.024145   -0.051855
 0.405000   0.023888   -0.051145
 0.410000   0.023634   -0.050530
 0.415000   0.023382   -0.050006
 0.420000   0.023134   -0.049471
 0.425000   0.022888   -0.048878
 0.430000   0.022645   -0.048335
 0.435000   0.022404   -0.047882
 0.440000   0.022166   -0.047420
 0.445000   0.021930   -0.046884
 0.450000   0.021697   -0.046375
 0.455000   0.021466   -0.045956
 0.460000   0.021238   -0.045534
 0.465000   0.021011   -0.045041
 0.470000   0.020787   -0.044575
 0.475000   0.020565   -0.044204
 0.480000   0.020345   -0.043836
 0.485000   0.020127   -0.043399
 0.490000   0.019911   -0.042977
 0.495000   0.019697   -0.042646
 0.500000   0.019485   -0.042322
 0.505000   0.019274   -0.041931
 0.510000   0.019065   -0.041550
 0.515000   0.018858   -0.041252
 0.520000   0.018653   -0.040962
 0.525000   0.018449   -0.040615
 0.530000   0.018247   -0.040274
 0.535000   0.018046   -0.040005
 0.540000   0.017847   -0.039745
 0.545000   0.017649   -0.039443
 0.550000   0.017452   -0.039146
 0.555000   0.017257   -0.038913
 0.560000   0.017063   -0.038695
 0.565000   0.016870   -0.038454
 0.570000   0.016679   -0.038219
 0.575000   0.016488   -0.038033
 0.580000   0.016298   -0.037870
 0.585000   0.016109   -0.037704
 0.590000   0.015921   -0.037545
 0.595000   0.015734   -0.037422
 0.600000   0.015547   -0.037325
 0.605000   0.015361   -0.037239
 0.610000   0.015175   -0.037165
 0.615000   0.014989   -0.037121
 0.620000   0.014803   -0.037103
 0.625000   0.014618   -0.037100
 0.630000   0.014432   -0.037123
 0.635000   0.014247   -0.037173
 0.640000   0.014061   -0.037238
 0.645000   0.013874   -0.037318
 0.650000   0.013687   -0.037425
 0.655000   0.013500   -0.037568
 0.660000   0.013312   -0.037723
 0.665000   0.013123   -0.037879
 0.670000   0.012933   -0.038048
 0.675000   0.012742   -0.038260
 0.680000   0.012550   -0.038498
 0.685000   0.012357   -0.038721
 0.690000   0.012163   -0.038946
 0.695000   0.011968   -0.039180
 0.700000   0.011771   -0.039470
 0.705000   0.011573   -0.039775
 0.710000   0.011374   -0.040048
 0.715000   0.011173   -0.040326
 0.720000   0.010970   -0.040610
 0.725000   0.010767   -0.040941
 0.730000   0.010561   -0.041280
 0.735000   0.010354   -0.041581
 0.740000   0.010145   -0.041879
 0.745000   0.009935   -0.042177
 0.750000   0.009723   -0.042495
 0.755000   0.009510   -0.042823
 0.760000   0.009295   -0.043117
 0.765000   0.009079   -0.043381
 0.770000   0.008861   -0.043630
 0.775000   0.008643   -0.043865
 0.780000   0.008423   -0.044101
 0.785000   0.008202   -0.044317
 0.790000   0.007979   -0.044492
 0.795000   0.007757   -0.044641
 0.800000   0.007533   -0.044770
 0.805000   0.007309   -0.044878
 0.810000   0.007084   -0.044967
 0.815000   0.006859   -0.045031
 0.820000   0.006634   -0.045059
 0.825000   0.006409   -0.045055
 0.830000   0.006183   -0.045018
 0.835000   0.005958   -0.044946
 0.840000   0.005734   -0.044836
 0.845000   0.005510   -0.044688
 0.850000   0.005287   -0.044475
 0.855000   0.005065   -0.044199
 0.860000   0.004845   -0.043888
 0.865000   0.004626   -0.043570
 0.870000   0.004409   -0.043280
 0.875000   0.004194   -0.043022
 0.880000   0.003979   -0.042786
 0.885000   0.003766   -0.042557
 0.890000   0.003554   -0.042318
 0.895000   0.003343   -0.042056
 0.900000   0.003133   -0.041759
 0.905000   0.002925   -0.041418
 0.910000   0.002719   -0.041057
 0.915000   0.002514   -0.040640
 0.920000   0.002312   -0.040085
 0.925000   0.002114   -0.039391
 0.930000   0.001919   -0.038633
 0.935000   0.001727   -0.037882
 0.940000   0.001540   -0.037133
 0.945000   0.001356   -0.036270
 0.950000   0.001177   -0.035044
 0.955000   0.001006   -0.033128
 0.960000   0.000846   -0.030327
 0.965000   0.000702   -0.026762
 0.970000   0.000578   -0.022824
 0.975000   0.000474   -0.018954
 0.980000   0.000389   -0.015639
 0.985000   0.000318   -0.013331
 0.990000   0.000255   -0.012112
 0.995000   0.000197   -0.012842
 1.000000   0.000127   -0.015016
201 psinorm pb(KPa) dpb/dpsiN
 0.000000   39.737273   25.542294
 0.005000   39.779660   -8.587296
 0.010000   39.651400   -37.904775
 0.015000   39.400612   -59.825066
 0.020000   39.053149   -77.971849
 0.025000   38.620894   -93.692184
 0.030000   38.116227   -107.518090
 0.035000   37.545713   -119.165943
 0.040000   36.924568   -128.366854
 0.045000   36.262045   -135.739398
 0.050000   35.567174   -141.482461
 0.055000   34.847220   -146.006847
 0.060000   34.107105   -149.419824
 0.065000   33.353022   -151.853535
 0.070000   32.588570   -153.393097
 0.075000   31.819091   -154.068712
 0.080000   31.047883   -154.036934
 0.085000   30.278721   -153.304208
 0.090000   29.514841   -152.016617
 0.095000   28.758555   -150.213324
 0.100000   28.012708   -147.863148
 0.105000   27.279924   -145.115715
 0.110000   26.561550   -142.136265
 0.115000   25.858561   -138.942150
 0.120000   25.172129   -135.541513
 0.125000   24.503146   -131.954153
 0.130000   23.852587   -128.206027
 0.135000   23.221086   -124.354627
 0.140000   22.609041   -120.430187
 0.145000   22.016784   -116.416739
 0.150000   21.444874   -112.386305
 0.155000   20.892921   -108.401337
 0.160000   20.360860   -104.430120
 0.165000   19.848620   -100.450650
 0.170000   19.356354   -96.525063
 0.175000   18.883369   -92.709494
 0.180000   18.429259   -88.993320
 0.185000   17.993436   -85.379546
 0.190000   17.575463   -81.861131
 0.195000   17.174824   -78.452116
 0.200000   16.790942   -75.162148
 0.205000   16.423203   -71.995683
 0.210000   16.070985   -68.954534
 0.215000   15.733658   -66.041611
 0.220000   15.410569   -63.256041
 0.225000   15.101097   -60.433895
 0.230000   14.806230   -57.714746
 0.235000   14.523950   -55.288918
 0.240000   14.253341   -53.014276
 0.245000   13.993807   -50.859065
 0.250000   13.744751   -48.820800
 0.255000   13.505599   -46.880835
 0.260000   13.275942   -44.864100
 0.265000   13.056958   -42.982201
 0.270000   12.846120   -41.395175
 0.275000   12.643006   -39.892027
 0.280000   12.447200   -38.473427
 0.285000   12.258272   -37.081588
 0.290000   12.076384   -35.693386
 0.295000   11.901338   -34.465521
 0.300000   11.731729   -33.411674
 0.305000   11.567221   -32.422293
 0.310000   11.407506   -31.451361
 0.315000   11.252708   -30.457568
 0.320000   11.102930   -29.576132
 0.325000   10.956946   -28.842938
 0.330000   10.814501   -28.158638
 0.335000   10.675360   -27.461805
 0.340000   10.539883   -26.772301
 0.345000   10.407637   -26.188066
 0.350000   10.278002   -25.680816
 0.355000   10.150829   -25.200710
 0.360000   10.025995   -24.679627
 0.365000   9.904033   -24.197080
 0.370000   9.784024   -23.816229
 0.375000   9.665870   -23.454538
 0.380000   9.549479   -23.071609
 0.385000   9.435154   -22.695160
 0.390000   9.322527   -22.382753
 0.395000   9.211327   -22.102898
 0.400000   9.101498   -21.811278
 0.405000   8.993214   -21.507677
 0.410000   8.886422   -21.239161
 0.415000   8.780822   -21.003831
 0.420000   8.676383   -20.764513
 0.425000   8.573177   -20.504849
 0.430000   8.471335   -20.262471
 0.435000   8.370552   -20.052006
 0.440000   8.270815   -19.838363
 0.445000   8.172169   -19.597882
 0.450000   8.074836   -19.365941
 0.455000   7.978509   -19.165650
 0.460000   7.883179   -18.963685
 0.465000   7.788873   -18.739071
 0.470000   7.695789   -18.527945
 0.475000   7.603593   -18.352288
 0.480000   7.512266   -18.178976
 0.485000   7.421803   -17.982826
 0.490000   7.332438   -17.794227
 0.495000   7.243861   -17.638232
 0.500000   7.156055   -17.485738
 0.505000   7.069004   -17.311788
 0.510000   6.982937   -17.142279
 0.515000   6.897581   -17.001497
 0.520000   6.812922   -16.863178
 0.525000   6.728949   -16.707842
 0.530000   6.645844   -16.554785
 0.535000   6.563401   -16.424160
 0.540000   6.481602   -16.296303
 0.545000   6.400438   -16.154177
 0.550000   6.320061   -16.013813
 0.555000   6.240300   -15.894364
 0.560000   6.161117   -15.780337
 0.565000   6.082497   -15.658830
 0.570000   6.004529   -15.538390
 0.575000   5.927113   -15.434693
 0.580000   5.850182   -15.339737
 0.585000   5.773716   -15.242516
 0.590000   5.697757   -15.148612
 0.595000   5.622229   -15.068205
 0.600000   5.547074   -14.995325
 0.605000   5.472276   -14.924342
 0.610000   5.397831   -14.857872
 0.615000   5.323697   -14.801997
 0.620000   5.249811   -14.755193
 0.625000   5.176146   -14.713758
 0.630000   5.102673   -14.681390
 0.635000   5.029332   -14.657997
 0.640000   4.956094   -14.640041
 0.645000   4.882931   -14.627462
 0.650000   4.809819   -14.622843
 0.655000   4.736703   -14.631934
 0.660000   4.663500   -14.646278
 0.665000   4.590240   -14.659392
 0.670000   4.516906   -14.676260
 0.675000   4.443477   -14.706889
 0.680000   4.369837   -14.745212
 0.685000   4.296025   -14.778558
 0.690000   4.222051   -14.812389
 0.695000   4.147901   -14.848597
 0.700000   4.073565   -14.903594
 0.705000   3.998865   -14.964320
 0.710000   3.923922   -15.014226
 0.715000   3.848723   -15.066381
 0.720000   3.773258   -15.120257
 0.725000   3.697521   -15.190088
 0.730000   3.621357   -15.262434
 0.735000   3.544896   -15.320937
 0.740000   3.468148   -15.378141
 0.745000   3.391115   -15.434441
 0.750000   3.313804   -15.496395
 0.755000   3.236151   -15.560680
 0.760000   3.158197   -15.612234
 0.765000   3.080029   -15.651679
 0.770000   3.001680   -15.684658
 0.775000   2.923182   -15.711963
 0.780000   2.844560   -15.737282
 0.785000   2.765809   -15.754228
 0.790000   2.687018   -15.757181
 0.795000   2.608237   -15.751276
 0.800000   2.529505   -15.737729
 0.805000   2.450860   -15.716650
 0.810000   2.372339   -15.687552
 0.815000   2.293985   -15.647047
 0.820000   2.215868   -15.594090
 0.825000   2.138044   -15.530415
 0.830000   2.060564   -15.455380
 0.835000   1.983490   -15.368039
 0.840000   1.906884   -15.268012
 0.845000   1.830810   -15.154883
 0.850000   1.755335   -15.017220
 0.855000   1.680638   -14.858861
 0.860000   1.606746   -14.691558
 0.865000   1.533722   -14.517139
 0.870000   1.461575   -14.342572
 0.875000   1.390296   -14.168783
 0.880000   1.319887   -13.992672
 0.885000   1.250369   -13.810135
 0.890000   1.181786   -13.616964
 0.895000   1.114200   -13.409915
 0.900000   1.047687   -13.183198
 0.905000   0.982368   -12.927971
 0.910000   0.918407   -12.660860
 0.915000   0.855759   -12.385124
 0.920000   0.794556   -12.079742
 0.925000   0.734962   -11.753921
 0.930000   0.677016   -11.447288
 0.935000   0.620489   -11.205331
 0.940000   0.564963   -11.060674
 0.945000   0.509882   -11.023147
 0.950000   0.454732   -11.050998
 0.955000   0.399372   -11.037429
 0.960000   0.344357   -10.849544
 0.965000   0.290877   -10.395685
 0.970000   0.240400   -9.661798
 0.975000   0.194259   -8.687632
 0.980000   0.153524   -7.580639
 0.985000   0.118452   -6.455418
 0.990000   0.088970   -5.342094
 0.995000   0.065032   -4.725585
 1.000000   0.041714   -4.601363
201 psinorm ptot(KPa) dptot/dpsiN
 0.000000   110.291516   -123.404210
 0.005000   109.609567   -149.375300
 0.010000   108.797763   -171.964310
 0.015000   107.889924   -189.172160
 0.020000   106.906042   -203.494345
 0.025000   105.854981   -215.991881
 0.030000   104.746123   -227.100444
 0.035000   103.583976   -236.566410
 0.040000   102.380459   -244.133299
 0.045000   101.142643   -250.309910
 0.050000   99.877360   -255.242352
 0.055000   98.590220   -259.248215
 0.060000   97.284877   -262.419128
 0.065000   95.966029   -264.834767
 0.070000   94.636530   -266.538733
 0.075000   93.300641   -267.547295
 0.080000   91.961057   -267.968551
 0.085000   90.620956   -267.800037
 0.090000   89.283056   -267.150189
 0.095000   87.949454   -266.034905
 0.100000   86.622707   -264.413800
 0.105000   85.305316   -262.400022
 0.110000   83.998707   -260.137139
 0.115000   82.703944   -257.640131
 0.120000   81.422306   -254.907624
 0.125000   80.154868   -251.958629
 0.130000   78.902720   -248.817914
 0.135000   77.666689   -245.533326
 0.140000   76.447386   -242.124001
 0.145000   75.245449   -238.560687
 0.150000   74.061779   -234.893185
 0.155000   72.896517   -231.171831
 0.160000   71.750061   -227.370976
 0.165000   70.622807   -223.467585
 0.170000   69.515385   -219.512053
 0.175000   68.427687   -215.551250
 0.180000   67.359873   -211.578874
 0.185000   66.311898   -207.597295
 0.190000   65.283900   -203.596182
 0.195000   64.275936   -199.593191
 0.200000   63.287968   -195.617357
 0.205000   62.319763   -191.689869
 0.210000   61.371069   -187.820656
 0.215000   60.441556   -184.024990
 0.220000   59.530819   -180.315365
 0.225000   58.638403   -176.574466
 0.230000   57.765075   -172.914108
 0.235000   56.909262   -169.480922
 0.240000   56.070265   -166.160988
 0.245000   55.247652   -162.926611
 0.250000   54.440999   -159.777143
 0.255000   53.649880   -156.703006
 0.260000   52.873969   -153.512315
 0.265000   52.114757   -150.357945
 0.270000   51.370390   -147.398457
 0.275000   50.640772   -144.458100
 0.280000   49.925809   -141.539372
 0.285000   49.225379   -138.594058
 0.290000   48.539868   -135.593633
 0.295000   47.869442   -132.674403
 0.300000   47.213124   -129.859737
 0.305000   46.570845   -127.058106
 0.310000   45.942543   -124.234927
 0.315000   45.328496   -121.353067
 0.320000   44.729012   -118.588333
 0.325000   44.142612   -116.021545
 0.330000   43.568797   -113.553101
 0.335000   43.007081   -111.130745
 0.340000   42.457490   -108.771991
 0.345000   41.919362   -106.571865
 0.350000   41.391771   -104.503075
 0.355000   40.874331   -102.505333
 0.360000   40.366718   -100.514185
 0.365000   39.869189   -98.595149
 0.370000   39.380766   -96.798667
 0.375000   38.901202   -95.065991
 0.380000   38.430106   -93.335844
 0.385000   37.967844   -91.588874
 0.390000   37.514217   -89.875532
 0.395000   37.069089   -88.171039
 0.400000   36.632507   -86.438942
 0.405000   36.204699   -84.675253
 0.410000   35.785754   -82.927389
 0.415000   35.375425   -81.224308
 0.420000   34.973511   -79.554583
 0.425000   34.579879   -77.910032
 0.430000   34.194411   -76.329729
 0.435000   33.816582   -74.820385
 0.440000   33.446207   -73.358339
 0.445000   33.082999   -71.943287
 0.450000   32.726774   -70.602839
 0.455000   32.376970   -69.348931
 0.460000   32.033285   -68.151808
 0.465000   31.695452   -66.989779
 0.470000   31.363387   -65.898369
 0.475000   31.036469   -64.903762
 0.480000   30.714350   -63.970754
 0.485000   30.396761   -63.068787
 0.490000   30.083662   -62.219802
 0.495000   29.774563   -61.438844
 0.500000   29.469273   -60.686879
 0.505000   29.167694   -59.931035
 0.510000   28.869963   -59.195097
 0.515000   28.575743   -58.503997
 0.520000   28.284923   -57.835912
 0.525000   27.997384   -57.173588
 0.530000   27.713187   -56.531966
 0.535000   27.432064   -55.932907
 0.540000   27.153858   -55.360808
 0.545000   26.878456   -54.796350
 0.550000   26.605895   -54.252754
 0.555000   26.335929   -53.745692
 0.560000   26.068438   -53.259783
 0.565000   25.803331   -52.786035
 0.570000   25.540577   -52.332100
 0.575000   25.280010   -51.908406
 0.580000   25.021493   -51.507028
 0.585000   24.764940   -51.117110
 0.590000   24.510322   -50.745834
 0.595000   24.257481   -50.400065
 0.600000   24.006321   -50.070540
 0.605000   23.756776   -49.752684
 0.610000   23.508795   -49.447762
 0.615000   23.262298   -49.159721
 0.620000   23.017197   -48.891539
 0.625000   22.773383   -48.631253
 0.630000   22.530885   -48.372000
 0.635000   22.289663   -48.116450
 0.640000   22.049720   -47.859155
 0.645000   21.811071   -47.597458
 0.650000   21.573746   -47.333574
 0.655000   21.337736   -47.066143
 0.660000   21.103084   -46.783544
 0.665000   20.869900   -46.485739
 0.670000   20.638227   -46.180195
 0.675000   20.408098   -45.877528
 0.680000   20.179452   -45.573206
 0.685000   19.952366   -45.248344
 0.690000   19.726968   -44.897110
 0.695000   19.503395   -44.516555
 0.700000   19.281803   -44.119698
 0.705000   19.062198   -43.695533
 0.710000   18.844847   -43.226806
 0.715000   18.629930   -42.734707
 0.720000   18.417500   -42.235795
 0.725000   18.207572   -41.746265
 0.730000   18.000038   -41.255142
 0.735000   17.795021   -40.752947
 0.740000   17.592508   -40.254272
 0.745000   17.392478   -39.770299
 0.750000   17.194805   -39.320452
 0.755000   16.999273   -38.903298
 0.760000   16.805772   -38.506153
 0.765000   16.614212   -38.133318
 0.770000   16.424439   -37.797583
 0.775000   16.236236   -37.499919
 0.780000   16.049440   -37.216833
 0.785000   15.864068   -36.923103
 0.790000   15.680209   -36.612033
 0.795000   15.497947   -36.282720
 0.800000   15.317382   -35.933787
 0.805000   15.138610   -35.560047
 0.810000   14.961781   -35.152714
 0.815000   14.787082   -34.713690
 0.820000   14.614644   -34.252382
 0.825000   14.444559   -33.774372
 0.830000   14.276901   -33.283152
 0.835000   14.111727   -32.783639
 0.840000   13.949064   -32.269422
 0.845000   13.789033   -31.732417
 0.850000   13.631740   -31.166640
 0.855000   13.477366   -30.585407
 0.860000   13.325886   -30.019892
 0.865000   13.177168   -29.515298
 0.870000   13.030733   -29.101953
 0.875000   12.886148   -28.817915
 0.880000   12.742554   -28.757443
 0.885000   12.598574   -29.050407
 0.890000   12.452050   -29.889077
 0.895000   12.299683   -31.615522
 0.900000   12.135895   -34.584225
 0.905000   11.953841   -39.212497
 0.910000   11.743770   -46.124007
 0.915000   11.492601   -55.969184
 0.920000   11.184078   -69.350296
 0.925000   10.799098   -86.850143
 0.930000   10.315576   -108.263455
 0.935000   9.716463   -132.473117
 0.940000   8.990845   -157.540417
 0.945000   8.141059   -180.280557
 0.950000   7.188040   -196.835316
 0.955000   6.172706   -203.676213
 0.960000   5.151277   -198.849325
 0.965000   4.184212   -182.972322
 0.970000   3.321554   -158.988714
 0.975000   2.594325   -131.005734
 0.980000   2.011497   -103.175465
 0.985000   1.562571   -78.625119
 0.990000   1.225246   -58.759274
 0.995000   0.974978   -44.000630
 1.000000   0.785239   -31.894794
201 psinorm omeg(kRad/s) domeg/dpsiN
 0.000000   62.066792   0.037308
 0.005000   62.066313   -0.229064
 0.010000   62.064502   -0.558858
 0.015000   62.060724   -1.031155
 0.020000   62.054190   -1.674280
 0.025000   62.043982   -2.511645
 0.030000   62.029074   -3.561213
 0.035000   62.008369   -4.832677
 0.040000   61.980747   -6.315018
 0.045000   61.945219   -7.990103
 0.050000   61.900846   -9.840529
 0.055000   61.846814   -11.836344
 0.060000   61.782482   -13.940320
 0.065000   61.707411   -16.109366
 0.070000   61.621389   -18.240624
 0.075000   61.525004   -20.313538
 0.080000   61.418253   -22.378354
 0.085000   61.301221   -24.416554
 0.090000   61.174088   -26.423424
 0.095000   61.036987   -28.408884
 0.100000   60.889999   -30.328543
 0.105000   60.733701   -32.195805
 0.110000   60.568041   -34.057364
 0.115000   60.393128   -35.880721
 0.120000   60.209234   -37.663987
 0.125000   60.016488   -39.443988
 0.130000   59.814794   -41.253690
 0.135000   59.603951   -43.138888
 0.140000   59.383405   -45.100261
 0.145000   59.152948   -47.085580
 0.150000   58.912549   -49.079752
 0.155000   58.662151   -51.089681
 0.160000   58.401652   -53.120340
 0.165000   58.130947   -55.159746
 0.170000   57.850055   -57.172898
 0.175000   57.559218   -59.127565
 0.180000   57.258779   -61.008570
 0.185000   56.949133   -62.806737
 0.190000   56.630712   -64.505708
 0.195000   56.304076   -66.088705
 0.200000   55.969825   -67.561880
 0.205000   55.628457   -68.905600
 0.210000   55.280769   -70.077842
 0.215000   54.927678   -71.058312
 0.220000   54.570186   -71.813295
 0.225000   54.209545   -72.298252
 0.230000   53.847203   -72.604291
 0.235000   53.483502   -72.799366
 0.240000   53.119210   -72.851063
 0.245000   52.754992   -72.778096
 0.250000   52.391429   -72.580775
 0.255000   52.029184   -72.201710
 0.260000   51.669412   -71.707478
 0.265000   51.312109   -71.159035
 0.270000   50.957821   -70.516757
 0.275000   50.606942   -69.809912
 0.280000   50.259722   -69.061901
 0.285000   49.916323   -68.274674
 0.290000   49.576975   -67.542271
 0.295000   49.240900   -66.901208
 0.300000   48.907963   -66.267514
 0.305000   48.578225   -65.597392
 0.310000   48.251989   -64.838224
 0.315000   47.929843   -63.909179
 0.320000   47.612898   -62.812077
 0.325000   47.301722   -61.597559
 0.330000   46.996922   -60.268346
 0.335000   46.699038   -58.838892
 0.340000   46.408533   -57.325529
 0.345000   46.125783   -55.694835
 0.350000   45.851585   -54.014304
 0.355000   45.585640   -52.367518
 0.360000   45.327909   -50.728829
 0.365000   45.078352   -49.105254
 0.370000   44.836857   -47.509679
 0.375000   44.603255   -45.936069
 0.380000   44.377496   -44.410487
 0.385000   44.159150   -42.937338
 0.390000   43.948123   -41.470870
 0.395000   43.744441   -39.998611
 0.400000   43.548137   -38.522831
 0.405000   43.359213   -37.037204
 0.410000   43.177765   -35.592406
 0.415000   43.003289   -34.292544
 0.420000   42.834839   -33.192426
 0.425000   42.671365   -32.302084
 0.430000   42.511818   -31.609357
 0.435000   42.355271   -31.157211
 0.440000   42.200246   -30.906417
 0.445000   42.046207   -30.658116
 0.450000   41.893665   -30.332030
 0.455000   41.742887   -29.933477
 0.460000   41.594330   -29.428638
 0.465000   41.448600   -28.846391
 0.470000   41.305866   -28.155237
 0.475000   41.167048   -27.223170
 0.480000   41.033635   -26.076557
 0.485000   40.906282   -24.817896
 0.490000   40.785456   -23.489324
 0.495000   40.671389   -22.142632
 0.500000   40.564030   -20.807357
 0.505000   40.463316   -19.518394
 0.510000   40.368846   -18.356313
 0.515000   40.279753   -17.388800
 0.520000   40.194958   -16.650714
 0.525000   40.113245   -16.156816
 0.530000   40.033389   -15.903825
 0.535000   39.954207   -15.914328
 0.540000   39.874246   -16.194193
 0.545000   39.792265   -16.719273
 0.550000   39.707053   -17.484505
 0.555000   39.617420   -18.485841
 0.560000   39.522195   -19.725969
 0.565000   39.420160   -21.227670
 0.570000   39.309918   -23.001660
 0.575000   39.190144   -25.046867
 0.580000   39.059450   -27.376700
 0.585000   38.916377   -30.007697
 0.590000   38.759373   -32.996045
 0.595000   38.586416   -36.290298
 0.600000   38.396470   -39.807536
 0.605000   38.188341   -43.547353
 0.610000   37.960996   -47.474594
 0.615000   37.713595   -51.546849
 0.620000   37.445528   -55.738179
 0.625000   37.156213   -59.939134
 0.630000   36.846136   -64.052422
 0.635000   36.515689   -68.056870
 0.640000   36.165568   -71.890349
 0.645000   35.796786   -75.490874
 0.650000   35.410659   -78.744629
 0.655000   35.009339   -81.619901
 0.660000   34.594460   -84.175470
 0.665000   34.167585   -86.433578
 0.670000   33.730124   -88.433374
 0.675000   33.283251   -90.221307
 0.680000   32.827911   -91.841774
 0.685000   32.364833   -93.345561
 0.690000   31.894455   -94.650099
 0.695000   31.418332   -95.564743
 0.700000   30.938808   -95.973853
 0.705000   30.458594   -95.835306
 0.710000   29.980455   -95.161362
 0.715000   29.506980   -94.060074
 0.720000   29.039854   -92.638647
 0.725000   28.580594   -90.910243
 0.730000   28.130752   -88.883510
 0.735000   27.691758   -86.583527
 0.740000   27.264916   -84.039178
 0.745000   26.851367   -81.291960
 0.750000   26.451997   -78.364784
 0.755000   26.067719   -75.279477
 0.760000   25.699202   -72.106250
 0.765000   25.346656   -68.935078
 0.770000   25.009851   -65.911926
 0.775000   24.687537   -63.077727
 0.780000   24.379074   -60.172601
 0.785000   24.085811   -57.073759
 0.790000   23.808336   -53.887029
 0.795000   23.546941   -50.686432
 0.800000   23.301472   -47.597072
 0.805000   23.070970   -44.744513
 0.810000   22.854027   -42.202783
 0.815000   22.648942   -40.163737
 0.820000   22.452390   -38.876193
 0.825000   22.260180   -38.509528
 0.830000   22.067294   -39.251105
 0.835000   21.867669   -41.329460
 0.840000   21.654000   -44.802945
 0.845000   21.419640   -49.738411
 0.850000   21.156616   -56.346603
 0.855000   20.856174   -64.791573
 0.860000   20.508700   -75.311293
 0.865000   20.103061   -88.470355
 0.870000   19.623996   -104.242564
 0.875000   19.060635   -122.318117
 0.880000   18.400815   -142.657405
 0.885000   17.634061   -164.771063
 0.890000   16.753105   -187.856560
 0.895000   15.755496   -211.421283
 0.900000   14.638892   -233.247159
 0.905000   13.423024   -250.982571
 0.910000   12.129066   -263.664948
 0.915000   10.786374   -269.779585
 0.920000   9.431270   -268.160228
 0.925000   8.104772   -258.244540
 0.930000   6.848825   -239.805351
 0.935000   5.706719   -213.727695
 0.940000   4.711548   -181.991486
 0.945000   3.886804   -146.756773
 0.950000   3.243980   -110.559612
 0.955000   2.781208   -75.916913
 0.960000   2.484811   -45.469147
 0.965000   2.326516   -21.159966
 0.970000   2.273211   -3.557507
 0.975000   2.290941   7.494989
 0.980000   2.348161   12.725019
 0.985000   2.418191   13.186533
 0.990000   2.480027   10.189910
 0.995000   2.520090   5.007423
 1.000000   2.530101   -1.003312
201 psinorm omegp(kRad/s) domegp/dpsiN
 0.000000   0.003699   135.764298
 0.005000   0.551586   83.390707
 0.010000   0.837606   54.770174
 0.015000   1.099288   51.554416
 0.020000   1.353150   49.992232
 0.025000   1.599210   47.977400
 0.030000   1.832924   44.831625
 0.035000   2.047526   41.424086
 0.040000   2.247165   38.287233
 0.045000   2.430399   35.149554
 0.050000   2.598660   32.444392
 0.055000   2.754843   30.445322
 0.060000   2.903113   29.114378
 0.065000   3.045986   28.264244
 0.070000   3.185756   27.702259
 0.075000   3.323009   27.095539
 0.080000   3.456711   26.442764
 0.085000   3.587437   25.626812
 0.090000   3.712979   24.592074
 0.095000   3.833357   23.410080
 0.100000   3.947080   22.029141
 0.105000   4.053649   20.652883
 0.110000   4.153609   19.265094
 0.115000   4.246300   17.918803
 0.120000   4.332797   16.656440
 0.125000   4.412864   15.657103
 0.130000   4.489368   14.861541
 0.135000   4.561480   14.174942
 0.140000   4.631117   13.644549
 0.145000   4.697925   13.227594
 0.150000   4.763393   12.735644
 0.155000   4.825281   12.011674
 0.160000   4.883510   11.180269
 0.165000   4.937084   10.146179
 0.170000   4.984972   8.989687
 0.175000   5.026981   7.630670
 0.180000   5.061279   6.210522
 0.185000   5.089086   4.762292
 0.190000   5.108902   3.286472
 0.195000   5.121951   1.949655
 0.200000   5.128398   0.618691
 0.205000   5.128138   -0.555995
 0.210000   5.122838   -1.559645
 0.215000   5.112541   -2.393762
 0.220000   5.098901   -3.079971
 0.225000   5.081742   -3.816086
 0.230000   5.060740   -4.432916
 0.235000   5.037413   -5.095223
 0.240000   5.009787   -5.917869
 0.245000   4.978234   -6.708525
 0.250000   4.942702   -7.609906
 0.255000   4.902135   -8.543927
 0.260000   4.857263   -9.478372
 0.265000   4.807351   -10.512620
 0.270000   4.752137   -11.442665
 0.275000   4.692924   -12.357117
 0.280000   4.628566   -13.388058
 0.285000   4.559044   -14.348679
 0.290000   4.485079   -15.398633
 0.295000   4.405058   -16.653846
 0.300000   4.318540   -17.945157
 0.305000   4.225606   -19.374126
 0.310000   4.124799   -20.983524
 0.315000   4.015771   -22.648684
 0.320000   3.898312   -24.469679
 0.325000   3.771074   -26.351314
 0.330000   3.634799   -28.030793
 0.335000   3.490766   -29.527444
 0.340000   3.339525   -30.816955
 0.345000   3.182596   -31.724093
 0.350000   3.022284   -32.183196
 0.355000   2.860764   -32.235686
 0.360000   2.699927   -31.964162
 0.365000   2.541123   -31.508716
 0.370000   2.384840   -30.943123
 0.375000   2.231692   -30.260319
 0.380000   2.082236   -29.545367
 0.385000   1.936238   -29.117507
 0.390000   1.791061   -29.029913
 0.395000   1.645939   -29.123814
 0.400000   1.499823   -29.342586
 0.405000   1.352513   -29.584486
 0.410000   1.203978   -30.006540
 0.415000   1.052448   -31.059058
 0.420000   0.893388   -33.125259
 0.425000   0.721195   -36.351634
 0.430000   0.529871   -40.777663
 0.435000   0.313418   -46.500349
 0.440000   0.064868   -53.886553
 0.445000   -0.225447   -61.778922
 0.450000   -0.552921   -69.127278
 0.455000   -0.916720   -76.096923
 0.460000   -1.313890   -82.224742
 0.465000   -1.738967   -87.095786
 0.470000   -2.184848   -89.973789
 0.475000   -2.638705   -90.146184
 0.480000   -3.086310   -87.784411
 0.485000   -3.516549   -83.349225
 0.490000   -3.919802   -77.261276
 0.495000   -4.289162   -69.459440
 0.500000   -4.614397   -60.347481
 0.505000   -4.892637   -51.618492
 0.510000   -5.130582   -43.939214
 0.515000   -5.332029   -37.112578
 0.520000   -5.501707   -31.391546
 0.525000   -5.645945   -26.990538
 0.530000   -5.771613   -24.231646
 0.535000   -5.888261   -22.967248
 0.540000   -6.001285   -22.572621
 0.545000   -6.113987   -22.661478
 0.550000   -6.227900   -22.983641
 0.555000   -6.343824   -23.618848
 0.560000   -6.464089   -24.349090
 0.565000   -6.587315   -24.678216
 0.570000   -6.710871   -24.536270
 0.575000   -6.832677   -24.022444
 0.580000   -6.951095   -23.079018
 0.585000   -7.063467   -21.646871
 0.590000   -7.167564   -19.693316
 0.595000   -7.260401   -17.391146
 0.600000   -7.341475   -14.920703
 0.605000   -7.409608   -12.347673
 0.610000   -7.464952   -9.889407
 0.615000   -7.508502   -7.563432
 0.620000   -7.540586   -5.458625
 0.625000   -7.563088   -3.702359
 0.630000   -7.577610   -2.305685
 0.635000   -7.586145   -1.181738
 0.640000   -7.589427   -0.234590
 0.645000   -7.588491   0.488824
 0.650000   -7.584539   1.008776
 0.655000   -7.578403   1.441282
 0.660000   -7.570126   1.850540
 0.665000   -7.559898   2.187160
 0.670000   -7.548255   2.470175
 0.675000   -7.535196   2.753882
 0.680000   -7.520716   3.016126
 0.685000   -7.505035   3.214419
 0.690000   -7.488572   3.404688
 0.695000   -7.470988   3.622677
 0.700000   -7.452345   3.833545
 0.705000   -7.432652   4.027962
 0.710000   -7.412065   4.207251
 0.715000   -7.390580   4.337357
 0.720000   -7.368692   4.334635
 0.725000   -7.347233   4.176298
 0.730000   -7.326929   3.848678
 0.735000   -7.308747   3.300676
 0.740000   -7.293922   2.518841
 0.745000   -7.283558   1.575375
 0.750000   -7.278168   0.546635
 0.755000   -7.278092   -0.513386
 0.760000   -7.283302   -1.484470
 0.765000   -7.292936   -2.283412
 0.770000   -7.306136   -2.945571
 0.775000   -7.322392   -3.582527
 0.780000   -7.341962   -4.305487
 0.785000   -7.365447   -5.235107
 0.790000   -7.394313   -6.691915
 0.795000   -7.432366   -8.832739
 0.800000   -7.482640   -11.522665
 0.805000   -7.547593   -14.689661
 0.810000   -7.629537   -18.249103
 0.815000   -7.730084   -21.996123
 0.820000   -7.849498   -25.649935
 0.825000   -7.986583   -28.602329
 0.830000   -8.135521   -30.520153
 0.835000   -8.291785   -31.354004
 0.840000   -8.449061   -30.802194
 0.845000   -8.599807   -28.752613
 0.850000   -8.736587   -25.331494
 0.855000   -8.853122   -20.736963
 0.860000   -8.943957   -15.316702
 0.865000   -9.006289   -9.593573
 0.870000   -9.039893   -4.154562
 0.875000   -9.047834   0.864671
 0.880000   -9.031246   5.394663
 0.885000   -8.993888   9.220425
 0.890000   -8.939042   12.391434
 0.895000   -8.869973   14.947281
 0.900000   -8.789569   16.894354
 0.905000   -8.701030   18.473744
 0.910000   -8.604831   19.775466
 0.915000   -8.503275   20.453729
 0.920000   -8.400294   20.736145
 0.925000   -8.295914   22.233962
 0.930000   -8.177955   24.226526
 0.935000   -8.053648   25.344531
 0.940000   -7.924509   26.046531
 0.945000   -7.793183   26.000305
 0.950000   -7.664506   22.323683
 0.955000   -7.569946   12.634793
 0.960000   -7.538158   -1.110997
 0.965000   -7.581056   -11.974622
 0.970000   -7.657904   4.704709
 0.975000   -7.534009   88.092554
 0.980000   -6.776979   267.286819
 0.985000   -4.861141   524.732584
 0.990000   -1.529653   763.288565
 0.995000   2.771745   825.412518
 1.000000   6.724472   755.678450
201 psinorm omgvb(kRad/s) domgvb/dpsiN
 0.000000   62.070491   135.801606
 0.005000   62.617899   83.161644
 0.010000   62.902107   54.211316
 0.015000   63.160012   50.523261
 0.020000   63.407340   48.317952
 0.025000   63.643192   45.465755
 0.030000   63.861997   41.270411
 0.035000   64.055896   36.591409
 0.040000   64.227912   31.972215
 0.045000   64.375618   27.159451
 0.050000   64.499506   22.603862
 0.055000   64.601657   18.608977
 0.060000   64.685596   15.174058
 0.065000   64.753397   12.154878
 0.070000   64.807145   9.461634
 0.075000   64.848013   6.782002
 0.080000   64.874965   4.064410
 0.085000   64.888658   1.210258
 0.090000   64.887067   -1.831350
 0.095000   64.870344   -4.998804
 0.100000   64.837079   -8.299402
 0.105000   64.787350   -11.542922
 0.110000   64.721650   -14.792270
 0.115000   64.639427   -17.961918
 0.120000   64.542031   -21.007547
 0.125000   64.429352   -23.786885
 0.130000   64.304162   -26.392149
 0.135000   64.165430   -28.963947
 0.140000   64.014522   -31.455711
 0.145000   63.850873   -33.857986
 0.150000   63.675943   -36.344108
 0.155000   63.487432   -39.078007
 0.160000   63.285163   -41.940071
 0.165000   63.068031   -45.013567
 0.170000   62.835027   -48.183211
 0.175000   62.586199   -51.496896
 0.180000   62.320058   -54.798047
 0.185000   62.038219   -58.044444
 0.190000   61.739613   -61.219235
 0.195000   61.426027   -64.139050
 0.200000   61.098223   -66.943189
 0.205000   60.756595   -69.461595
 0.210000   60.403607   -71.637487
 0.215000   60.040220   -73.452074
 0.220000   59.669086   -74.893266
 0.225000   59.291287   -76.114338
 0.230000   58.907943   -77.037207
 0.235000   58.520915   -77.894588
 0.240000   58.128997   -78.768932
 0.245000   57.733226   -79.486620
 0.250000   57.334131   -80.190681
 0.255000   56.931319   -80.745637
 0.260000   56.526674   -81.185849
 0.265000   56.119460   -81.671655
 0.270000   55.709958   -81.959423
 0.275000   55.299866   -82.167029
 0.280000   54.888288   -82.449959
 0.285000   54.475367   -82.623353
 0.290000   54.062054   -82.940904
 0.295000   53.645958   -83.555053
 0.300000   53.226504   -84.212671
 0.305000   52.803831   -84.971517
 0.310000   52.376788   -85.821748
 0.315000   51.945613   -86.557863
 0.320000   51.511210   -87.281757
 0.325000   51.072796   -87.948872
 0.330000   50.631721   -88.299138
 0.335000   50.189804   -88.366337
 0.340000   49.748058   -88.142484
 0.345000   49.308380   -87.418928
 0.350000   48.873868   -86.197500
 0.355000   48.446405   -84.603203
 0.360000   48.027836   -82.692991
 0.365000   47.619475   -80.613969
 0.370000   47.221697   -78.452802
 0.375000   46.834947   -76.196388
 0.380000   46.459733   -73.955854
 0.385000   46.095388   -72.054846
 0.390000   45.739184   -70.500783
 0.395000   45.390380   -69.122425
 0.400000   45.047960   -67.865417
 0.405000   44.711726   -66.621690
 0.410000   44.381743   -65.598946
 0.415000   44.055737   -65.351602
 0.420000   43.728227   -66.317685
 0.425000   43.392560   -68.653718
 0.430000   43.041690   -72.387020
 0.435000   42.668690   -77.657560
 0.440000   42.265114   -84.792971
 0.445000   41.820760   -92.437039
 0.450000   41.340744   -99.459307
 0.455000   40.826167   -106.030400
 0.460000   40.280440   -111.653379
 0.465000   39.709633   -115.942178
 0.470000   39.121018   -118.129026
 0.475000   38.528343   -117.369354
 0.480000   37.947325   -113.860968
 0.485000   37.389733   -108.167120
 0.490000   36.865653   -100.750600
 0.495000   36.382227   -91.602071
 0.500000   35.949633   -81.154839
 0.505000   35.570679   -71.136886
 0.510000   35.238264   -62.295526
 0.515000   34.947723   -54.501378
 0.520000   34.693250   -48.042260
 0.525000   34.467301   -43.147354
 0.530000   34.261777   -40.135471
 0.535000   34.065946   -38.881576
 0.540000   33.872961   -38.766814
 0.545000   33.678278   -39.380751
 0.550000   33.479153   -40.468145
 0.555000   33.273597   -42.104689
 0.560000   33.058106   -44.075059
 0.565000   32.832846   -45.905886
 0.570000   32.599048   -47.537930
 0.575000   32.357467   -49.069311
 0.580000   32.108354   -50.455718
 0.585000   31.852909   -51.654568
 0.590000   31.591809   -52.689361
 0.595000   31.326016   -53.681445
 0.600000   31.054994   -54.728240
 0.605000   30.778733   -55.895025
 0.610000   30.496044   -57.364002
 0.615000   30.205093   -59.110281
 0.620000   29.904941   -61.196804
 0.625000   29.593125   -63.641493
 0.630000   29.268526   -66.358107
 0.635000   28.929544   -69.238608
 0.640000   28.576140   -72.124939
 0.645000   28.208295   -75.002050
 0.650000   27.826120   -77.735853
 0.655000   27.430936   -80.178619
 0.660000   27.024334   -82.324930
 0.665000   26.607687   -84.246418
 0.670000   26.181869   -85.963199
 0.675000   25.748055   -87.467425
 0.680000   25.307195   -88.825648
 0.685000   24.859799   -90.131143
 0.690000   24.405884   -91.245412
 0.695000   23.947345   -91.942066
 0.700000   23.486463   -92.140308
 0.705000   23.025941   -91.807344
 0.710000   22.568390   -90.954111
 0.715000   22.116400   -89.722717
 0.720000   21.671162   -88.304013
 0.725000   21.233360   -86.733945
 0.730000   20.803823   -85.034832
 0.735000   20.383012   -83.282850
 0.740000   19.970994   -81.520337
 0.745000   19.567809   -79.716585
 0.750000   19.173829   -77.818150
 0.755000   18.789627   -75.792863
 0.760000   18.415900   -73.590720
 0.765000   18.053720   -71.218490
 0.770000   17.703715   -68.857497
 0.775000   17.365145   -66.660254
 0.780000   17.037113   -64.478088
 0.785000   16.720364   -62.308867
 0.790000   16.414024   -60.578943
 0.795000   16.114575   -59.519171
 0.800000   15.818832   -59.119737
 0.805000   15.523377   -59.434174
 0.810000   15.224490   -60.451886
 0.815000   14.918858   -62.159860
 0.820000   14.602892   -64.526129
 0.825000   14.273597   -67.111857
 0.830000   13.931773   -69.771258
 0.835000   13.575884   -72.683464
 0.840000   13.204939   -75.605139
 0.845000   12.819833   -78.491024
 0.850000   12.420028   -81.678098
 0.855000   12.003052   -85.528536
 0.860000   11.564743   -90.627995
 0.865000   11.096772   -98.063929
 0.870000   10.584104   -108.397126
 0.875000   10.012801   -121.453446
 0.880000   9.369569   -137.262742
 0.885000   8.640173   -155.550638
 0.890000   7.814063   -175.465126
 0.895000   6.885522   -196.474002
 0.900000   5.849323   -216.352805
 0.905000   4.721994   -232.508828
 0.910000   3.524235   -243.889482
 0.915000   2.283099   -249.325856
 0.920000   1.030976   -247.424083
 0.925000   -0.191142   -236.010578
 0.930000   -1.329130   -215.578825
 0.935000   -2.346930   -188.383164
 0.940000   -3.212961   -155.944954
 0.945000   -3.906379   -120.756468
 0.950000   -4.420526   -88.235929
 0.955000   -4.788739   -63.282120
 0.960000   -5.053347   -46.580144
 0.965000   -5.254540   -33.134587
 0.970000   -5.384693   1.147203
 0.975000   -5.243068   95.587543
 0.980000   -4.428818   280.011838
 0.985000   -2.442950   537.919117
 0.990000   0.950373   773.478475
 0.995000   5.291835   830.419940
 1.000000   9.254573   754.675138
201 psinorm omgpp(kRad/s) domgpp/dpsiN
 0.000000   -0.037682   -18.764137
 0.005000   -0.152630   -27.215103
 0.010000   -0.309833   -31.896130
 0.015000   -0.471592   -32.777745
 0.020000   -0.637611   -33.589528
 0.025000   -0.807487   -34.321605
 0.030000   -0.980827   -34.984392
 0.035000   -1.157331   -35.571346
 0.040000   -1.336540   -36.067058
 0.045000   -1.518002   -36.470338
 0.050000   -1.701244   -36.769259
 0.055000   -1.885694   -36.945922
 0.060000   -2.070703   -36.998968
 0.065000   -2.255684   -36.862854
 0.070000   -2.439332   -36.497568
 0.075000   -2.620660   -35.951393
 0.080000   -2.798845   -35.213704
 0.085000   -2.972797   -34.244224
 0.090000   -3.141288   -33.378388
 0.095000   -3.306580   -32.558751
 0.100000   -3.466875   -31.520908
 0.105000   -3.621790   -30.416305
 0.110000   -3.771038   -29.234437
 0.115000   -3.914134   -27.927017
 0.120000   -4.050308   -27.040952
 0.125000   -4.184543   -26.466842
 0.130000   -4.314977   -25.660748
 0.135000   -4.441151   -24.730515
 0.140000   -4.562282   -23.605269
 0.145000   -4.677204   -22.234328
 0.150000   -4.784625   -20.850358
 0.155000   -4.885707   -19.489708
 0.160000   -4.979522   -17.986829
 0.165000   -5.065575   -16.384181
 0.170000   -5.143364   -14.685357
 0.175000   -5.212429   -12.732772
 0.180000   -5.270692   -10.892019
 0.185000   -5.321349   -9.287417
 0.190000   -5.363566   -7.612774
 0.195000   -5.397477   -5.993328
 0.200000   -5.423499   -4.487925
 0.205000   -5.442356   -3.153651
 0.210000   -5.455036   -2.363648
 0.215000   -5.465993   -1.897511
 0.220000   -5.474011   -1.313133
 0.225000   -5.479124   -0.747914
 0.230000   -5.481490   -0.208754
 0.235000   -5.481212   -0.076149
 0.240000   -5.482252   0.212640
 0.245000   -5.479085   1.198141
 0.250000   -5.470270   2.342468
 0.255000   -5.455660   3.624009
 0.260000   -5.434030   5.130753
 0.265000   -5.404353   6.560786
 0.270000   -5.368422   8.312592
 0.275000   -5.321227   10.522901
 0.280000   -5.263193   12.528457
 0.285000   -5.195942   14.361327
 0.290000   -5.119580   16.169556
 0.295000   -5.034247   18.081848
 0.300000   -4.938761   20.260366
 0.305000   -4.831643   22.231915
 0.310000   -4.716442   23.578680
 0.315000   -4.595856   24.347179
 0.320000   -4.472971   24.541275
 0.325000   -4.350444   24.359946
 0.330000   -4.229371   23.765743
 0.335000   -4.112786   22.872461
 0.340000   -4.000646   22.141276
 0.345000   -3.891373   21.586140
 0.350000   -3.784785   21.075520
 0.355000   -3.680618   20.466625
 0.360000   -3.580119   19.683088
 0.365000   -3.483787   19.532880
 0.370000   -3.384790   19.844236
 0.375000   -3.285345   20.044225
 0.380000   -3.184348   20.477117
 0.385000   -3.080574   21.139355
 0.390000   -2.972954   22.214227
 0.395000   -2.858432   23.710789
 0.400000   -2.735846   24.881798
 0.405000   -2.609614   25.451801
 0.410000   -2.481328   25.688868
 0.415000   -2.352725   25.615786
 0.420000   -2.225170   25.548625
 0.425000   -2.097239   24.663505
 0.430000   -1.978535   23.152268
 0.435000   -1.865716   21.930226
 0.440000   -1.759233   20.634792
 0.445000   -1.659368   19.299620
 0.450000   -1.566237   18.220250
 0.455000   -1.477166   16.714085
 0.460000   -1.399096   14.896204
 0.465000   -1.328204   13.462831
 0.470000   -1.264468   12.035966
 0.475000   -1.207844   10.611235
 0.480000   -1.158355   9.122594
 0.485000   -1.116618   7.608167
 0.490000   -1.082274   6.357670
 0.495000   -1.053041   5.433066
 0.500000   -1.027943   4.661465
 0.505000   -1.006427   3.967293
 0.510000   -0.988270   3.358360
 0.515000   -0.972843   2.646903
 0.520000   -0.961801   1.741245
 0.525000   -0.955431   0.824332
 0.530000   -0.953558   -0.066983
 0.535000   -0.956100   -0.943276
 0.540000   -0.962991   -1.726266
 0.545000   -0.973363   -2.561440
 0.550000   -0.988605   -3.512872
 0.555000   -1.008492   -4.399777
 0.560000   -1.032603   -5.239052
 0.565000   -1.060882   -6.065665
 0.570000   -1.093259   -6.878581
 0.575000   -1.129668   -7.721223
 0.580000   -1.170472   -8.543651
 0.585000   -1.215105   -9.275203
 0.590000   -1.263224   -9.947556
 0.595000   -1.314580   -10.568008
 0.600000   -1.368904   -11.209875
 0.605000   -1.426679   -11.823920
 0.610000   -1.487143   -12.219167
 0.615000   -1.548871   -12.496122
 0.620000   -1.612104   -12.758781
 0.625000   -1.676458   -12.941967
 0.630000   -1.741524   -13.120626
 0.635000   -1.807665   -13.229789
 0.640000   -1.873822   -13.001019
 0.645000   -1.937675   -12.611141
 0.650000   -1.999933   -12.238405
 0.655000   -2.060059   -11.767431
 0.660000   -2.117607   -11.253859
 0.665000   -2.172597   -10.757403
 0.670000   -2.225181   -10.170854
 0.675000   -2.274306   -9.621401
 0.680000   -2.321395   -9.336939
 0.685000   -2.367675   -9.313269
 0.690000   -2.414528   -9.658508
 0.695000   -2.464260   -10.595903
 0.700000   -2.520487   -11.074669
 0.705000   -2.575007   -11.058412
 0.710000   -2.631071   -11.310730
 0.715000   -2.688114   -11.412197
 0.720000   -2.745193   -11.371644
 0.725000   -2.801831   -11.719583
 0.730000   -2.862389   -10.696108
 0.735000   -2.908792   -8.412312
 0.740000   -2.946512   -6.442264
 0.745000   -2.973215   -4.008176
 0.750000   -2.986594   -1.135992
 0.755000   -2.984575   2.424624
 0.760000   -2.962348   6.465242
 0.765000   -2.919922   10.116250
 0.770000   -2.861185   13.253850
 0.775000   -2.787384   16.053710
 0.780000   -2.700648   18.348229
 0.785000   -2.603901   20.763607
 0.790000   -2.493012   21.499327
 0.795000   -2.388908   20.478953
 0.800000   -2.288223   19.696662
 0.805000   -2.191941   18.633039
 0.810000   -2.101892   17.237936
 0.815000   -2.019562   15.507659
 0.820000   -1.946816   13.437800
 0.825000   -1.885184   11.832227
 0.830000   -1.828493   10.962502
 0.835000   -1.775559   10.217445
 0.840000   -1.726319   9.435206
 0.845000   -1.681207   8.412243
 0.850000   -1.642196   7.171796
 0.855000   -1.609489   5.664265
 0.860000   -1.585554   3.657128
 0.865000   -1.572918   1.175060
 0.870000   -1.573803   -1.748990
 0.875000   -1.590408   -5.685667
 0.880000   -1.630660   -10.205868
 0.885000   -1.692466   -14.277338
 0.890000   -1.773433   -19.000861
 0.895000   -1.882475   -25.319374
 0.900000   -2.026627   -33.146761
 0.905000   -2.213943   -44.383090
 0.910000   -2.470458   -58.700199
 0.915000   -2.800945   -72.169279
 0.920000   -3.192151   -88.644444
 0.925000   -3.687389   -114.481640
 0.930000   -4.336967   -153.586020
 0.935000   -5.223249   -217.522716
 0.940000   -6.512194   -316.208951
 0.945000   -8.385339   -433.764031
 0.950000   -10.849835   -559.683652
 0.955000   -13.982175   -677.158415
 0.960000   -17.621419   -737.398299
 0.965000   -21.356158   -697.138087
 0.970000   -24.592800   -517.785922
 0.975000   -26.534017   -183.227670
 0.980000   -26.425076   207.441097
 0.985000   -24.459606   532.037101
 0.990000   -21.104705   732.946877
 0.995000   -17.130138   779.604582
 1.000000   -13.308659   748.986746
201 psinorm omgeb(kRad/s) domgeb/dpsiN
 0.000000   62.032808   117.037469
 0.005000   62.465269   55.946541
 0.010000   62.592274   22.315185
 0.015000   62.688420   17.745516
 0.020000   62.769729   14.728424
 0.025000   62.835705   11.144150
 0.030000   62.881171   6.286020
 0.035000   62.898565   1.020063
 0.040000   62.891371   -4.094843
 0.045000   62.857616   -9.310887
 0.050000   62.798262   -14.165397
 0.055000   62.715962   -18.336944
 0.060000   62.614893   -21.824910
 0.065000   62.497713   -24.707976
 0.070000   62.367813   -27.035933
 0.075000   62.227354   -29.169392
 0.080000   62.076119   -31.149294
 0.085000   61.915861   -33.033966
 0.090000   61.745780   -35.209739
 0.095000   61.563764   -37.557555
 0.100000   61.370204   -39.820310
 0.105000   61.165561   -41.959227
 0.110000   60.950612   -44.026707
 0.115000   60.725293   -45.888935
 0.120000   60.491722   -48.048499
 0.125000   60.244808   -50.253728
 0.130000   59.989185   -52.052897
 0.135000   59.724280   -53.694462
 0.140000   59.452240   -55.060981
 0.145000   59.173670   -56.092314
 0.150000   58.891317   -57.194466
 0.155000   58.601725   -58.567715
 0.160000   58.305640   -59.926900
 0.165000   58.002456   -61.397748
 0.170000   57.691663   -62.868568
 0.175000   57.373770   -64.229668
 0.180000   57.049366   -65.690066
 0.185000   56.716870   -67.331862
 0.190000   56.376047   -68.832009
 0.195000   56.028550   -70.132378
 0.200000   55.674724   -71.431114
 0.205000   55.314238   -72.615246
 0.210000   54.948571   -74.001135
 0.215000   54.574227   -75.349584
 0.220000   54.195075   -76.206399
 0.225000   53.812163   -76.862252
 0.230000   53.426453   -77.245961
 0.235000   53.039704   -77.970737
 0.240000   52.646745   -78.556292
 0.245000   52.254141   -78.288479
 0.250000   51.863861   -77.848213
 0.255000   51.475658   -77.121628
 0.260000   51.092644   -76.055096
 0.265000   50.715107   -75.110870
 0.270000   50.341536   -73.646830
 0.275000   49.978639   -71.644128
 0.280000   49.625094   -69.921501
 0.285000   49.279424   -68.262026
 0.290000   48.942474   -66.771347
 0.295000   48.611711   -65.473206
 0.300000   48.287742   -63.952305
 0.305000   47.972188   -62.739603
 0.310000   47.660346   -62.243069
 0.315000   47.349757   -62.210683
 0.320000   47.038239   -62.740482
 0.325000   46.722352   -63.588926
 0.330000   46.402350   -64.533395
 0.335000   46.077018   -65.493876
 0.340000   45.747411   -66.001208
 0.345000   45.417006   -65.832788
 0.350000   45.089083   -65.121980
 0.355000   44.765786   -64.136579
 0.360000   44.447718   -63.009903
 0.365000   44.135687   -61.081089
 0.370000   43.836907   -58.608565
 0.375000   43.549602   -56.152164
 0.380000   43.275385   -53.478737
 0.385000   43.014814   -50.915491
 0.390000   42.766230   -48.286557
 0.395000   42.531949   -45.411637
 0.400000   42.312114   -42.983619
 0.405000   42.102113   -41.169889
 0.410000   41.900415   -39.910078
 0.415000   41.703012   -39.735816
 0.420000   41.503057   -40.769060
 0.425000   41.295321   -43.990214
 0.430000   41.063155   -49.234752
 0.435000   40.802974   -55.727333
 0.440000   40.505881   -64.158179
 0.445000   40.161392   -73.137419
 0.450000   39.774507   -81.239057
 0.455000   39.349001   -89.316315
 0.460000   38.881344   -96.757176
 0.465000   38.381429   -102.479347
 0.470000   37.856550   -106.093060
 0.475000   37.320499   -106.758119
 0.480000   36.788969   -104.738374
 0.485000   36.273115   -100.558953
 0.490000   35.783380   -94.392930
 0.495000   35.329186   -86.169005
 0.500000   34.921690   -76.493374
 0.505000   34.564252   -67.169593
 0.510000   34.249994   -58.937166
 0.515000   33.974880   -51.854475
 0.520000   33.731449   -46.301015
 0.525000   33.511870   -42.323023
 0.530000   33.308219   -40.202453
 0.535000   33.109846   -39.824852
 0.540000   32.909970   -40.493080
 0.545000   32.704915   -41.942190
 0.550000   32.490548   -43.981017
 0.555000   32.265105   -46.504466
 0.560000   32.025504   -49.314112
 0.565000   31.771964   -51.971551
 0.570000   31.505788   -54.416511
 0.575000   31.227799   -56.790535
 0.580000   30.937883   -58.999369
 0.585000   30.637805   -60.929771
 0.590000   30.328585   -62.636918
 0.595000   30.011436   -64.249452
 0.600000   29.686091   -65.938115
 0.605000   29.352055   -67.718945
 0.610000   29.008901   -69.583168
 0.615000   28.656223   -71.606402
 0.620000   28.292837   -73.955586
 0.625000   27.916667   -76.583460
 0.630000   27.527002   -79.478733
 0.635000   27.121880   -82.468397
 0.640000   26.702318   -85.125958
 0.645000   26.270620   -87.613191
 0.650000   25.826187   -89.974258
 0.655000   25.370878   -91.946050
 0.660000   24.906726   -93.578789
 0.665000   24.435090   -95.003822
 0.670000   23.956688   -96.134053
 0.675000   23.473749   -97.088826
 0.680000   22.985800   -98.162587
 0.685000   22.492123   -99.444411
 0.690000   21.991355   -100.903919
 0.695000   21.483084   -102.537969
 0.700000   20.965976   -103.214976
 0.705000   20.450934   -102.865756
 0.710000   19.937318   -102.264841
 0.715000   19.428286   -101.134914
 0.720000   18.925969   -99.675657
 0.725000   18.431529   -98.453528
 0.730000   17.941434   -95.730940
 0.735000   17.474220   -91.695163
 0.740000   17.024482   -87.962602
 0.745000   16.594594   -83.724761
 0.750000   16.187235   -78.954142
 0.755000   15.805052   -73.368239
 0.760000   15.453552   -67.125478
 0.765000   15.133798   -61.102240
 0.770000   14.842530   -55.603647
 0.775000   14.577761   -50.606543
 0.780000   14.336464   -46.129860
 0.785000   14.116463   -41.545260
 0.790000   13.921012   -39.079616
 0.795000   13.725666   -39.040218
 0.800000   13.530610   -39.423075
 0.805000   13.331436   -40.801136
 0.810000   13.122598   -43.213950
 0.815000   12.899296   -46.652202
 0.820000   12.656076   -51.088328
 0.825000   12.388413   -55.279630
 0.830000   12.103280   -58.808756
 0.835000   11.800325   -62.466019
 0.840000   11.478620   -66.169933
 0.845000   11.138626   -70.078781
 0.850000   10.777832   -74.506301
 0.855000   10.393563   -79.864270
 0.860000   9.979189   -86.970866
 0.865000   9.523854   -96.888868
 0.870000   9.010301   -110.146116
 0.875000   8.422393   -127.139113
 0.880000   7.738909   -147.468611
 0.885000   6.947707   -169.827976
 0.890000   6.040630   -194.465987
 0.895000   5.003047   -221.793376
 0.900000   3.822696   -249.499566
 0.905000   2.508052   -276.891918
 0.910000   1.053777   -302.589681
 0.915000   -0.517845   -321.495135
 0.920000   -2.161175   -336.068527
 0.925000   -3.878531   -350.492218
 0.930000   -5.666097   -369.164845
 0.935000   -7.570179   -405.905879
 0.940000   -9.725156   -472.153905
 0.945000   -12.291718   -554.520499
 0.950000   -15.270361   -647.919581
 0.955000   -18.770914   -740.440535
 0.960000   -22.674766   -783.978443
 0.965000   -26.610698   -730.272674
 0.970000   -29.977493   -516.638719
 0.975000   -31.777085   -87.640127
 0.980000   -30.853894   487.452935
 0.985000   -26.902556   1069.956218
 0.990000   -20.154332   1506.425352
 0.995000   -11.838303   1610.024522
 1.000000   -4.054087   1503.661884
201 psinorm er(kV/m) der/dpsiN
 0.000000   0.735053   1250.432686
 0.005000   5.730900   747.905957
 0.010000   8.214113   438.786753
 0.015000   10.118767   353.722767
 0.020000   11.751341   307.217605
 0.025000   13.190943   273.579800
 0.030000   14.487139   248.790522
 0.035000   15.678849   229.776863
 0.040000   16.784907   213.336006
 0.045000   17.812209   198.572461
 0.050000   18.770632   185.798539
 0.055000   19.670194   175.063395
 0.060000   20.521266   166.757861
 0.065000   21.337773   157.899114
 0.070000   22.100257   147.531134
 0.075000   22.813084   142.003984
 0.080000   23.520297   135.975077
 0.085000   24.172835   127.532408
 0.090000   24.795621   123.561807
 0.095000   25.408453   115.604725
 0.100000   25.951668   110.739126
 0.105000   26.515844   105.960845
 0.110000   27.011276   100.151315
 0.115000   27.517357   95.657112
 0.120000   27.967848   90.386029
 0.125000   28.421218   85.672327
 0.130000   28.824571   81.214158
 0.135000   29.233359   76.584641
 0.140000   29.590417   73.083279
 0.145000   29.964192   68.448742
 0.150000   30.274905   65.860339
 0.155000   30.622795   60.723989
 0.160000   30.882145   57.672767
 0.165000   31.199523   54.336569
 0.170000   31.425510   49.186275
 0.175000   31.691386   48.811453
 0.180000   31.913625   42.074188
 0.185000   32.112128   41.511785
 0.190000   32.328743   35.093643
 0.195000   32.463064   32.686336
 0.200000   32.655606   31.292974
 0.205000   32.775994   25.083417
 0.210000   32.906440   26.284519
 0.215000   33.038839   18.961204
 0.220000   33.096052   17.109858
 0.225000   33.209938   17.223308
 0.230000   33.268285   10.891338
 0.235000   33.318851   12.732673
 0.240000   33.395612   6.719479
 0.245000   33.386046   3.845684
 0.250000   33.434069   8.126975
 0.255000   33.467316   1.154975
 0.260000   33.445619   1.164784
 0.265000   33.478963   3.268644
 0.270000   33.478305   -1.978113
 0.275000   33.459182   0.404251
 0.280000   33.482348   0.383858
 0.285000   33.463021   -3.186324
 0.290000   33.450484   0.174310
 0.295000   33.464764   -1.961248
 0.300000   33.430872   -4.509744
 0.305000   33.419666   -0.660987
 0.310000   33.424262   -4.192161
 0.315000   33.377745   -7.117903
 0.320000   33.353083   -4.434186
 0.325000   33.333403   -8.934829
 0.330000   33.263735   -12.280789
 0.335000   33.210595   -10.297036
 0.340000   33.160764   -13.996015
 0.345000   33.070635   -16.503476
 0.350000   32.995729   -13.919585
 0.355000   32.931439   -15.566212
 0.360000   32.840067   -17.457583
 0.365000   32.756863   -14.685890
 0.370000   32.693208   -14.019196
 0.375000   32.616671   -15.060470
 0.380000   32.542604   -12.489351
 0.385000   32.491778   -10.556538
 0.390000   32.437038   -11.490113
 0.395000   32.376877   -9.425378
 0.400000   32.342785   -6.640610
 0.405000   32.310471   -8.094985
 0.410000   32.261835   -7.833769
 0.415000   32.232133   -6.302212
 0.420000   32.198813   -9.437293
 0.425000   32.137760   -13.147235
 0.430000   32.067340   -16.275862
 0.435000   31.975001   -22.531889
 0.440000   31.842021   -30.762716
 0.445000   31.667374   -37.921550
 0.450000   31.462806   -44.529878
 0.455000   31.222075   -52.700520
 0.460000   30.935801   -59.384236
 0.465000   30.628233   -63.755387
 0.470000   30.298247   -68.246639
 0.475000   29.945767   -69.918426
 0.480000   29.599063   -68.247512
 0.485000   29.263292   -65.694341
 0.490000   28.942119   -62.015297
 0.495000   28.643139   -55.833305
 0.500000   28.383786   -48.030175
 0.505000   28.162837   -41.609311
 0.510000   27.967693   -35.550924
 0.515000   27.807328   -29.570934
 0.520000   27.671984   -25.667641
 0.525000   27.550651   -23.204671
 0.530000   27.439937   -21.576236
 0.535000   27.334889   -21.300590
 0.540000   27.226931   -22.718757
 0.545000   27.107701   -24.355275
 0.550000   26.983378   -25.840692
 0.555000   26.849294   -28.525752
 0.560000   26.698121   -31.553456
 0.565000   26.533760   -33.822093
 0.570000   26.359900   -35.927398
 0.575000   26.174486   -38.772525
 0.580000   25.972175   -41.019235
 0.585000   25.764293   -42.410991
 0.590000   25.548065   -44.424893
 0.595000   25.320044   -46.475291
 0.600000   25.083312   -47.921709
 0.605000   24.840827   -49.386676
 0.610000   24.589445   -51.898420
 0.615000   24.321843   -53.995716
 0.620000   24.049488   -55.627400
 0.625000   23.765569   -58.368868
 0.630000   23.465799   -61.610693
 0.635000   23.149462   -64.203766
 0.640000   22.823761   -66.255875
 0.645000   22.486904   -69.336996
 0.650000   22.130392   -71.818783
 0.655000   21.768716   -73.096576
 0.660000   21.399426   -74.818835
 0.665000   21.020527   -76.947258
 0.670000   20.629953   -78.033314
 0.675000   20.240194   -78.469880
 0.680000   19.845254   -80.149031
 0.685000   19.438704   -81.866479
 0.690000   19.026590   -82.862541
 0.695000   18.610078   -84.159756
 0.700000   18.184992   -85.853341
 0.705000   17.751545   -85.821325
 0.710000   17.326779   -84.641436
 0.715000   16.905131   -84.151908
 0.720000   16.485260   -83.728296
 0.725000   16.067848   -82.578850
 0.730000   15.659471   -79.751707
 0.735000   15.270331   -77.042367
 0.740000   14.889048   -74.310727
 0.745000   14.527223   -70.140279
 0.750000   14.187645   -65.775504
 0.755000   13.869468   -61.983549
 0.760000   13.567809   -56.687721
 0.765000   13.302591   -50.584252
 0.770000   13.061967   -46.099519
 0.775000   12.841596   -42.470107
 0.780000   12.637266   -38.410983
 0.785000   12.457486   -33.842045
 0.790000   12.298845   -32.189814
 0.795000   12.135588   -32.618273
 0.800000   11.972662   -32.673010
 0.805000   11.808858   -33.660720
 0.810000   11.636055   -36.412277
 0.815000   11.444735   -39.732685
 0.820000   11.238728   -43.322167
 0.825000   11.011513   -47.087433
 0.830000   10.767854   -50.821460
 0.835000   10.503299   -54.248386
 0.840000   10.225370   -57.262455
 0.845000   9.930674   -60.964279
 0.850000   9.615727   -65.381654
 0.855000   9.276858   -70.289169
 0.860000   8.912836   -76.508304
 0.865000   8.511775   -85.633452
 0.870000   8.056501   -97.866394
 0.875000   7.533111   -113.162339
 0.880000   6.924878   -131.330050
 0.885000   6.219810   -151.571446
 0.890000   5.409163   -173.787795
 0.895000   4.481932   -198.271479
 0.900000   3.426449   -223.211774
 0.905000   2.249815   -248.093309
 0.910000   0.945516   -271.192575
 0.915000   -0.462111   -288.196214
 0.920000   -1.936447   -302.305107
 0.925000   -3.485162   -317.807131
 0.930000   -5.114518   -335.405316
 0.935000   -6.839215   -368.009179
 0.940000   -8.794610   -434.159673
 0.945000   -11.180812   -519.588973
 0.950000   -13.990499   -602.881708
 0.955000   -17.209629   -682.417292
 0.960000   -20.814672   -744.867601
 0.965000   -24.658305   -716.198169
 0.970000   -27.976654   -503.901181
 0.975000   -29.697317   -89.309284
 0.980000   -28.869747   445.239659
 0.985000   -25.244920   990.975388
 0.990000   -18.959993   1407.293177
 0.995000   -11.171989   1508.410580
 1.000000   -3.875887   1410.029998
201 psinorm ommvb() dommvb/dpsiN
 0.000000   0.206970   24028.142052
 0.005000   95.495047   14087.088599
 0.010000   141.077856   9015.615732
 0.015000   185.651204   8396.937950
 0.020000   225.047236   7327.535957
 0.025000   258.926564   6465.130820
 0.030000   289.698544   5919.889237
 0.035000   318.125456   5222.980379
 0.040000   341.928348   4454.075979
 0.045000   362.666216   3860.245406
 0.050000   380.530802   3476.215696
 0.055000   397.428373   3123.763772
 0.060000   411.768440   2764.491165
 0.065000   425.073285   2461.957877
 0.070000   436.388018   2180.807327
 0.075000   446.881358   1933.725016
 0.080000   455.725268   1637.666882
 0.085000   463.258027   1355.043816
 0.090000   469.275707   1109.002504
 0.095000   474.348052   926.385664
 0.100000   478.539563   712.456016
 0.105000   481.472612   489.014275
 0.110000   483.429706   227.714141
 0.115000   483.749753   46.072793
 0.120000   483.890434   -35.097257
 0.125000   483.398781   -192.367428
 0.130000   481.966760   -354.113716
 0.135000   479.857644   -490.795857
 0.140000   477.058801   -630.538523
 0.145000   473.552258   -767.880366
 0.150000   469.379997   -894.873782
 0.155000   464.603521   -1008.046881
 0.160000   459.299529   -1109.982441
 0.165000   453.503696   -1201.272682
 0.170000   447.286802   -1276.565282
 0.175000   440.738043   -1337.990005
 0.180000   433.906902   -1390.329664
 0.185000   426.834747   -1443.680257
 0.190000   419.470099   -1493.071242
 0.195000   411.904034   -1527.226896
 0.200000   404.197830   -1683.446728
 0.205000   395.069567   -1745.940420
 0.210000   386.738426   -1622.231737
 0.215000   378.847250   -1574.040401
 0.220000   370.998022   -1552.743332
 0.225000   363.319816   -1527.256323
 0.230000   355.725459   -1514.076517
 0.235000   348.179051   -1497.666117
 0.240000   340.748798   -1641.847680
 0.245000   331.760574   -1652.048050
 0.250000   324.228317   -1424.744291
 0.255000   317.513131   -1318.405892
 0.260000   311.044258   -1272.302706
 0.265000   304.790104   -1227.686593
 0.270000   298.767392   -1329.338879
 0.275000   291.496716   -1357.196399
 0.280000   285.195428   -1135.629769
 0.285000   280.140418   -983.599638
 0.290000   275.359432   -933.278568
 0.295000   270.807632   -946.293478
 0.300000   265.896497   -1021.464685
 0.305000   260.592985   -894.463842
 0.310000   256.951859   -707.059984
 0.315000   253.522385   -666.746655
 0.320000   250.284392   -692.067633
 0.325000   246.601709   -727.384308
 0.330000   243.010549   -601.618599
 0.335000   240.585523   -469.672368
 0.340000   238.313825   -438.454897
 0.345000   236.200974   -502.806192
 0.350000   233.285764   -484.027522
 0.355000   231.360699   -342.701205
 0.360000   229.858751   -290.011175
 0.365000   228.460587   -300.778872
 0.370000   226.850963   -332.585315
 0.375000   225.134734   -263.138048
 0.380000   224.219582   -173.621768
 0.385000   223.398516   -157.394204
 0.390000   222.645640   -208.340168
 0.395000   221.315115   -180.649358
 0.400000   220.839147   -88.208117
 0.405000   220.433034   -74.754061
 0.410000   220.091606   -124.753660
 0.415000   219.185497   -122.674725
 0.420000   218.864859   -51.378309
 0.425000   218.671714   -39.648908
 0.430000   218.468370   -92.154400
 0.435000   217.750170   -114.044916
 0.440000   217.327921   -69.151205
 0.445000   217.058658   -58.674639
 0.450000   216.741174   -113.648347
 0.455000   215.922174   -147.223246
 0.460000   215.268942   -102.022190
 0.465000   214.901952   -72.609996
 0.470000   214.542842   -105.857404
 0.475000   213.843378   -122.187777
 0.480000   213.320964   -74.945838
 0.485000   213.093920   -41.306399
 0.490000   212.907900   -60.245862
 0.495000   212.491461   -66.791843
 0.500000   212.239982   -18.485875
 0.505000   212.306603   18.652946
 0.510000   212.426511   6.323586
 0.515000   212.369838   -4.282676
 0.520000   212.383684   34.154533
 0.525000   212.711384   68.073046
 0.530000   213.064415   52.939225
 0.535000   213.240776   31.130712
 0.540000   213.375722   56.237642
 0.545000   213.803152   86.828615
 0.550000   214.244008   78.366234
 0.555000   214.586815   58.941230
 0.560000   214.833420   81.182447
 0.565000   215.398639   115.326189
 0.570000   215.986682   115.757321
 0.575000   216.556212   104.522206
 0.580000   217.031904   125.644305
 0.585000   217.812656   163.627863
 0.590000   218.668183   179.459332
 0.595000   219.607249   179.200338
 0.600000   220.460186   195.395137
 0.605000   221.561200   231.591410
 0.610000   222.776100   252.848932
 0.615000   224.089690   272.345127
 0.620000   225.499552   300.971835
 0.625000   227.099408   332.874146
 0.630000   228.828293   357.197563
 0.635000   230.671384   383.547414
 0.640000   232.663767   429.817457
 0.645000   234.969558   462.710986
 0.650000   237.290877   482.017726
 0.655000   239.789735   518.068648
 0.660000   242.471564   572.035993
 0.665000   245.510095   620.899629
 0.670000   248.680560   639.571618
 0.675000   251.905811   663.615040
 0.680000   255.316710   701.618912
 0.685000   258.922001   782.898440
 0.690000   263.145695   830.176425
 0.695000   267.223765   836.673629
 0.700000   271.512431   884.306217
 0.705000   276.066827   936.629804
 0.710000   280.878729   1046.548453
 0.715000   286.532312   1106.595945
 0.720000   291.944688   1111.119766
 0.725000   297.643509   1170.998256
 0.730000   303.654671   1235.589954
 0.735000   309.999409   1349.550601
 0.740000   317.150177   1430.910579
 0.745000   324.308515   1453.888892
 0.750000   331.689066   1513.484374
 0.755000   339.443358   1589.392433
 0.760000   347.582990   1675.819225
 0.765000   356.201551   1776.490227
 0.770000   365.347893   1833.291928
 0.775000   374.534470   1876.350933
 0.780000   384.111402   1958.271777
 0.785000   394.117188   2047.755197
 0.790000   404.588954   2145.095348
 0.795000   415.568141   2248.110265
 0.800000   427.070056   2334.970780
 0.805000   438.917849   2425.298057
 0.810000   451.323037   2538.348534
 0.815000   464.301334   2655.803467
 0.820000   477.881072   2779.864736
 0.825000   492.099982   2902.507400
 0.830000   506.906146   3001.003165
 0.835000   522.110013   3130.640723
 0.840000   538.212553   3298.992069
 0.845000   555.099934   3453.850819
 0.850000   572.751061   3609.564333
 0.855000   591.195577   3776.650476
 0.860000   610.517566   3973.966462
 0.865000   630.935242   4266.468884
 0.870000   653.182255   4585.460937
 0.875000   676.789851   4997.142228
 0.880000   703.153677   5531.145039
 0.885000   732.101302   6042.468378
 0.890000   763.578361   6577.543397
 0.895000   797.876736   7179.884760
 0.900000   835.377208   7881.028994
 0.905000   876.687026   8745.559202
 0.910000   922.832800   9797.809400
 0.915000   974.665120   10947.366467
 0.920000   1032.306465   12252.574932
 0.925000   1097.190869   14254.187155
 0.930000   1174.848337   17797.108738
 0.935000   1275.161956   23510.667730
 0.940000   1409.955014   31962.111314
 0.945000   1594.783069   43366.077367
 0.950000   1843.615788   56480.318900
 0.955000   2159.586258   68332.768247
 0.960000   2526.943470   75673.665795
 0.965000   2916.322916   76294.946371
 0.970000   3289.892934   68816.183061
 0.975000   3604.484747   53658.102600
 0.980000   3826.473960   39021.413225
 0.985000   3994.698879   29919.597192
 0.990000   4125.669932   35075.715413
 0.995000   4345.456033   403492.342769
 1.000000   8160.593359   1122562.587666
201 psinorm ommpp() dommpp/dpsiN
 0.000000   61.825838   -23911.104583
 0.005000   -33.029778   -14031.142058
 0.010000   -78.485582   -8993.300547
 0.015000   -122.962784   -8379.192435
 0.020000   -162.277507   -7312.807533
 0.025000   -196.090859   -6453.986670
 0.030000   -226.817373   -5913.603217
 0.035000   -255.226891   -5221.960317
 0.040000   -279.036977   -4458.170822
 0.045000   -299.808600   -3869.556293
 0.050000   -317.732540   -3490.381093
 0.055000   -334.712411   -3142.100716
 0.060000   -349.153547   -2786.316075
 0.065000   -362.575571   -2486.665853
 0.070000   -374.020205   -2207.843260
 0.075000   -384.654004   -1962.894408
 0.080000   -393.649149   -1668.816176
 0.085000   -401.342166   -1388.077782
 0.090000   -407.529927   -1144.212242
 0.095000   -412.784288   -963.943219
 0.100000   -417.169359   -752.276325
 0.105000   -420.307051   -530.973502
 0.110000   -422.479094   -271.740848
 0.115000   -423.024460   -91.961728
 0.120000   -423.398712   -12.951242
 0.125000   -423.153972   142.113701
 0.130000   -421.977575   302.060819
 0.135000   -420.133364   437.101395
 0.140000   -417.606561   575.477542
 0.145000   -414.378589   711.788051
 0.150000   -410.488680   837.679316
 0.155000   -406.001795   949.479166
 0.160000   -400.993888   1050.055541
 0.165000   -395.501240   1139.874934
 0.170000   -389.595139   1213.696714
 0.175000   -383.364273   1273.760337
 0.180000   -376.857536   1324.639598
 0.185000   -370.117877   1376.348395
 0.190000   -363.094052   1424.239233
 0.195000   -355.875485   1457.094518
 0.200000   -348.523107   1612.015613
 0.205000   -339.755328   1673.325174
 0.210000   -331.789855   1548.230602
 0.215000   -324.273022   1498.690817
 0.220000   -316.802947   1476.536933
 0.225000   -309.507653   1450.394071
 0.230000   -302.299006   1436.830556
 0.235000   -295.139348   1419.695379
 0.240000   -288.102052   1563.291387
 0.245000   -279.506434   1573.759571
 0.250000   -272.364457   1346.896078
 0.255000   -266.037473   1241.284264
 0.260000   -259.951614   1196.247609
 0.265000   -254.074997   1152.575723
 0.270000   -248.425857   1255.692048
 0.275000   -241.518076   1285.552271
 0.280000   -235.570334   1065.708267
 0.285000   -230.860994   915.337612
 0.290000   -226.416958   866.507220
 0.295000   -222.195921   880.820273
 0.300000   -217.608755   957.512380
 0.305000   -212.620798   831.724239
 0.310000   -209.291513   644.816916
 0.315000   -206.172629   604.535972
 0.320000   -203.246153   629.327151
 0.325000   -199.879357   663.795382
 0.330000   -196.608199   537.085204
 0.335000   -194.508505   404.178492
 0.340000   -192.566414   372.453689
 0.345000   -190.783968   436.973404
 0.350000   -188.196680   418.905542
 0.355000   -186.594913   278.564627
 0.360000   -185.411034   227.001272
 0.365000   -184.324900   239.697783
 0.370000   -183.014056   273.976750
 0.375000   -181.585132   206.985885
 0.380000   -180.944197   120.143032
 0.385000   -180.383702   106.478713
 0.390000   -179.879410   160.053612
 0.395000   -178.783166   135.237721
 0.400000   -178.527033   45.224498
 0.405000   -178.330921   33.584172
 0.410000   -178.191191   84.843582
 0.415000   -177.482485   82.938909
 0.420000   -177.361802   10.609249
 0.425000   -177.376393   -4.341305
 0.430000   -177.405215   42.919649
 0.435000   -176.947196   58.317582
 0.440000   -176.822039   4.993027
 0.445000   -176.897266   -14.462780
 0.450000   -176.966667   32.409290
 0.455000   -176.573173   57.906932
 0.460000   -176.387598   5.265015
 0.465000   -176.520523   -29.869351
 0.470000   -176.686291   -0.235656
 0.475000   -176.522879   15.429658
 0.480000   -176.531995   -29.792536
 0.485000   -176.820805   -59.252554
 0.490000   -177.124520   -34.147068
 0.495000   -177.162276   -19.377162
 0.500000   -177.318292   -58.007499
 0.505000   -177.742350   -85.822539
 0.510000   -178.176517   -65.260752
 0.515000   -178.394958   -47.571800
 0.520000   -178.652235   -80.455548
 0.525000   -179.199513   -110.396069
 0.530000   -179.756196   -93.141678
 0.535000   -180.130930   -70.955564
 0.540000   -180.465752   -96.730722
 0.545000   -181.098237   -128.770806
 0.550000   -181.753460   -122.347251
 0.555000   -182.321710   -105.445696
 0.560000   -182.807917   -130.496559
 0.565000   -183.626676   -167.297740
 0.570000   -184.480894   -170.173832
 0.575000   -185.328414   -161.312741
 0.580000   -186.094021   -184.643674
 0.585000   -187.174851   -224.557634
 0.590000   -188.339598   -242.096250
 0.595000   -189.595813   -243.449791
 0.600000   -190.774096   -261.333252
 0.605000   -192.209146   -299.310355
 0.610000   -193.767199   -322.432100
 0.615000   -195.433467   -343.951530
 0.620000   -197.206715   -374.927421
 0.625000   -199.182741   -409.457606
 0.630000   -201.301291   -436.676295
 0.635000   -203.549504   -466.015811
 0.640000   -205.961449   -514.943415
 0.645000   -208.698938   -550.324177
 0.650000   -211.464691   -571.991984
 0.655000   -214.418858   -610.014697
 0.660000   -217.564837   -665.614782
 0.665000   -221.075006   -715.903450
 0.670000   -224.723872   -735.705671
 0.675000   -228.432062   -760.703865
 0.680000   -232.330911   -799.781499
 0.685000   -236.429877   -882.342852
 0.690000   -241.154339   -931.080345
 0.695000   -245.740681   -939.211598
 0.700000   -250.546455   -987.521193
 0.705000   -255.615893   -1039.495560
 0.710000   -260.941411   -1148.813294
 0.715000   -267.104026   -1207.730859
 0.720000   -273.018719   -1210.795422
 0.725000   -279.211980   -1269.451784
 0.730000   -285.713237   -1331.320894
 0.735000   -292.525189   -1441.245764
 0.740000   -300.125695   -1518.873181
 0.745000   -307.713921   -1537.613653
 0.750000   -315.501831   -1592.438515
 0.755000   -323.638306   -1662.760672
 0.760000   -332.129438   -1742.944703
 0.765000   -341.067753   -1837.592467
 0.770000   -350.505363   -1888.895575
 0.775000   -359.956709   -1926.957476
 0.780000   -369.774937   -2004.401636
 0.785000   -380.000725   -2089.300457
 0.790000   -390.667942   -2184.174964
 0.795000   -401.842475   -2287.150484
 0.800000   -413.539447   -2374.393855
 0.805000   -425.586413   -2466.099193
 0.810000   -438.200439   -2581.562484
 0.815000   -451.402038   -2702.455669
 0.820000   -465.224995   -2830.953064
 0.825000   -479.711569   -2957.787030
 0.830000   -494.802866   -3059.811921
 0.835000   -510.309688   -3193.106742
 0.840000   -526.733933   -3365.162002
 0.845000   -543.961308   -3523.929600
 0.850000   -561.973229   -3684.070634
 0.855000   -580.802014   -3856.514746
 0.860000   -600.538377   -4060.937328
 0.865000   -621.411387   -4363.357753
 0.870000   -644.171954   -4695.607053
 0.875000   -668.367458   -5124.281341
 0.880000   -695.414768   -5678.613650
 0.885000   -725.153595   -6212.296354
 0.890000   -757.537731   -6772.009384
 0.895000   -792.873688   -7401.678136
 0.900000   -831.554513   -8130.528560
 0.905000   -874.178974   -9022.451119
 0.910000   -921.779024   -10100.399081
 0.915000   -975.182965   -11268.861602
 0.920000   -1034.467640   -12588.643459
 0.925000   -1101.069399   -14604.679373
 0.930000   -1180.514433   -18166.273584
 0.935000   -1282.732135   -23916.573609
 0.940000   -1419.680170   -32434.265220
 0.945000   -1607.074787   -43920.597866
 0.950000   -1858.886148   -57128.238481
 0.955000   -2178.357172   -69073.208782
 0.960000   -2549.618236   -76457.644238
 0.965000   -2942.933615   -77025.219044
 0.970000   -3319.870426   -69332.821780
 0.975000   -3636.261832   -53745.742727
 0.980000   -3857.327854   -38533.960291
 0.985000   -4021.601435   -28849.640974
 0.990000   -4145.824263   -33569.290061
 0.995000   -4357.294336   -401882.318247
 1.000000   -8164.647446   -1121058.925783
201 psinorm omevb() domevb/dpsiN
 0.000000   32.832347   135.988610
 0.005000   33.380611   83.317213
 0.010000   33.665519   53.877024
 0.015000   33.919382   49.269522
 0.020000   34.158214   46.213338
 0.025000   34.381515   42.588722
 0.030000   34.584101   37.689008
 0.035000   34.758405   32.380236
 0.040000   34.907904   27.221295
 0.045000   35.030618   21.960005
 0.050000   35.127504   17.059047
 0.055000   35.201209   12.839861
 0.060000   35.255902   9.303075
 0.065000   35.294239   6.370017
 0.070000   35.319603   3.990907
 0.075000   35.334148   1.805145
 0.080000   35.337654   -0.228201
 0.085000   35.331866   -2.167447
 0.090000   35.315980   -4.398915
 0.095000   35.287877   -6.803535
 0.100000   35.247944   -9.124193
 0.105000   35.196635   -11.322102
 0.110000   35.134723   -13.449653
 0.115000   35.062139   -15.373018
 0.120000   34.980993   -17.594777
 0.125000   34.886191   -19.863247
 0.130000   34.782361   -21.726695
 0.135000   34.668924   -23.433561
 0.140000   34.548025   -24.866398
 0.145000   34.420260   -25.965052
 0.150000   34.288374   -27.135518
 0.155000   34.148905   -28.578062
 0.160000   34.002594   -30.007514
 0.165000   33.848830   -31.549590
 0.170000   33.687098   -33.092587
 0.175000   33.517904   -34.526803
 0.180000   33.341830   -36.061245
 0.185000   33.157291   -37.778001
 0.190000   32.964050   -39.354015
 0.195000   32.763751   -40.731146
 0.200000   32.556738   -42.107527
 0.205000   32.342676   -43.370177
 0.210000   32.123037   -44.835447
 0.215000   31.894322   -46.264127
 0.220000   31.660395   -47.202013
 0.225000   31.422301   -47.939767
 0.230000   31.180998   -48.406194
 0.235000   30.938240   -49.214495
 0.240000   30.688853   -49.884371
 0.245000   30.439396   -49.701664
 0.250000   30.191836   -49.347277
 0.255000   29.945923   -48.707334
 0.260000   29.704763   -47.728196
 0.265000   29.468641   -46.872103
 0.270000   29.236042   -45.496928
 0.275000   29.013672   -43.583807
 0.280000   28.800204   -41.951470
 0.285000   28.594157   -40.382981
 0.290000   28.396374   -38.983974
 0.295000   28.204317   -37.778178
 0.300000   28.018592   -36.350286
 0.305000   27.840814   -35.231246
 0.310000   27.666280   -34.829015
 0.315000   27.492524   -34.891564
 0.320000   27.317364   -35.516916
 0.325000   27.137355   -36.461522
 0.330000   26.952749   -37.502751
 0.335000   26.762328   -38.560578
 0.340000   26.567143   -39.165834
 0.345000   26.370669   -39.095901
 0.350000   26.176184   -38.484136
 0.355000   25.985828   -37.598321
 0.360000   25.800201   -36.571764
 0.365000   25.620110   -34.743591
 0.370000   25.452765   -32.372220
 0.375000   25.296388   -30.017471
 0.380000   25.152590   -27.446188
 0.385000   25.021926   -24.985565
 0.390000   24.902735   -22.459722
 0.395000   24.797329   -19.688352
 0.400000   24.705851   -17.364332
 0.405000   24.623686   -15.655037
 0.410000   24.549301   -14.500088
 0.415000   24.478685   -14.431104
 0.420000   24.404990   -15.570032
 0.425000   24.322985   -18.897266
 0.430000   24.216017   -24.248269
 0.435000   24.080502   -30.847691
 0.440000   23.907540   -39.385741
 0.445000   23.686644   -48.472541
 0.450000   23.422815   -56.682084
 0.455000   23.119824   -64.867580
 0.460000   22.774139   -72.417004
 0.465000   22.395654   -78.248053
 0.470000   21.991658   -81.970947
 0.475000   21.575944   -82.745483
 0.480000   21.164203   -80.835498
 0.485000   20.767589   -76.766112
 0.490000   20.396542   -70.710388
 0.495000   20.060485   -62.597017
 0.500000   19.770572   -53.032186
 0.505000   19.530163   -43.819440
 0.510000   19.332378   -35.698273
 0.515000   19.173181   -28.727059
 0.520000   19.045107   -23.285281
 0.525000   18.940328   -19.419167
 0.530000   18.850916   -17.410663
 0.535000   18.766221   -17.145303
 0.540000   18.679463   -17.925939
 0.545000   18.586962   -19.487614
 0.550000   18.484586   -21.639152
 0.555000   18.370570   -24.275448
 0.560000   18.241832   -27.198066
 0.565000   18.098590   -29.968591
 0.570000   17.942146   -32.526740
 0.575000   17.773322   -35.014042
 0.580000   17.592006   -37.336233
 0.585000   17.399960   -39.380055
 0.590000   17.198205   -41.200670
 0.595000   16.987953   -42.926706
 0.600000   16.768938   -44.728883
 0.605000   16.540664   -46.623221
 0.610000   16.302706   -48.600922
 0.615000   16.054655   -50.737576
 0.620000   15.795330   -53.200091
 0.625000   15.522654   -55.941171
 0.630000   15.235918   -58.949480
 0.635000   14.933159   -62.051959
 0.640000   14.615399   -64.822049
 0.645000   14.284939   -67.421452
 0.650000   13.941184   -69.894237
 0.655000   13.585997   -71.977182
 0.660000   13.221412   -73.720376
 0.665000   12.848793   -75.254997
 0.670000   12.468862   -76.493749
 0.675000   12.083855   -77.555723
 0.680000   11.693305   -78.735064
 0.685000   11.296505   -80.120471
 0.690000   10.892100   -81.681106
 0.695000   10.479694   -83.413264
 0.700000   10.057968   -84.184672
 0.705000   9.637847   -83.925298
 0.710000   9.218715   -83.408643
 0.715000   8.803760   -82.356122
 0.720000   8.395154   -80.965874
 0.725000   7.994102   -79.802472
 0.730000   7.597129   -77.126031
 0.735000   7.222841   -73.121030
 0.740000   6.865919   -69.400489
 0.745000   6.528837   -65.151810
 0.750000   6.214400   -60.342548
 0.755000   5.925411   -54.684239
 0.760000   5.667558   -48.328170
 0.765000   5.442129   -42.142193
 0.770000   5.246136   -36.421293
 0.775000   5.077916   -31.130342
 0.780000   4.934833   -26.274220
 0.785000   4.815174   -21.208243
 0.790000   4.722750   -18.140458
 0.795000   4.633770   -17.356764
 0.800000   4.549183   -16.829273
 0.805000   4.465477   -17.104857
 0.810000   4.378134   -18.195525
 0.815000   4.283522   -20.064300
 0.820000   4.177491   -22.658102
 0.825000   4.056941   -24.714493
 0.830000   3.930346   -25.807799
 0.835000   3.798863   -26.739944
 0.840000   3.662947   -27.473650
 0.845000   3.524126   -28.262537
 0.850000   3.380321   -29.593642
 0.855000   3.228190   -32.168374
 0.860000   3.058638   -37.265213
 0.865000   2.855538   -46.653918
 0.870000   2.592098   -61.920835
 0.875000   2.236329   -85.014578
 0.880000   1.741953   -117.769523
 0.885000   1.058634   -162.034027
 0.890000   0.121612   -222.423087
 0.895000   -1.165597   -305.243611
 0.900000   -2.930824   -415.899006
 0.905000   -5.324587   -563.356002
 0.910000   -8.564384   -757.564070
 0.915000   -12.900228   -1005.351114
 0.920000   -18.617895   -1319.250951
 0.925000   -26.092737   -1707.183178
 0.930000   -35.689727   -2163.928973
 0.935000   -47.732027   -2670.955469
 0.940000   -62.399281   -3174.396632
 0.945000   -79.475993   -3555.176038
 0.950000   -97.951042   -3664.267129
 0.955000   -116.118664   -3331.066026
 0.960000   -131.261702   -2395.355523
 0.965000   -140.072220   -847.059341
 0.970000   -139.732295   1093.289255
 0.975000   -129.139327   2991.774651
 0.980000   -109.814549   4329.393263
 0.985000   -85.845395   4846.016946
 0.990000   -61.354379   4638.529575
 0.995000   -39.460099   3908.585209
 1.000000   -22.268527   2968.043344
201 psinorm omepp() domepp/dpsiN
 0.000000   29.200462   -18.951141
 0.005000   29.084657   -27.370673
 0.010000   28.926755   -31.561839
 0.015000   28.769039   -31.524006
 0.020000   28.611515   -31.484914
 0.025000   28.454190   -31.444571
 0.030000   28.297069   -31.402988
 0.035000   28.140160   -31.360174
 0.040000   27.983467   -31.316138
 0.045000   27.826998   -31.270892
 0.050000   27.670758   -31.224444
 0.055000   27.514754   -31.176805
 0.060000   27.358990   -31.127985
 0.065000   27.203474   -31.077993
 0.070000   27.048210   -31.026840
 0.075000   26.893206   -30.974537
 0.080000   26.738465   -30.921093
 0.085000   26.583995   -30.866518
 0.090000   26.429800   -30.810824
 0.095000   26.275886   -30.754020
 0.100000   26.122260   -30.696117
 0.105000   25.968925   -30.637125
 0.110000   25.815888   -30.577055
 0.115000   25.663155   -30.515917
 0.120000   25.510729   -30.453722
 0.125000   25.358617   -30.390480
 0.130000   25.206824   -30.326203
 0.135000   25.055355   -30.260900
 0.140000   24.904215   -30.194583
 0.145000   24.753410   -30.127263
 0.150000   24.602943   -30.058949
 0.155000   24.452820   -29.989653
 0.160000   24.303046   -29.919386
 0.165000   24.153626   -29.848158
 0.170000   24.004565   -29.775981
 0.175000   23.855866   -29.702865
 0.180000   23.707536   -29.628821
 0.185000   23.559578   -29.553861
 0.190000   23.411997   -29.477994
 0.195000   23.264798   -29.401233
 0.200000   23.117985   -29.323587
 0.205000   22.971562   -29.245069
 0.210000   22.825534   -29.165688
 0.215000   22.679906   -29.085457
 0.220000   22.534680   -29.004386
 0.225000   22.389862   -28.922485
 0.230000   22.245455   -28.839767
 0.235000   22.101464   -28.756242
 0.240000   21.957893   -28.671921
 0.245000   21.814745   -28.586816
 0.250000   21.672024   -28.500936
 0.255000   21.529735   -28.414294
 0.260000   21.387882   -28.326901
 0.265000   21.246466   -28.238767
 0.270000   21.105494   -28.149903
 0.275000   20.964967   -28.060321
 0.280000   20.824891   -27.970031
 0.285000   20.685267   -27.879045
 0.290000   20.546100   -27.787374
 0.295000   20.407393   -27.695028
 0.300000   20.269150   -27.602018
 0.305000   20.131373   -27.508357
 0.310000   19.994066   -27.414053
 0.315000   19.857233   -27.319120
 0.320000   19.720875   -27.223566
 0.325000   19.584997   -27.127404
 0.330000   19.449601   -27.030644
 0.335000   19.314691   -26.933297
 0.340000   19.180268   -26.835375
 0.345000   19.046337   -26.736887
 0.350000   18.912899   -26.637844
 0.355000   18.779958   -26.538258
 0.360000   18.647517   -26.438139
 0.365000   18.515577   -26.337498
 0.370000   18.384142   -26.236345
 0.375000   18.253213   -26.134692
 0.380000   18.122795   -26.032549
 0.385000   17.992888   -25.929926
 0.390000   17.863496   -25.826835
 0.395000   17.734620   -25.723285
 0.400000   17.606263   -25.619287
 0.405000   17.478427   -25.514852
 0.410000   17.351114   -25.409990
 0.415000   17.224327   -25.304712
 0.420000   17.098067   -25.199028
 0.425000   16.972337   -25.092948
 0.430000   16.847138   -24.986483
 0.435000   16.722472   -24.879643
 0.440000   16.598341   -24.772437
 0.445000   16.474747   -24.664878
 0.450000   16.351692   -24.556973
 0.455000   16.229178   -24.448735
 0.460000   16.107205   -24.340172
 0.465000   15.985776   -24.231294
 0.470000   15.864892   -24.122113
 0.475000   15.744555   -24.012637
 0.480000   15.624766   -23.902876
 0.485000   15.505526   -23.792841
 0.490000   15.386837   -23.682542
 0.495000   15.268701   -23.571987
 0.500000   15.151117   -23.461188
 0.505000   15.034089   -23.350153
 0.510000   14.917616   -23.238892
 0.515000   14.801700   -23.127416
 0.520000   14.686342   -23.015734
 0.525000   14.571543   -22.903855
 0.530000   14.457303   -22.791790
 0.535000   14.343625   -22.679549
 0.540000   14.230508   -22.567141
 0.545000   14.117953   -22.454576
 0.550000   14.005962   -22.341865
 0.555000   13.894535   -22.229018
 0.560000   13.783672   -22.116046
 0.565000   13.673374   -22.002960
 0.570000   13.563642   -21.889771
 0.575000   13.454476   -21.776492
 0.580000   13.345877   -21.663136
 0.585000   13.237845   -21.549716
 0.590000   13.130380   -21.436247
 0.595000   13.023483   -21.322747
 0.600000   12.917153   -21.209232
 0.605000   12.811390   -21.095724
 0.610000   12.706195   -20.982246
 0.615000   12.601568   -20.868826
 0.620000   12.497507   -20.755495
 0.625000   12.394013   -20.642289
 0.630000   12.291084   -20.529253
 0.635000   12.188720   -20.416438
 0.640000   12.086920   -20.303908
 0.645000   11.985681   -20.191739
 0.650000   11.885002   -20.080021
 0.655000   11.784881   -19.968867
 0.660000   11.685314   -19.858413
 0.665000   11.586297   -19.748824
 0.670000   11.487826   -19.640304
 0.675000   11.389894   -19.533102
 0.680000   11.292494   -19.427523
 0.685000   11.195619   -19.323940
 0.690000   11.099255   -19.222813
 0.695000   11.003390   -19.124705
 0.700000   10.908008   -19.030305
 0.705000   10.813087   -18.940458
 0.710000   10.718603   -18.856198
 0.715000   10.624525   -18.778792
 0.720000   10.530816   -18.709782
 0.725000   10.437428   -18.651056
 0.730000   10.344305   -18.604909
 0.735000   10.251379   -18.574132
 0.740000   10.158564   -18.562113
 0.745000   10.065757   -18.572951
 0.750000   9.972834   -18.611594
 0.755000   9.879641   -18.683999
 0.760000   9.785994   -18.797308
 0.765000   9.691668   -18.960048
 0.770000   9.596394   -19.182354
 0.775000   9.499845   -19.476201
 0.780000   9.401632   -19.855640
 0.785000   9.301288   -20.337017
 0.790000   9.198262   -20.939158
 0.795000   9.091897   -21.683455
 0.800000   8.981427   -22.593802
 0.805000   8.865959   -23.696279
 0.810000   8.744464   -25.018424
 0.815000   8.615775   -26.587901
 0.820000   8.478585   -28.430227
 0.825000   8.331472   -30.565137
 0.830000   8.172934   -33.000957
 0.835000   8.001463   -35.726075
 0.840000   7.815673   -38.696284
 0.845000   7.614500   -41.816244
 0.850000   7.397511   -44.912660
 0.855000   7.165373   -47.695897
 0.860000   6.920552   -49.705653
 0.865000   6.668317   -50.234950
 0.870000   6.418202   -48.225282
 0.875000   6.186064   -42.124535
 0.880000   5.996957   -29.699088
 0.885000   5.889073   -7.793949
 0.890000   5.919017   27.957100
 0.895000   6.168644   83.450234
 0.900000   6.753520   166.399440
 0.905000   7.832638   286.464085
 0.910000   9.618160   454.974389
 0.915000   12.382382   683.855979
 0.920000   16.456720   983.182424
 0.925000   22.214207   1356.690960
 0.930000   30.023630   1794.764127
 0.935000   40.161848   2265.049590
 0.940000   52.674126   2702.242726
 0.945000   67.184275   3000.655539
 0.950000   82.680681   3016.347548
 0.955000   97.347751   2590.625491
 0.960000   108.586936   1611.377080
 0.965000   113.461521   116.786667
 0.970000   109.754803   -1609.927974
 0.975000   97.362242   -3079.414778
 0.980000   78.960655   -3841.940328
 0.985000   58.942838   -3776.060727
 0.990000   41.200048   -3132.104224
 0.995000   27.621796   -2298.560687
 1.000000   18.214441   -1464.381461
201 psinorm kpol(km/s/T) dkpol/dpsiN
 0.000000   0.003639   137.445456
 0.005000   0.563845   86.636899
 0.010000   0.870008   59.186213
 0.015000   1.155707   56.690680
 0.020000   1.436914   55.731751
 0.025000   1.713024   54.191090
 0.030000   1.978825   51.345928
 0.035000   2.226483   48.096215
 0.040000   2.459788   45.041396
 0.045000   2.676897   41.924188
 0.050000   2.879029   39.214163
 0.055000   3.069039   37.226940
 0.060000   3.251299   35.954052
 0.065000   3.428580   35.202980
 0.070000   3.603329   34.753085
 0.075000   3.776110   34.241491
 0.080000   3.945744   33.669993
 0.085000   4.112810   32.900030
 0.090000   4.274744   31.858979
 0.095000   4.431400   30.631061
 0.100000   4.581054   29.161992
 0.105000   4.723020   27.674528
 0.110000   4.857800   26.152755
 0.115000   4.984548   24.664546
 0.120000   5.104445   23.262960
 0.125000   5.217177   22.149649
 0.130000   5.325942   21.267200
 0.135000   5.429849   20.513903
 0.140000   5.531081   19.934044
 0.145000   5.629190   19.483094
 0.150000   5.725912   18.940552
 0.155000   5.818595   18.116965
 0.160000   5.907081   17.149478
 0.165000   5.990090   15.926903
 0.170000   6.066350   14.547749
 0.175000   6.135567   12.911417
 0.180000   6.195464   11.182227
 0.185000   6.247390   9.405186
 0.190000   6.289516   7.585135
 0.195000   6.323241   5.917858
 0.200000   6.348695   4.247077
 0.205000   6.365712   2.758325
 0.210000   6.376278   1.473392
 0.215000   6.380446   0.390372
 0.220000   6.380182   -0.516055
 0.225000   6.375285   -1.484840
 0.230000   6.365333   -2.313691
 0.235000   6.352148   -3.205870
 0.240000   6.333275   -4.301368
 0.245000   6.309135   -5.365039
 0.250000   6.279624   -6.575934
 0.255000   6.243375   -7.835846
 0.260000   6.201266   -9.103396
 0.265000   6.152341   -10.503807
 0.270000   6.096228   -11.783143
 0.275000   6.034510   -13.049303
 0.280000   5.965735   -14.467080
 0.285000   5.889839   -15.807064
 0.290000   5.807664   -17.270373
 0.295000   5.717135   -19.003962
 0.300000   5.617625   -20.798581
 0.305000   5.509150   -22.783852
 0.310000   5.389786   -25.013213
 0.315000   5.259017   -27.329984
 0.320000   5.116486   -29.864712
 0.325000   4.960370   -32.492408
 0.330000   4.791562   -34.870621
 0.335000   4.611664   -37.018979
 0.340000   4.421372   -38.902690
 0.345000   4.222637   -40.290297
 0.350000   4.018469   -41.087218
 0.355000   3.811765   -41.343468
 0.360000   3.605035   -41.167887
 0.365000   3.400086   -40.741685
 0.370000   3.197618   -40.161003
 0.375000   2.998476   -39.419850
 0.380000   2.803419   -38.628470
 0.385000   2.612191   -38.215756
 0.390000   2.421262   -38.260857
 0.395000   2.229583   -38.551154
 0.400000   2.035750   -39.009312
 0.405000   1.839490   -39.500361
 0.410000   1.640747   -40.239597
 0.415000   1.437094   -41.843014
 0.420000   1.222317   -44.842301
 0.425000   0.988671   -49.450294
 0.430000   0.727814   -55.732918
 0.435000   0.431342   -63.836523
 0.440000   0.089448   -74.281882
 0.445000   -0.311477   -85.483581
 0.450000   -0.765387   -95.994289
 0.455000   -1.271420   -106.036417
 0.460000   -1.825752   -114.961303
 0.465000   -2.421033   -122.182694
 0.470000   -3.047579   -126.658435
 0.475000   -3.687617   -127.369650
 0.480000   -4.321275   -124.530382
 0.485000   -4.932921   -118.762429
 0.490000   -5.508899   -110.630927
 0.495000   -6.039231   -100.034542
 0.500000   -6.509245   -87.530841
 0.505000   -6.914539   -75.495883
 0.510000   -7.264204   -64.877570
 0.515000   -7.563315   -55.412262
 0.520000   -7.818326   -47.467073
 0.525000   -8.037985   -41.353964
 0.530000   -8.231866   -37.552550
 0.535000   -8.413511   -35.869622
 0.540000   -8.590562   -35.419199
 0.545000   -8.767703   -35.658960
 0.550000   -8.947152   -36.237201
 0.555000   -9.130075   -37.269583
 0.560000   -9.319848   -38.439996
 0.565000   -9.514475   -39.036489
 0.570000   -9.710212   -38.957620
 0.575000   -9.904051   -38.334960
 0.580000   -10.093562   -37.081482
 0.585000   -10.274866   -35.113215
 0.590000   -10.444694   -32.374638
 0.595000   -10.598612   -29.106347
 0.600000   -10.735758   -25.575595
 0.605000   -10.854368   -21.880157
 0.610000   -10.954559   -18.330204
 0.615000   -11.037670   -14.954179
 0.620000   -11.104101   -11.889292
 0.625000   -11.156563   -9.325507
 0.630000   -11.197356   -7.274682
 0.635000   -11.229310   -5.616747
 0.640000   -11.253524   -4.218752
 0.645000   -11.271498   -3.143918
 0.650000   -11.284963   -2.362707
 0.655000   -11.295125   -1.710792
 0.660000   -11.302071   -1.093381
 0.665000   -11.306058   -0.577518
 0.670000   -11.307846   -0.138290
 0.675000   -11.307441   0.300113
 0.680000   -11.304845   0.707163
 0.685000   -11.300370   1.025221
 0.690000   -11.294592   1.331801
 0.695000   -11.287052   1.676478
 0.700000   -11.277828   2.015128
 0.705000   -11.266900   2.332867
 0.710000   -11.254499   2.626621
 0.715000   -11.240634   2.843947
 0.720000   -11.226060   2.863905
 0.725000   -11.211995   2.647456
 0.730000   -11.199585   2.166023
 0.735000   -11.190335   1.344222
 0.740000   -11.186143   0.164190
 0.745000   -11.188693   -1.271349
 0.750000   -11.198856   -2.849646
 0.755000   -11.217189   -4.481806
 0.760000   -11.243674   -5.981571
 0.765000   -11.277005   -7.224569
 0.770000   -11.315920   -8.264904
 0.775000   -11.359654   -9.266954
 0.780000   -11.408590   -10.406659
 0.785000   -11.463721   -11.877441
 0.790000   -11.527364   -14.179540
 0.795000   -11.605516   -17.556577
 0.800000   -11.702930   -21.808986
 0.805000   -11.823606   -26.835542
 0.810000   -11.971285   -32.500612
 0.815000   -12.148612   -38.483710
 0.820000   -12.356122   -44.349759
 0.825000   -12.592110   -49.140274
 0.830000   -12.847525   -52.315574
 0.835000   -13.115265   -53.786331
 0.840000   -13.385388   -53.069733
 0.845000   -13.645963   -49.973598
 0.850000   -13.885124   -44.675661
 0.855000   -14.092719   -37.481276
 0.860000   -14.259937   -28.939962
 0.865000   -14.382119   -19.875534
 0.870000   -14.458692   -11.216475
 0.875000   -14.494284   -3.189168
 0.880000   -14.490584   4.083332
 0.885000   -14.453450   10.259187
 0.890000   -14.387992   15.414154
 0.895000   -14.299309   19.599146
 0.900000   -14.192001   22.814936
 0.905000   -14.071160   25.454280
 0.910000   -13.937458   27.659256
 0.915000   -13.794567   28.859433
 0.920000   -13.648864   29.419590
 0.925000   -13.500371   31.968239
 0.930000   -13.329181   35.338097
 0.935000   -13.146990   37.293050
 0.940000   -12.956251   38.577117
 0.945000   -12.761219   38.649091
 0.950000   -12.569760   32.760018
 0.955000   -12.433619   16.956079
 0.960000   -12.400199   -5.598914
 0.965000   -12.489608   -23.491452
 0.970000   -12.635114   4.034792
 0.975000   -12.449260   142.009620
 0.980000   -11.215017   439.274153
 0.985000   -8.056519   867.611781
 0.990000   -2.538900   1266.384901
 0.995000   4.607331   1373.322636
 1.000000   11.194327   1261.475886
201 psinorm omghb() domghb/dpsiN
 0.000000   -0.000077   -0.001913
 0.005000   -0.000238   -0.062593
 0.010000   -0.000703   -0.063779
 0.015000   -0.000876   -0.024143
 0.020000   -0.000944   -0.000342
 0.025000   -0.000879   0.028594
 0.030000   -0.000658   0.071035
 0.035000   -0.000169   0.117836
 0.040000   0.000520   0.162454
 0.045000   0.001456   0.192056
 0.050000   0.002441   0.200681
 0.055000   0.003462   0.204383
 0.060000   0.004485   0.203484
 0.065000   0.005497   0.198549
 0.070000   0.006470   0.201285
 0.075000   0.007510   0.215158
 0.080000   0.008622   0.225400
 0.085000   0.009764   0.236772
 0.090000   0.010989   0.260108
 0.095000   0.012365   0.265302
 0.100000   0.013642   0.293214
 0.105000   0.015297   0.327136
 0.110000   0.016914   0.321278
 0.115000   0.018510   0.315035
 0.120000   0.020064   0.327215
 0.125000   0.021782   0.345895
 0.130000   0.023523   0.350906
 0.135000   0.025291   0.329137
 0.140000   0.026814   0.307424
 0.145000   0.028366   0.305451
 0.150000   0.029869   0.321636
 0.155000   0.031582   0.335635
 0.160000   0.033225   0.356498
 0.165000   0.035147   0.378871
 0.170000   0.037014   0.388378
 0.175000   0.039031   0.399691
 0.180000   0.041011   0.399956
 0.185000   0.043030   0.405236
 0.190000   0.045063   0.389652
 0.195000   0.046927   0.422075
 0.200000   0.049284   0.436348
 0.205000   0.051290   0.402338
 0.210000   0.053307   0.402469
 0.215000   0.055315   0.379884
 0.220000   0.057106   0.395967
 0.225000   0.059275   0.358890
 0.230000   0.060695   0.286470
 0.235000   0.062139   0.276877
 0.240000   0.063464   0.234641
 0.245000   0.064486   0.232393
 0.250000   0.065788   0.261956
 0.255000   0.067105   0.048894
 0.260000   0.066277   -0.079430
 0.265000   0.066311   -0.028456
 0.270000   0.065992   -0.079093
 0.275000   0.065520   -0.083143
 0.280000   0.065161   -0.091346
 0.285000   0.064607   -0.146598
 0.290000   0.063695   -0.119534
 0.295000   0.063411   -0.065074
 0.300000   0.063044   -0.054482
 0.305000   0.062866   -0.003284
 0.310000   0.063011   -0.034020
 0.315000   0.062526   0.218735
 0.320000   0.065199   0.459836
 0.325000   0.067125   0.357454
 0.330000   0.068773   0.315057
 0.335000   0.070275   0.265952
 0.340000   0.071433   0.233255
 0.345000   0.072608   0.134990
 0.350000   0.072783   -0.027924
 0.355000   0.072328   -0.152718
 0.360000   0.071255   -0.272902
 0.365000   0.069599   -0.366079
 0.370000   0.067595   -0.294313
 0.375000   0.066656   -0.411395
 0.380000   0.063481   -0.626286
 0.385000   0.060393   -0.581741
 0.390000   0.057663   -0.523801
 0.395000   0.055155   -0.463140
 0.400000   0.053032   -0.457033
 0.405000   0.050585   -0.394361
 0.410000   0.049088   -0.110375
 0.415000   0.049481   0.224724
 0.420000   0.051335   0.685402
 0.425000   0.056335   1.255538
 0.430000   0.063891   1.590665
 0.435000   0.072242   1.910038
 0.440000   0.082991   2.276583
 0.445000   0.095008   2.400644
 0.450000   0.106998   2.559018
 0.455000   0.120598   2.410693
 0.460000   0.131105   1.815371
 0.465000   0.138752   1.305569
 0.470000   0.144160   0.796856
 0.475000   0.146720   0.141684
 0.480000   0.145577   -0.708226
 0.485000   0.139638   -1.454209
 0.490000   0.131035   -1.908828
 0.495000   0.120550   -2.251045
 0.500000   0.108525   -2.430264
 0.505000   0.096247   -2.367802
 0.510000   0.084847   -2.310733
 0.515000   0.073140   -1.896790
 0.520000   0.065879   -1.205726
 0.525000   0.061083   -0.745214
 0.530000   0.058426   -0.292723
 0.535000   0.058155   0.097755
 0.540000   0.059404   0.421635
 0.545000   0.062372   0.626924
 0.550000   0.065673   0.706689
 0.555000   0.069439   0.793643
 0.560000   0.073610   0.872640
 0.565000   0.078165   0.890918
 0.570000   0.082519   0.854644
 0.575000   0.086711   0.782942
 0.580000   0.090348   0.676623
 0.585000   0.093478   0.630140
 0.590000   0.096650   0.602586
 0.595000   0.099503   0.571721
 0.600000   0.102367   0.579819
 0.605000   0.105302   0.627011
 0.610000   0.108637   0.725763
 0.615000   0.112559   0.869221
 0.620000   0.117329   0.878948
 0.625000   0.121349   0.879688
 0.630000   0.126126   0.984490
 0.635000   0.131194   0.996689
 0.640000   0.136093   0.959187
 0.645000   0.140786   0.952903
 0.650000   0.145622   0.805660
 0.655000   0.148842   0.630356
 0.660000   0.151926   0.574002
 0.665000   0.154582   0.491913
 0.670000   0.156845   0.437464
 0.675000   0.158957   0.472549
 0.680000   0.161570   0.553881
 0.685000   0.164496   0.568584
 0.690000   0.167256   0.508867
 0.695000   0.169584   0.372851
 0.700000   0.170985   0.190749
 0.705000   0.171492   0.193993
 0.710000   0.172924   -0.026212
 0.715000   0.171230   -0.494243
 0.720000   0.167982   -0.627202
 0.725000   0.164958   -0.695374
 0.730000   0.161028   -0.862150
 0.735000   0.156336   -0.933182
 0.740000   0.151696   -1.259730
 0.745000   0.143739   -1.710942
 0.750000   0.134587   -1.812333
 0.755000   0.125616   -1.831744
 0.760000   0.116270   -1.894472
 0.765000   0.106671   -2.010966
 0.770000   0.096160   -2.079925
 0.775000   0.085872   -1.665308
 0.780000   0.079507   -1.208469
 0.785000   0.073787   -0.932592
 0.790000   0.070181   -0.554572
 0.795000   0.068241   -0.261552
 0.800000   0.067565   0.220398
 0.805000   0.070445   0.987381
 0.810000   0.077439   1.330711
 0.815000   0.083752   1.340215
 0.820000   0.090841   1.430570
 0.825000   0.098058   1.430680
 0.830000   0.105148   1.471180
 0.835000   0.112770   1.373305
 0.840000   0.118881   1.290442
 0.845000   0.125674   1.499682
 0.850000   0.133878   1.847134
 0.855000   0.144145   2.353762
 0.860000   0.157416   3.235833
 0.865000   0.176504   4.210394
 0.870000   0.199520   5.317131
 0.875000   0.229675   6.732732
 0.880000   0.266847   7.982551
 0.885000   0.309501   8.860608
 0.890000   0.355453   10.285959
 0.895000   0.412360   10.391054
 0.900000   0.459364   9.632055
 0.905000   0.508681   9.252759
 0.910000   0.551891   8.161538
 0.915000   0.590296   6.894276
 0.920000   0.620834   7.991929
 0.925000   0.670215   7.143535
 0.930000   0.692269   8.866957
 0.935000   0.758885   17.767150
 0.940000   0.869941   27.259968
 0.945000   1.031485   36.752071
 0.950000   1.237461   48.876995
 0.955000   1.520255   35.095953
 0.960000   1.588421   -5.806225
 0.965000   1.462192   -56.243101
 0.970000   1.025990   -124.509188
 0.975000   0.217101   -195.863496
 0.980000   -0.932645   -241.751759
 0.985000   -2.200417   -223.571090
 0.990000   -3.168356   -117.293924
 0.995000   -3.373356   46.687468
 1.000000   -2.701481   222.062584
201 psinorm nz1(10^20/m^3) dnz1/dpsiN
 0.000000   0.015091   -0.000000
 0.005000   0.015091   0.000111
 0.010000   0.015092   0.000223
 0.015000   0.015094   0.000336
 0.020000   0.015096   0.000450
 0.025000   0.015098   0.000563
 0.030000   0.015101   0.000675
 0.035000   0.015105   0.000784
 0.040000   0.015109   0.000891
 0.045000   0.015114   0.000993
 0.050000   0.015119   0.001091
 0.055000   0.015125   0.001184
 0.060000   0.015131   0.001270
 0.065000   0.015137   0.001351
 0.070000   0.015144   0.001424
 0.075000   0.015152   0.001490
 0.080000   0.015159   0.001549
 0.085000   0.015167   0.001599
 0.090000   0.015175   0.001641
 0.095000   0.015184   0.001673
 0.100000   0.015192   0.001695
 0.105000   0.015200   0.001708
 0.110000   0.015209   0.001711
 0.115000   0.015218   0.001703
 0.120000   0.015226   0.001686
 0.125000   0.015234   0.001657
 0.130000   0.015243   0.001618
 0.135000   0.015251   0.001569
 0.140000   0.015258   0.001511
 0.145000   0.015266   0.001443
 0.150000   0.015273   0.001366
 0.155000   0.015279   0.001281
 0.160000   0.015286   0.001189
 0.165000   0.015291   0.001089
 0.170000   0.015296   0.000982
 0.175000   0.015301   0.000871
 0.180000   0.015305   0.000753
 0.185000   0.015309   0.000631
 0.190000   0.015311   0.000505
 0.195000   0.015314   0.000375
 0.200000   0.015315   0.000241
 0.205000   0.015316   0.000105
 0.210000   0.015316   -0.000033
 0.215000   0.015316   -0.000172
 0.220000   0.015315   -0.000311
 0.225000   0.015313   -0.000450
 0.230000   0.015310   -0.000589
 0.235000   0.015307   -0.000726
 0.240000   0.015303   -0.000862
 0.245000   0.015298   -0.000996
 0.250000   0.015293   -0.001128
 0.255000   0.015287   -0.001257
 0.260000   0.015280   -0.001382
 0.265000   0.015273   -0.001502
 0.270000   0.015265   -0.001615
 0.275000   0.015257   -0.001721
 0.280000   0.015248   -0.001819
 0.285000   0.015239   -0.001907
 0.290000   0.015229   -0.001985
 0.295000   0.015219   -0.002050
 0.300000   0.015208   -0.002104
 0.305000   0.015198   -0.002144
 0.310000   0.015187   -0.002171
 0.315000   0.015176   -0.002183
 0.320000   0.015165   -0.002181
 0.325000   0.015154   -0.002166
 0.330000   0.015144   -0.002138
 0.335000   0.015133   -0.002097
 0.340000   0.015123   -0.002046
 0.345000   0.015112   -0.001984
 0.350000   0.015103   -0.001913
 0.355000   0.015093   -0.001832
 0.360000   0.015084   -0.001740
 0.365000   0.015076   -0.001636
 0.370000   0.015068   -0.001519
 0.375000   0.015061   -0.001389
 0.380000   0.015054   -0.001246
 0.385000   0.015048   -0.001090
 0.390000   0.015043   -0.000921
 0.395000   0.015039   -0.000742
 0.400000   0.015036   -0.000555
 0.405000   0.015034   -0.000360
 0.410000   0.015032   -0.000161
 0.415000   0.015032   0.000041
 0.420000   0.015033   0.000243
 0.425000   0.015034   0.000443
 0.430000   0.015037   0.000640
 0.435000   0.015041   0.000830
 0.440000   0.015045   0.001014
 0.445000   0.015051   0.001190
 0.450000   0.015057   0.001358
 0.455000   0.015064   0.001517
 0.460000   0.015072   0.001668
 0.465000   0.015081   0.001810
 0.470000   0.015091   0.001943
 0.475000   0.015101   0.002068
 0.480000   0.015111   0.002183
 0.485000   0.015122   0.002284
 0.490000   0.015134   0.002371
 0.495000   0.015146   0.002443
 0.500000   0.015158   0.002498
 0.505000   0.015171   0.002535
 0.510000   0.015184   0.002554
 0.515000   0.015197   0.002553
 0.520000   0.015209   0.002532
 0.525000   0.015222   0.002490
 0.530000   0.015234   0.002427
 0.535000   0.015246   0.002342
 0.540000   0.015258   0.002235
 0.545000   0.015269   0.002105
 0.550000   0.015279   0.001953
 0.555000   0.015288   0.001777
 0.560000   0.015297   0.001576
 0.565000   0.015304   0.001350
 0.570000   0.015310   0.001097
 0.575000   0.015315   0.000818
 0.580000   0.015318   0.000512
 0.585000   0.015320   0.000180
 0.590000   0.015320   -0.000177
 0.595000   0.015318   -0.000560
 0.600000   0.015314   -0.000965
 0.605000   0.015309   -0.001392
 0.610000   0.015300   -0.001839
 0.615000   0.015290   -0.002304
 0.620000   0.015277   -0.002788
 0.625000   0.015262   -0.003291
 0.630000   0.015245   -0.003813
 0.635000   0.015224   -0.004354
 0.640000   0.015201   -0.004911
 0.645000   0.015175   -0.005485
 0.650000   0.015146   -0.006076
 0.655000   0.015114   -0.006681
 0.660000   0.015079   -0.007292
 0.665000   0.015041   -0.007908
 0.670000   0.015000   -0.008525
 0.675000   0.014956   -0.009140
 0.680000   0.014909   -0.009764
 0.685000   0.014858   -0.010426
 0.690000   0.014805   -0.011154
 0.695000   0.014747   -0.011962
 0.700000   0.014685   -0.012856
 0.705000   0.014618   -0.013834
 0.710000   0.014547   -0.014930
 0.715000   0.014469   -0.016115
 0.720000   0.014385   -0.017299
 0.725000   0.014296   -0.018466
 0.730000   0.014201   -0.019607
 0.735000   0.014100   -0.020688
 0.740000   0.013994   -0.021692
 0.745000   0.013883   -0.022547
 0.750000   0.013768   -0.023160
 0.755000   0.013651   -0.023519
 0.760000   0.013533   -0.023626
 0.765000   0.013415   -0.023472
 0.770000   0.013299   -0.023031
 0.775000   0.013185   -0.022297
 0.780000   0.013076   -0.021381
 0.785000   0.012971   -0.020381
 0.790000   0.012872   -0.019320
 0.795000   0.012778   -0.018242
 0.800000   0.012689   -0.017168
 0.805000   0.012606   -0.016132
 0.810000   0.012528   -0.015213
 0.815000   0.012454   -0.014416
 0.820000   0.012384   -0.013689
 0.825000   0.012317   -0.013011
 0.830000   0.012254   -0.012351
 0.835000   0.012194   -0.011680
 0.840000   0.012137   -0.010984
 0.845000   0.012084   -0.010264
 0.850000   0.012034   -0.009532
 0.855000   0.011989   -0.008792
 0.860000   0.011946   -0.008051
 0.865000   0.011908   -0.007315
 0.870000   0.011873   -0.006608
 0.875000   0.011842   -0.005954
 0.880000   0.011814   -0.005358
 0.885000   0.011788   -0.004807
 0.890000   0.011766   -0.004288
 0.895000   0.011745   -0.003813
 0.900000   0.011728   -0.003366
 0.905000   0.011712   -0.002947
 0.910000   0.011698   -0.002605
 0.915000   0.011686   -0.002411
 0.920000   0.011674   -0.002555
 0.925000   0.011660   -0.003593
 0.930000   0.011638   -0.006566
 0.935000   0.011595   -0.013331
 0.940000   0.011505   -0.026844
 0.945000   0.011326   -0.050786
 0.950000   0.010997   -0.088340
 0.955000   0.010443   -0.141028
 0.960000   0.009587   -0.201485
 0.965000   0.008428   -0.253174
 0.970000   0.007055   -0.279634
 0.975000   0.005632   -0.271986
 0.980000   0.004335   -0.234919
 0.985000   0.003282   -0.183029
 0.990000   0.002505   -0.131415
 0.995000   0.001968   -0.089411
 1.000000   0.001611   -0.053633
201 psinorm vtor1(km/s) dvtor1/dpsiN
 0.000000   108.451800   540.583782
 0.005000   110.548131   297.948773
 0.010000   111.431288   155.235177
 0.015000   112.100483   121.989279
 0.020000   112.651181   102.244314
 0.025000   113.122926   88.884521
 0.030000   113.540026   78.854080
 0.035000   113.911467   69.784825
 0.040000   114.237874   61.527602
 0.045000   114.526743   54.239385
 0.050000   114.780268   47.187984
 0.055000   114.998623   40.159938
 0.060000   115.181867   33.405431
 0.065000   115.332677   26.963906
 0.070000   115.451506   20.685722
 0.075000   115.539535   14.702153
 0.080000   115.598528   9.001096
 0.085000   115.629545   3.490855
 0.090000   115.633436   -1.932213
 0.095000   115.610223   -7.195914
 0.100000   115.561477   -12.173028
 0.105000   115.488493   -17.020535
 0.110000   115.391272   -21.829118
 0.115000   115.270202   -26.467917
 0.120000   115.126593   -30.934059
 0.125000   114.960861   -35.440595
 0.130000   114.772187   -39.954039
 0.135000   114.561321   -44.497021
 0.140000   114.327217   -49.213581
 0.145000   114.069185   -53.978168
 0.150000   113.787435   -58.694202
 0.155000   113.482243   -63.396678
 0.160000   113.153468   -68.171535
 0.165000   112.800528   -72.965950
 0.170000   112.423809   -77.653418
 0.175000   112.023994   -82.212765
 0.180000   111.601681   -86.645265
 0.185000   111.157541   -90.897582
 0.190000   110.692705   -94.924597
 0.195000   110.208295   -98.739049
 0.200000   109.705315   -102.338340
 0.205000   109.184912   -105.654635
 0.210000   108.648768   -108.622293
 0.215000   108.098689   -111.225125
 0.220000   107.536517   -113.369965
 0.225000   106.964989   -114.950769
 0.230000   106.387009   -116.179245
 0.235000   105.803197   -117.184397
 0.240000   105.215165   -117.880818
 0.245000   104.624388   -118.308980
 0.250000   104.032076   -118.495041
 0.255000   103.439438   -118.305745
 0.260000   102.849018   -117.855589
 0.265000   102.260882   -117.292570
 0.270000   101.676092   -116.542275
 0.275000   101.095459   -115.639570
 0.280000   100.519697   -114.626491
 0.285000   99.949194   -113.532293
 0.290000   99.384374   -112.535915
 0.295000   98.823835   -111.698673
 0.300000   98.267387   -110.870765
 0.305000   97.715128   -109.970724
 0.310000   97.167680   -108.871536
 0.315000   96.626412   -107.405260
 0.320000   96.093627   -105.594492
 0.325000   95.570467   -103.538604
 0.330000   95.058241   -101.235839
 0.335000   94.558109   -98.712402
 0.340000   94.071117   -96.005401
 0.345000   93.598055   -93.043155
 0.350000   93.140686   -89.963516
 0.355000   92.698420   -86.945158
 0.360000   92.271234   -83.925328
 0.365000   91.859166   -80.913909
 0.370000   91.462095   -77.946909
 0.375000   91.079697   -75.022755
 0.380000   90.711867   -72.178774
 0.385000   90.357910   -69.417509
 0.390000   90.017692   -66.665778
 0.395000   89.691252   -63.897005
 0.400000   89.378722   -61.100842
 0.405000   89.080243   -58.265650
 0.410000   88.796066   -55.515637
 0.415000   88.525087   -53.053919
 0.420000   88.265527   -50.980906
 0.425000   88.015278   -49.335880
 0.430000   87.772168   -48.099408
 0.435000   87.534284   -47.348824
 0.440000   87.298680   -47.003445
 0.445000   87.064249   -46.669382
 0.450000   86.831986   -46.170883
 0.455000   86.602541   -45.508805
 0.460000   86.376898   -44.627261
 0.465000   86.156268   -43.584274
 0.470000   85.941055   -42.302557
 0.475000   85.733242   -40.514096
 0.480000   85.535914   -38.275437
 0.485000   85.350488   -35.790994
 0.490000   85.178004   -33.151785
 0.495000   85.018970   -30.467063
 0.500000   84.873333   -27.796207
 0.505000   84.741008   -25.214103
 0.510000   84.621192   -22.889335
 0.515000   84.512115   -20.963089
 0.520000   84.411561   -19.514542
 0.525000   84.316969   -18.575313
 0.530000   84.225808   -18.134173
 0.535000   84.135628   -18.250128
 0.540000   84.043307   -18.934949
 0.545000   83.946278   -20.131644
 0.550000   83.841991   -21.841487
 0.555000   83.727863   -24.056032
 0.560000   83.601430   -26.776789
 0.565000   83.460095   -30.059066
 0.570000   83.300840   -33.927102
 0.575000   83.120824   -38.378861
 0.580000   82.917051   -43.447056
 0.585000   82.686354   -49.165879
 0.590000   82.425392   -55.660032
 0.595000   82.129753   -62.823216
 0.600000   81.797160   -70.475143
 0.605000   81.425002   -78.623634
 0.610000   81.010924   -87.193650
 0.615000   80.553066   -96.090956
 0.620000   80.050014   -105.266347
 0.625000   79.500402   -114.485419
 0.630000   78.905160   -123.538506
 0.635000   78.265017   -132.380453
 0.640000   77.581355   -140.875665
 0.645000   76.856260   -148.892412
 0.650000   76.092431   -156.182650
 0.655000   75.294434   -162.673189
 0.660000   74.465699   -168.493183
 0.665000   73.609502   -173.684577
 0.670000   72.728854   -178.329093
 0.675000   71.826211   -182.527745
 0.680000   70.903576   -186.372797
 0.685000   69.962483   -189.974343
 0.690000   69.003833   -193.151088
 0.695000   68.030972   -195.489669
 0.700000   67.048936   -196.737803
 0.705000   66.063594   -196.797247
 0.710000   65.080964   -195.693137
 0.715000   64.106663   -193.656728
 0.720000   63.144396   -190.916311
 0.725000   62.197500   -187.499642
 0.730000   61.269400   -183.422448
 0.735000   60.363275   -178.738618
 0.740000   59.482014   -173.508229
 0.745000   58.628193   -167.819291
 0.750000   57.803821   -161.723280
 0.755000   57.010960   -155.264339
 0.760000   56.251177   -148.595236
 0.765000   55.525008   -141.913616
 0.770000   54.832041   -135.539077
 0.775000   54.169617   -129.563056
 0.780000   53.536411   -123.414177
 0.785000   52.935475   -116.824757
 0.790000   52.368163   -110.025060
 0.795000   51.835225   -103.176096
 0.800000   51.336402   -96.555796
 0.805000   50.869667   -90.440668
 0.810000   50.431996   -84.996497
 0.815000   50.019702   -80.648603
 0.820000   49.625510   -77.951557
 0.825000   49.240186   -77.285702
 0.830000   48.852652   -79.071111
 0.835000   48.449475   -83.823500
 0.840000   48.014417   -91.681284
 0.845000   47.532662   -102.802761
 0.850000   46.986390   -117.666267
 0.855000   46.356000   -136.648527
 0.860000   45.619905   -160.292577
 0.865000   44.753074   -189.869712
 0.870000   43.721207   -225.339794
 0.875000   42.499676   -266.030819
 0.880000   41.060899   -311.869859
 0.885000   39.380977   -361.779538
 0.890000   37.443104   -413.977911
 0.895000   35.241198   -467.370406
 0.900000   32.769400   -516.991160
 0.905000   30.071287   -557.559475
 0.910000   27.193805   -586.887322
 0.915000   24.202413   -601.539194
 0.920000   21.178413   -598.849053
 0.925000   18.213923   -577.497968
 0.930000   15.403433   -536.917529
 0.935000   12.844748   -479.040630
 0.940000   10.613027   -408.275031
 0.945000   8.761997   -329.453317
 0.950000   7.318494   -248.274288
 0.955000   6.279254   -170.417343
 0.960000   5.614321   -101.862799
 0.965000   5.260626   -47.037252
 0.970000   5.143948   -7.268680
 0.975000   5.187940   17.752591
 0.980000   5.321474   29.630885
 0.985000   5.484248   30.718305
 0.990000   5.628657   23.957827
 0.995000   5.723827   12.216361
 1.000000   5.750821   -1.418760
201 psinorm vpol1(km/s) dvpol1/dpsiN
 0.000000   0.000027   5.232813
 0.005000   0.028992   6.353125
 0.010000   0.063559   7.451172
 0.015000   0.103504   8.482422
 0.020000   0.148383   9.378906
 0.025000   0.197293   10.078906
 0.030000   0.249172   10.501563
 0.035000   0.302309   10.705859
 0.040000   0.356230   10.798828
 0.045000   0.410297   10.795703
 0.050000   0.464188   10.758594
 0.055000   0.517883   10.756250
 0.060000   0.571750   10.832422
 0.065000   0.626207   10.970312
 0.070000   0.681453   11.130469
 0.075000   0.737512   11.267969
 0.080000   0.794133   11.372656
 0.085000   0.851238   11.421875
 0.090000   0.908352   11.388281
 0.095000   0.965121   11.284766
 0.100000   1.021199   11.118750
 0.105000   1.076309   10.908594
 0.110000   1.130285   10.667969
 0.115000   1.182988   10.408203
 0.120000   1.234367   10.156641
 0.125000   1.284555   9.942187
 0.130000   1.333789   9.772656
 0.135000   1.382281   9.632812
 0.140000   1.430117   9.519531
 0.145000   1.477477   9.432813
 0.150000   1.524445   9.314063
 0.155000   1.570617   9.123437
 0.160000   1.615680   8.867188
 0.165000   1.659289   8.540234
 0.170000   1.701082   8.146094
 0.175000   1.740750   7.683594
 0.180000   1.777918   7.155078
 0.185000   1.812301   6.599219
 0.190000   1.843910   6.037109
 0.195000   1.872672   5.479687
 0.200000   1.898707   4.935156
 0.205000   1.922023   4.406250
 0.210000   1.942770   3.940625
 0.215000   1.961430   3.535937
 0.220000   1.978129   3.157813
 0.225000   1.993008   2.794922
 0.230000   2.006078   2.432031
 0.235000   2.017328   2.047656
 0.240000   2.026555   1.628125
 0.245000   2.033609   1.177344
 0.250000   2.038328   0.697266
 0.255000   2.040582   0.188672
 0.260000   2.040215   -0.344922
 0.265000   2.037133   -0.886719
 0.270000   2.031348   -1.432813
 0.275000   2.022805   -1.983203
 0.280000   2.011516   -2.539453
 0.285000   1.997410   -3.123047
 0.290000   1.980285   -3.748437
 0.295000   1.959926   -4.432031
 0.300000   1.935965   -5.185937
 0.305000   1.908066   -6.002344
 0.310000   1.875941   -6.882812
 0.315000   1.839238   -7.836719
 0.320000   1.797574   -8.862500
 0.325000   1.750613   -9.908203
 0.330000   1.698492   -10.905469
 0.335000   1.641559   -11.814844
 0.340000   1.580344   -12.614453
 0.345000   1.515414   -13.268750
 0.350000   1.447656   -13.701953
 0.355000   1.378395   -13.916992
 0.360000   1.308486   -13.999219
 0.365000   1.238402   -13.979687
 0.370000   1.168689   -13.873828
 0.375000   1.099664   -13.729492
 0.380000   1.031395   -13.559180
 0.385000   0.964072   -13.498828
 0.390000   0.896406   -13.621680
 0.395000   0.827855   -13.835352
 0.400000   0.758053   -14.093164
 0.405000   0.686924   -14.369141
 0.410000   0.614361   -14.741797
 0.415000   0.539506   -15.429883
 0.420000   0.460062   -16.645508
 0.425000   0.373051   -18.479297
 0.430000   0.275270   -20.952930
 0.435000   0.163521   -24.128125
 0.440000   0.033988   -28.212695
 0.445000   -0.118605   -32.605078
 0.450000   -0.292063   -36.757227
 0.455000   -0.486178   -40.744922
 0.460000   -0.699512   -44.316797
 0.465000   -0.929346   -47.255078
 0.470000   -1.172063   -49.143750
 0.475000   -1.420783   -49.568555
 0.480000   -1.667748   -48.624023
 0.485000   -1.907023   -46.552734
 0.490000   -2.133275   -43.515234
 0.495000   -2.342176   -39.498437
 0.500000   -2.528260   -34.753125
 0.505000   -2.689707   -30.142969
 0.510000   -2.829689   -26.042578
 0.515000   -2.950133   -22.396484
 0.520000   -3.053654   -19.341016
 0.525000   -3.143543   -16.949219
 0.530000   -3.223146   -15.458203
 0.535000   -3.298125   -14.831055
 0.540000   -3.371457   -14.654688
 0.545000   -3.444672   -14.731836
 0.550000   -3.518775   -14.971094
 0.555000   -3.594383   -15.398047
 0.560000   -3.672756   -15.841016
 0.565000   -3.752793   -16.064258
 0.570000   -3.833398   -16.059180
 0.575000   -3.913385   -15.809766
 0.580000   -3.991496   -15.292188
 0.585000   -4.066307   -14.518164
 0.590000   -4.136678   -13.449023
 0.595000   -4.200797   -12.127148
 0.600000   -4.257949   -10.701660
 0.605000   -4.307813   -9.246973
 0.610000   -4.350419   -7.825195
 0.615000   -4.386065   -6.450488
 0.620000   -4.414924   -5.218555
 0.625000   -4.438251   -4.202930
 0.630000   -4.456953   -3.354590
 0.635000   -4.471797   -2.659570
 0.640000   -4.483549   -2.102344
 0.645000   -4.492820   -1.663379
 0.650000   -4.500183   -1.320117
 0.655000   -4.506021   -1.039551
 0.660000   -4.510578   -0.793164
 0.665000   -4.513953   -0.566895
 0.670000   -4.516247   -0.363965
 0.675000   -4.517593   -0.181348
 0.680000   -4.518061   -0.015820
 0.685000   -4.517751   0.133984
 0.690000   -4.516721   0.276855
 0.695000   -4.514982   0.415332
 0.700000   -4.512567   0.559326
 0.705000   -4.509389   0.704053
 0.710000   -4.505527   0.831445
 0.715000   -4.501075   0.919238
 0.720000   -4.496334   0.937695
 0.725000   -4.491698   0.863818
 0.730000   -4.487696   0.673950
 0.735000   -4.484958   0.346289
 0.740000   -4.484233   -0.117065
 0.745000   -4.486129   -0.684363
 0.750000   -4.491077   -1.317377
 0.755000   -4.499303   -1.968103
 0.760000   -4.510758   -2.560529
 0.765000   -4.524908   -3.054468
 0.770000   -4.541303   -3.472852
 0.775000   -4.559636   -3.865820
 0.780000   -4.579961   -4.310437
 0.785000   -4.602741   -4.898328
 0.790000   -4.628944   -5.823694
 0.795000   -4.660978   -7.159338
 0.800000   -4.700538   -8.847095
 0.805000   -4.749449   -10.867871
 0.810000   -4.809216   -13.135645
 0.815000   -4.880805   -15.506006
 0.820000   -4.964276   -17.838721
 0.825000   -5.059192   -19.764160
 0.830000   -5.161918   -21.010645
 0.835000   -5.269299   -21.545508
 0.840000   -5.377373   -21.229492
 0.845000   -5.481594   -19.982324
 0.850000   -5.577196   -17.785742
 0.855000   -5.659451   -14.809277
 0.860000   -5.725289   -11.356836
 0.865000   -5.773020   -7.710156
 0.870000   -5.802391   -4.123047
 0.875000   -5.814250   -0.795313
 0.880000   -5.810344   2.121094
 0.885000   -5.793039   4.597070
 0.890000   -5.764373   6.668359
 0.895000   -5.726355   8.345898
 0.900000   -5.680914   9.625977
 0.905000   -5.630096   10.466406
 0.910000   -5.576250   10.923633
 0.915000   -5.520859   11.194531
 0.920000   -5.464305   11.426563
 0.925000   -5.406594   11.683203
 0.930000   -5.347473   11.986719
 0.935000   -5.286727   12.530859
 0.940000   -5.222164   13.126953
 0.945000   -5.155457   12.632422
 0.950000   -5.095840   9.675391
 0.955000   -5.058703   3.281641
 0.960000   -5.063023   -5.843359
 0.965000   -5.117137   -12.254687
 0.970000   -5.185570   -0.082031
 0.975000   -5.117957   56.723437
 0.980000   -4.618336   179.578125
 0.985000   -3.322176   357.282812
 0.990000   -1.045508   521.685937
 0.995000   1.894684   564.267187
 1.000000   4.597164   516.725000
3 N Z A of ION SPECIES
 6.000000   6.000000   12.010700
 1.000000   1.000000   2.000000
 1.000000   1.000000   2.000000
