201 psinorm ne(10^20/m^3) dne/dpsiN
 0.000000   0.460972   -0.423448
 0.005000   0.458863   -0.420256
 0.010000   0.456770   -0.417077
 0.015000   0.454692   -0.413924
 0.020000   0.452631   -0.410796
 0.025000   0.450584   -0.407695
 0.030000   0.448554   -0.404618
 0.035000   0.446538   -0.401566
 0.040000   0.444538   -0.398540
 0.045000   0.442553   -0.395537
 0.050000   0.440583   -0.392559
 0.055000   0.438627   -0.389605
 0.060000   0.436687   -0.386675
 0.065000   0.434761   -0.383769
 0.070000   0.432849   -0.380886
 0.075000   0.430952   -0.378026
 0.080000   0.429069   -0.375189
 0.085000   0.427200   -0.372374
 0.090000   0.425345   -0.369582
 0.095000   0.423504   -0.366813
 0.100000   0.421677   -0.364065
 0.105000   0.419863   -0.361340
 0.110000   0.418063   -0.358636
 0.115000   0.416277   -0.355953
 0.120000   0.414504   -0.353292
 0.125000   0.412744   -0.350652
 0.130000   0.410997   -0.348033
 0.135000   0.409264   -0.345434
 0.140000   0.407543   -0.342856
 0.145000   0.405835   -0.340298
 0.150000   0.404140   -0.337760
 0.155000   0.402458   -0.335242
 0.160000   0.400788   -0.332744
 0.165000   0.399130   -0.330265
 0.170000   0.397485   -0.327806
 0.175000   0.395852   -0.325366
 0.180000   0.394231   -0.322945
 0.185000   0.392623   -0.320542
 0.190000   0.391026   -0.318158
 0.195000   0.389441   -0.315793
 0.200000   0.387868   -0.313446
 0.205000   0.386307   -0.311117
 0.210000   0.384757   -0.308806
 0.215000   0.383219   -0.306513
 0.220000   0.381692   -0.304237
 0.225000   0.380176   -0.301979
 0.230000   0.378672   -0.299738
 0.235000   0.377179   -0.297514
 0.240000   0.375697   -0.295307
 0.245000   0.374226   -0.293117
 0.250000   0.372766   -0.290944
 0.255000   0.371316   -0.288787
 0.260000   0.369878   -0.286646
 0.265000   0.368450   -0.284522
 0.270000   0.367032   -0.282413
 0.275000   0.365626   -0.280321
 0.280000   0.364229   -0.278244
 0.285000   0.362843   -0.276183
 0.290000   0.361467   -0.274137
 0.295000   0.360102   -0.272107
 0.300000   0.358746   -0.270091
 0.305000   0.357401   -0.268091
 0.310000   0.356065   -0.266106
 0.315000   0.354740   -0.264135
 0.320000   0.353424   -0.262179
 0.325000   0.352118   -0.260237
 0.330000   0.350822   -0.258310
 0.335000   0.349535   -0.256397
 0.340000   0.348258   -0.254498
 0.345000   0.346990   -0.252613
 0.350000   0.345732   -0.250742
 0.355000   0.344483   -0.248884
 0.360000   0.343243   -0.247041
 0.365000   0.342012   -0.245210
 0.370000   0.340791   -0.243393
 0.375000   0.339578   -0.241589
 0.380000   0.338375   -0.239798
 0.385000   0.337180   -0.238020
 0.390000   0.335995   -0.236255
 0.395000   0.334818   -0.234502
 0.400000   0.333650   -0.232762
 0.405000   0.332490   -0.231035
 0.410000   0.331339   -0.229320
 0.415000   0.330197   -0.227617
 0.420000   0.329063   -0.225927
 0.425000   0.327938   -0.224248
 0.430000   0.326821   -0.222581
 0.435000   0.325712   -0.220926
 0.440000   0.324611   -0.219283
 0.445000   0.323519   -0.217652
 0.450000   0.322435   -0.216031
 0.455000   0.321359   -0.214423
 0.460000   0.320291   -0.212825
 0.465000   0.319230   -0.211239
 0.470000   0.318178   -0.209664
 0.475000   0.317134   -0.208099
 0.480000   0.316097   -0.206546
 0.485000   0.315068   -0.205003
 0.490000   0.314047   -0.203471
 0.495000   0.313034   -0.201950
 0.500000   0.312028   -0.200439
 0.505000   0.311029   -0.198938
 0.510000   0.310038   -0.197448
 0.515000   0.309055   -0.195968
 0.520000   0.308079   -0.194498
 0.525000   0.307110   -0.193038
 0.530000   0.306148   -0.191588
 0.535000   0.305194   -0.190147
 0.540000   0.304247   -0.188717
 0.545000   0.303307   -0.187296
 0.550000   0.302374   -0.185884
 0.555000   0.301448   -0.184482
 0.560000   0.300529   -0.183090
 0.565000   0.299617   -0.181707
 0.570000   0.298712   -0.180332
 0.575000   0.297814   -0.178967
 0.580000   0.296922   -0.177611
 0.585000   0.296038   -0.176264
 0.590000   0.295160   -0.174926
 0.595000   0.294288   -0.173597
 0.600000   0.293424   -0.172276
 0.605000   0.292566   -0.170964
 0.610000   0.291714   -0.169660
 0.615000   0.290869   -0.168365
 0.620000   0.290030   -0.167078
 0.625000   0.289198   -0.165799
 0.630000   0.288372   -0.164529
 0.635000   0.287553   -0.163266
 0.640000   0.286740   -0.162012
 0.645000   0.285933   -0.160765
 0.650000   0.285132   -0.159526
 0.655000   0.284337   -0.158294
 0.660000   0.283549   -0.157070
 0.665000   0.282767   -0.155853
 0.670000   0.281991   -0.154643
 0.675000   0.281220   -0.153440
 0.680000   0.280456   -0.152243
 0.685000   0.279698   -0.151053
 0.690000   0.278946   -0.149868
 0.695000   0.278199   -0.148688
 0.700000   0.277459   -0.147513
 0.705000   0.276724   -0.146341
 0.710000   0.275995   -0.145172
 0.715000   0.275272   -0.144005
 0.720000   0.274555   -0.142838
 0.725000   0.273844   -0.141670
 0.730000   0.273139   -0.140497
 0.735000   0.272439   -0.139318
 0.740000   0.271745   -0.138128
 0.745000   0.271058   -0.136923
 0.750000   0.270376   -0.135697
 0.755000   0.269701   -0.134444
 0.760000   0.269032   -0.133155
 0.765000   0.268369   -0.131819
 0.770000   0.267714   -0.130423
 0.775000   0.267065   -0.128949
 0.780000   0.266424   -0.127379
 0.785000   0.265791   -0.125686
 0.790000   0.265167   -0.123839
 0.795000   0.264553   -0.121801
 0.800000   0.263949   -0.119525
 0.805000   0.263358   -0.116956
 0.810000   0.262780   -0.114024
 0.815000   0.262217   -0.110650
 0.820000   0.261673   -0.106736
 0.825000   0.261150   -0.102169
 0.830000   0.260651   -0.096817
 0.835000   0.260182   -0.090528
 0.840000   0.259746   -0.083133
 0.845000   0.259350   -0.074448
 0.850000   0.259002   -0.064283
 0.855000   0.258708   -0.052454
 0.860000   0.258477   -0.038811
 0.865000   0.258320   -0.023272
 0.870000   0.258244   -0.005890
 0.875000   0.258261   0.013058
 0.880000   0.258375   0.032925
 0.885000   0.258590   0.052494
 0.890000   0.258900   0.069683
 0.895000   0.259287   0.081154
 0.900000   0.259711   0.081791
 0.905000   0.260105   0.064107
 0.910000   0.260353   0.017646
 0.915000   0.260281   -0.071346
 0.920000   0.259639   -0.219505
 0.925000   0.258086   -0.444425
 0.930000   0.255195   -0.760360
 0.935000   0.250482   -1.171105
 0.940000   0.243484   -1.661254
 0.945000   0.233870   -2.189660
 0.950000   0.221587   -2.691071
 0.955000   0.206959   -3.090216
 0.960000   0.190685   -3.325320
 0.965000   0.173706   -3.369625
 0.970000   0.156989   -3.238386
 0.975000   0.141322   -2.978181
 0.980000   0.127207   -2.646803
 0.985000   0.114854   -2.295495
 0.990000   0.104252   -1.959991
 0.995000   0.095254   -1.659871
 1.000000   0.087653   -1.380482
201 psinorm te(KeV) dte/dpsiN
 0.000000   4.543399   -6.406769
 0.005000   4.511467   -6.366015
 0.010000   4.479739   -6.325375
 0.015000   4.448213   -6.284963
 0.020000   4.416889   -6.244778
 0.025000   4.385765   -6.204819
 0.030000   4.354841   -6.165084
 0.035000   4.324114   -6.125573
 0.040000   4.293585   -6.086284
 0.045000   4.263252   -6.047217
 0.050000   4.233113   -6.008370
 0.055000   4.203168   -5.969743
 0.060000   4.173416   -5.931335
 0.065000   4.143855   -5.893144
 0.070000   4.114484   -5.855169
 0.075000   4.085303   -5.817410
 0.080000   4.056310   -5.779865
 0.085000   4.027504   -5.742533
 0.090000   3.998885   -5.705414
 0.095000   3.970450   -5.668507
 0.100000   3.942200   -5.631810
 0.105000   3.914132   -5.595322
 0.110000   3.886246   -5.559043
 0.115000   3.858542   -5.522971
 0.120000   3.831017   -5.487106
 0.125000   3.803671   -5.451446
 0.130000   3.776502   -5.415991
 0.135000   3.749511   -5.380739
 0.140000   3.722695   -5.345690
 0.145000   3.696054   -5.310843
 0.150000   3.669586   -5.276196
 0.155000   3.643292   -5.241749
 0.160000   3.617169   -5.207501
 0.165000   3.591217   -5.173450
 0.170000   3.565434   -5.139597
 0.175000   3.539821   -5.105939
 0.180000   3.514375   -5.072476
 0.185000   3.489096   -5.039207
 0.190000   3.463983   -5.006131
 0.195000   3.439035   -4.973248
 0.200000   3.414250   -4.940555
 0.205000   3.389629   -4.908053
 0.210000   3.365170   -4.875741
 0.215000   3.340872   -4.843616
 0.220000   3.316734   -4.811679
 0.225000   3.292755   -4.779929
 0.230000   3.268934   -4.748365
 0.235000   3.245271   -4.716985
 0.240000   3.221765   -4.685789
 0.245000   3.198413   -4.654776
 0.250000   3.175217   -4.623946
 0.255000   3.152174   -4.593296
 0.260000   3.129284   -4.562827
 0.265000   3.106546   -4.532537
 0.270000   3.083959   -4.502426
 0.275000   3.061521   -4.472492
 0.280000   3.039234   -4.442735
 0.285000   3.017094   -4.413154
 0.290000   2.995102   -4.383748
 0.295000   2.973257   -4.354516
 0.300000   2.951557   -4.325457
 0.305000   2.930002   -4.296571
 0.310000   2.908591   -4.267856
 0.315000   2.887323   -4.239312
 0.320000   2.866198   -4.210938
 0.325000   2.845214   -4.182733
 0.330000   2.824371   -4.154696
 0.335000   2.803667   -4.126826
 0.340000   2.783102   -4.099122
 0.345000   2.762676   -4.071585
 0.350000   2.742387   -4.044212
 0.355000   2.722234   -4.017003
 0.360000   2.702217   -3.989957
 0.365000   2.682334   -3.963073
 0.370000   2.662586   -3.936351
 0.375000   2.642971   -3.909789
 0.380000   2.623488   -3.883387
 0.385000   2.604137   -3.857144
 0.390000   2.584917   -3.831060
 0.395000   2.565826   -3.805133
 0.400000   2.546865   -3.779362
 0.405000   2.528033   -3.753747
 0.410000   2.509328   -3.728287
 0.415000   2.490750   -3.702982
 0.420000   2.472298   -3.677829
 0.425000   2.453971   -3.652830
 0.430000   2.435770   -3.627982
 0.435000   2.417692   -3.603285
 0.440000   2.399737   -3.578738
 0.445000   2.381904   -3.554341
 0.450000   2.364193   -3.530093
 0.455000   2.346603   -3.505992
 0.460000   2.329133   -3.482039
 0.465000   2.311783   -3.458232
 0.470000   2.294551   -3.434570
 0.475000   2.277437   -3.411054
 0.480000   2.260441   -3.387682
 0.485000   2.243560   -3.364453
 0.490000   2.226796   -3.341366
 0.495000   2.210147   -3.318422
 0.500000   2.193612   -3.295618
 0.505000   2.177191   -3.272955
 0.510000   2.160882   -3.250432
 0.515000   2.144686   -3.228047
 0.520000   2.128602   -3.205801
 0.525000   2.112628   -3.183692
 0.530000   2.096765   -3.161720
 0.535000   2.081011   -3.139884
 0.540000   2.065366   -3.118183
 0.545000   2.049829   -3.096616
 0.550000   2.034400   -3.075184
 0.555000   2.019077   -3.053884
 0.560000   2.003861   -3.032717
 0.565000   1.988750   -3.011682
 0.570000   1.973744   -2.990778
 0.575000   1.958842   -2.970004
 0.580000   1.944044   -2.949360
 0.585000   1.929349   -2.928844
 0.590000   1.914756   -2.908457
 0.595000   1.900264   -2.888197
 0.600000   1.885874   -2.868064
 0.605000   1.871584   -2.848057
 0.610000   1.857393   -2.828176
 0.615000   1.843302   -2.808420
 0.620000   1.829309   -2.788788
 0.625000   1.815414   -2.769279
 0.630000   1.801616   -2.749893
 0.635000   1.787915   -2.730629
 0.640000   1.774310   -2.711486
 0.645000   1.760800   -2.692464
 0.650000   1.747385   -2.673563
 0.655000   1.734065   -2.654781
 0.660000   1.720837   -2.636117
 0.665000   1.707703   -2.617572
 0.670000   1.694662   -2.599145
 0.675000   1.681712   -2.580834
 0.680000   1.668853   -2.562639
 0.685000   1.656086   -2.544560
 0.690000   1.643408   -2.526595
 0.695000   1.630820   -2.508745
 0.700000   1.618320   -2.491008
 0.705000   1.605910   -2.473384
 0.710000   1.593587   -2.455872
 0.715000   1.581351   -2.438471
 0.720000   1.569202   -2.421180
 0.725000   1.557139   -2.403999
 0.730000   1.545162   -2.386927
 0.735000   1.533270   -2.369961
 0.740000   1.521462   -2.353102
 0.745000   1.509739   -2.336348
 0.750000   1.498099   -2.319697
 0.755000   1.486542   -2.303147
 0.760000   1.475067   -2.286695
 0.765000   1.463675   -2.270340
 0.770000   1.452364   -2.254076
 0.775000   1.441134   -2.237901
 0.780000   1.429985   -2.221807
 0.785000   1.418916   -2.205789
 0.790000   1.407927   -2.189838
 0.795000   1.397018   -2.173943
 0.800000   1.386188   -2.158092
 0.805000   1.375437   -2.142269
 0.810000   1.364765   -2.126454
 0.815000   1.354172   -2.110627
 0.820000   1.343659   -2.094762
 0.825000   1.333225   -2.078831
 0.830000   1.322870   -2.062807
 0.835000   1.312596   -2.046665
 0.840000   1.302404   -2.030391
 0.845000   1.292293   -2.013992
 0.850000   1.282264   -1.997515
 0.855000   1.272317   -1.981078
 0.860000   1.262453   -1.964920
 0.865000   1.252668   -1.949473
 0.870000   1.242958   -1.935484
 0.875000   1.233313   -1.924192
 0.880000   1.223716   -1.917603
 0.885000   1.214137   -1.918904
 0.890000   1.204527   -1.933077
 0.895000   1.194807   -1.967817
 0.900000   1.184849   -2.034860
 0.905000   1.174458   -2.151897
 0.910000   1.163330   -2.345233
 0.915000   1.151006   -2.653327
 0.920000   1.136797   -3.131126
 0.925000   1.119694   -3.854548
 0.930000   1.098251   -4.923139
 0.935000   1.070463   -6.456387
 0.940000   1.033687   -8.575093
 0.945000   0.984712   -11.354837
 0.950000   0.920139   -14.739871
 0.955000   0.837313   -18.426267
 0.960000   0.735876   -21.777124
 0.965000   0.619542   -23.899313
 0.970000   0.496883   -23.987325
 0.975000   0.379669   -21.813122
 0.980000   0.278752   -17.962756
 0.985000   0.200041   -13.528619
 0.990000   0.143466   -9.499527
 0.995000   0.105046   -6.373276
 1.000000   0.079733   -3.751860
201 psinorm ni(10^20/m^3) dni/dpsiN
 0.000000   0.253941   -0.453806
 0.005000   0.251983   -0.329252
 0.010000   0.250649   -0.231124
 0.015000   0.249672   -0.166708
 0.020000   0.248981   -0.113878
 0.025000   0.248533   -0.068815
 0.030000   0.248293   -0.030035
 0.035000   0.248233   0.003000
 0.040000   0.248323   0.030933
 0.045000   0.248542   0.054555
 0.050000   0.248869   0.074444
 0.055000   0.249287   0.091285
 0.060000   0.249782   0.104998
 0.065000   0.250337   0.115925
 0.070000   0.250941   0.124576
 0.075000   0.251583   0.130703
 0.080000   0.252248   0.134810
 0.085000   0.252931   0.137642
 0.090000   0.253624   0.139042
 0.095000   0.254321   0.138560
 0.100000   0.255010   0.136872
 0.105000   0.255690   0.134623
 0.110000   0.256356   0.131377
 0.115000   0.257004   0.126993
 0.120000   0.257626   0.121635
 0.125000   0.258220   0.115115
 0.130000   0.258777   0.107830
 0.135000   0.259298   0.100342
 0.140000   0.259781   0.092475
 0.145000   0.260223   0.084283
 0.150000   0.260624   0.075843
 0.155000   0.260981   0.067180
 0.160000   0.261295   0.058357
 0.165000   0.261565   0.049495
 0.170000   0.261790   0.040695
 0.175000   0.261972   0.032000
 0.180000   0.262110   0.023404
 0.185000   0.262206   0.014961
 0.190000   0.262260   0.006461
 0.195000   0.262271   -0.001982
 0.200000   0.262240   -0.010066
 0.205000   0.262170   -0.017947
 0.210000   0.262061   -0.025706
 0.215000   0.261913   -0.033346
 0.220000   0.261727   -0.040859
 0.225000   0.261504   -0.048243
 0.230000   0.261245   -0.055534
 0.235000   0.260949   -0.062981
 0.240000   0.260615   -0.070580
 0.245000   0.260243   -0.077769
 0.250000   0.259837   -0.084496
 0.255000   0.259398   -0.091031
 0.260000   0.258927   -0.097356
 0.265000   0.258425   -0.103471
 0.270000   0.257892   -0.109808
 0.275000   0.257326   -0.115937
 0.280000   0.256733   -0.121411
 0.285000   0.256112   -0.126657
 0.290000   0.255466   -0.131713
 0.295000   0.254795   -0.136774
 0.300000   0.254099   -0.141818
 0.305000   0.253377   -0.146488
 0.310000   0.252634   -0.150806
 0.315000   0.251869   -0.154962
 0.320000   0.251084   -0.159072
 0.325000   0.250278   -0.163098
 0.330000   0.249453   -0.166744
 0.335000   0.248611   -0.170033
 0.340000   0.247753   -0.173133
 0.345000   0.246880   -0.176199
 0.350000   0.245991   -0.179069
 0.355000   0.245089   -0.181530
 0.360000   0.244175   -0.183741
 0.365000   0.243251   -0.185813
 0.370000   0.242317   -0.187811
 0.375000   0.241373   -0.189556
 0.380000   0.240422   -0.191008
 0.385000   0.239463   -0.192308
 0.390000   0.238499   -0.193626
 0.395000   0.237527   -0.194775
 0.400000   0.236551   -0.195572
 0.405000   0.235571   -0.196196
 0.410000   0.234589   -0.196767
 0.415000   0.233604   -0.197188
 0.420000   0.232617   -0.197301
 0.425000   0.231631   -0.197197
 0.430000   0.230645   -0.197009
 0.435000   0.229661   -0.196691
 0.440000   0.228678   -0.196085
 0.445000   0.227700   -0.195239
 0.450000   0.226726   -0.194303
 0.455000   0.225757   -0.193253
 0.460000   0.224793   -0.191942
 0.465000   0.223837   -0.190407
 0.470000   0.222889   -0.188806
 0.475000   0.221949   -0.187140
 0.480000   0.221018   -0.185248
 0.485000   0.220097   -0.183136
 0.490000   0.219186   -0.180958
 0.495000   0.218287   -0.178724
 0.500000   0.217399   -0.176281
 0.505000   0.216524   -0.173622
 0.510000   0.215663   -0.170895
 0.515000   0.214815   -0.168116
 0.520000   0.213982   -0.165143
 0.525000   0.213164   -0.161970
 0.530000   0.212362   -0.158739
 0.535000   0.211577   -0.155470
 0.540000   0.210807   -0.152046
 0.545000   0.210056   -0.148469
 0.550000   0.209323   -0.144876
 0.555000   0.208607   -0.141313
 0.560000   0.207910   -0.137680
 0.565000   0.207231   -0.133961
 0.570000   0.206570   -0.130263
 0.575000   0.205928   -0.126634
 0.580000   0.205304   -0.122975
 0.585000   0.204698   -0.119245
 0.590000   0.204111   -0.115518
 0.595000   0.203543   -0.111845
 0.600000   0.202993   -0.108153
 0.605000   0.202461   -0.104388
 0.610000   0.201949   -0.100627
 0.615000   0.201455   -0.096917
 0.620000   0.200980   -0.093230
 0.625000   0.200523   -0.089544
 0.630000   0.200084   -0.085910
 0.635000   0.199664   -0.082353
 0.640000   0.199261   -0.078869
 0.645000   0.198875   -0.075441
 0.650000   0.198506   -0.072086
 0.655000   0.198154   -0.068784
 0.660000   0.197818   -0.065493
 0.665000   0.197499   -0.062199
 0.670000   0.197196   -0.058908
 0.675000   0.196910   -0.055618
 0.680000   0.196640   -0.052291
 0.685000   0.196387   -0.048927
 0.690000   0.196151   -0.045602
 0.695000   0.195931   -0.042299
 0.700000   0.195728   -0.038905
 0.705000   0.195542   -0.035252
 0.710000   0.195376   -0.030963
 0.715000   0.195233   -0.025873
 0.720000   0.195117   -0.020258
 0.725000   0.195030   -0.014250
 0.730000   0.194974   -0.007834
 0.735000   0.194952   -0.001106
 0.740000   0.194963   0.006021
 0.745000   0.195012   0.013294
 0.750000   0.195096   0.020013
 0.755000   0.195212   0.026043
 0.760000   0.195357   0.031457
 0.765000   0.195527   0.036070
 0.770000   0.195717   0.039729
 0.775000   0.195924   0.042202
 0.780000   0.196139   0.043512
 0.785000   0.196359   0.044003
 0.790000   0.196579   0.043847
 0.795000   0.196797   0.043160
 0.800000   0.197011   0.041960
 0.805000   0.197217   0.040270
 0.810000   0.197414   0.038787
 0.815000   0.197605   0.037982
 0.820000   0.197793   0.037829
 0.825000   0.197983   0.038562
 0.830000   0.198179   0.040408
 0.835000   0.198387   0.043724
 0.840000   0.198616   0.048996
 0.845000   0.198877   0.056199
 0.850000   0.199178   0.065064
 0.855000   0.199528   0.075578
 0.860000   0.199934   0.087797
 0.865000   0.200406   0.101867
 0.870000   0.200953   0.117971
 0.875000   0.201586   0.136095
 0.880000   0.202314   0.155707
 0.885000   0.203143   0.175585
 0.890000   0.204070   0.193593
 0.895000   0.205079   0.206733
 0.900000   0.206137   0.209620
 0.905000   0.207175   0.194493
 0.910000   0.208082   0.151289
 0.915000   0.208688   0.066239
 0.920000   0.208744   -0.077257
 0.925000   0.207915   -0.295220
 0.930000   0.205792   -0.601588
 0.935000   0.201899   -1.000236
 0.940000   0.195790   -1.473794
 0.945000   0.187161   -1.979040
 0.950000   0.175999   -2.447619
 0.955000   0.162685   -2.796743
 0.960000   0.148032   -2.960237
 0.965000   0.133083   -2.910339
 0.970000   0.118928   -2.661963
 0.975000   0.106463   -2.272520
 0.980000   0.096203   -1.823883
 0.985000   0.088224   -1.396809
 0.990000   0.082235   -1.056509
 0.995000   0.077659   -0.828887
 1.000000   0.073946   -0.656248
201 psinorm ti(KeV) dti/dpsiN
 0.000000   6.408950   0.001863
 0.005000   6.407877   -0.431061
 0.010000   6.404639   -0.866427
 0.015000   6.399212   -1.306513
 0.020000   6.391574   -1.751138
 0.025000   6.381701   -2.200442
 0.030000   6.369569   -2.654841
 0.035000   6.355152   -3.114825
 0.040000   6.338421   -3.581527
 0.045000   6.319337   -4.054095
 0.050000   6.297880   -4.530697
 0.055000   6.274030   -5.010660
 0.060000   6.247774   -5.492476
 0.065000   6.219105   -5.974096
 0.070000   6.188033   -6.453477
 0.075000   6.154571   -6.927376
 0.080000   6.118759   -7.393226
 0.085000   6.080638   -7.849874
 0.090000   6.040260   -8.295278
 0.095000   5.997686   -8.727133
 0.100000   5.952989   -9.142272
 0.105000   5.906263   -9.538113
 0.110000   5.857608   -9.913633
 0.115000   5.807127   -10.267279
 0.120000   5.754935   -10.597054
 0.125000   5.701156   -10.901270
 0.130000   5.645922   -11.176399
 0.135000   5.589392   -11.423391
 0.140000   5.531688   -11.648562
 0.145000   5.472906   -11.853889
 0.150000   5.413149   -12.039394
 0.155000   5.352512   -12.206271
 0.160000   5.291087   -12.355097
 0.165000   5.228962   -12.483441
 0.170000   5.166252   -12.585957
 0.175000   5.103102   -12.659315
 0.180000   5.039659   -12.702932
 0.185000   4.976073   -12.716926
 0.190000   4.912490   -12.700147
 0.195000   4.849071   -12.651538
 0.200000   4.785974   -12.575873
 0.205000   4.723312   -12.475128
 0.210000   4.661223   -12.347121
 0.215000   4.599841   -12.193134
 0.220000   4.539292   -12.013795
 0.225000   4.479703   -11.814488
 0.230000   4.421147   -11.615154
 0.235000   4.363552   -11.425566
 0.240000   4.306891   -11.242302
 0.245000   4.251129   -11.066728
 0.250000   4.196224   -10.899855
 0.255000   4.142130   -10.743187
 0.260000   4.088792   -10.585014
 0.265000   4.036280   -10.415496
 0.270000   3.984637   -10.237050
 0.275000   3.933910   -10.049204
 0.280000   3.884145   -9.851934
 0.285000   3.835390   -9.647184
 0.290000   3.787673   -9.430141
 0.295000   3.741089   -9.199031
 0.300000   3.695683   -8.959981
 0.305000   3.651489   -8.715608
 0.310000   3.608527   -8.468463
 0.315000   3.566804   -8.219861
 0.320000   3.526328   -7.966978
 0.325000   3.487135   -7.708657
 0.330000   3.449242   -7.447394
 0.335000   3.412661   -7.184676
 0.340000   3.377395   -6.921933
 0.345000   3.343441   -6.657091
 0.350000   3.310824   -6.393370
 0.355000   3.279508   -6.136630
 0.360000   3.249458   -5.887864
 0.365000   3.220629   -5.649705
 0.370000   3.192961   -5.425039
 0.375000   3.166379   -5.216019
 0.380000   3.140800   -5.026143
 0.385000   3.116117   -4.855639
 0.390000   3.092244   -4.701288
 0.395000   3.069104   -4.561708
 0.400000   3.046627   -4.435337
 0.405000   3.024751   -4.321315
 0.410000   3.003414   -4.213648
 0.415000   2.982614   -4.106592
 0.420000   2.962348   -4.001787
 0.425000   2.942597   -3.900793
 0.430000   2.923340   -3.804033
 0.435000   2.904556   -3.710647
 0.440000   2.886234   -3.620936
 0.445000   2.868347   -3.539386
 0.450000   2.850840   -3.469258
 0.455000   2.833654   -3.410970
 0.460000   2.816730   -3.364861
 0.465000   2.800006   -3.330920
 0.470000   2.783421   -3.309820
 0.475000   2.766907   -3.301229
 0.480000   2.750408   -3.302976
 0.485000   2.733878   -3.313021
 0.490000   2.717278   -3.329512
 0.495000   2.700583   -3.350819
 0.500000   2.683770   -3.375195
 0.505000   2.666831   -3.401182
 0.510000   2.649758   -3.428401
 0.515000   2.632547   -3.456513
 0.520000   2.615193   -3.484784
 0.525000   2.597699   -3.512098
 0.530000   2.580072   -3.536700
 0.535000   2.562332   -3.559424
 0.540000   2.544478   -3.580681
 0.545000   2.526525   -3.598618
 0.550000   2.508492   -3.612487
 0.555000   2.490400   -3.621316
 0.560000   2.472279   -3.622713
 0.565000   2.454173   -3.620170
 0.570000   2.436077   -3.616613
 0.575000   2.418007   -3.609940
 0.580000   2.399977   -3.600596
 0.585000   2.382001   -3.588974
 0.590000   2.364088   -3.574378
 0.595000   2.346257   -3.560128
 0.600000   2.328486   -3.548127
 0.605000   2.310776   -3.536217
 0.610000   2.293124   -3.524576
 0.615000   2.275530   -3.513270
 0.620000   2.257992   -3.502866
 0.625000   2.240501   -3.489527
 0.630000   2.223096   -3.469169
 0.635000   2.205810   -3.443066
 0.640000   2.188666   -3.413005
 0.645000   2.171680   -3.380588
 0.650000   2.154860   -3.347982
 0.655000   2.138200   -3.314941
 0.660000   2.121710   -3.279921
 0.665000   2.105401   -3.243132
 0.670000   2.089279   -3.204631
 0.675000   2.073354   -3.164352
 0.680000   2.057636   -3.123775
 0.685000   2.042117   -3.082657
 0.690000   2.026809   -3.039887
 0.695000   2.011718   -2.996591
 0.700000   1.996843   -2.953274
 0.705000   1.982185   -2.909968
 0.710000   1.967743   -2.868408
 0.715000   1.953501   -2.828923
 0.720000   1.939454   -2.789805
 0.725000   1.925603   -2.751029
 0.730000   1.911944   -2.712595
 0.735000   1.898477   -2.674070
 0.740000   1.885203   -2.635678
 0.745000   1.872120   -2.596748
 0.750000   1.859236   -2.557076
 0.755000   1.846549   -2.518500
 0.760000   1.834051   -2.482746
 0.765000   1.821722   -2.451356
 0.770000   1.809537   -2.425888
 0.775000   1.797463   -2.408490
 0.780000   1.785452   -2.400826
 0.785000   1.773455   -2.402688
 0.790000   1.761425   -2.413635
 0.795000   1.749318   -2.433700
 0.800000   1.737088   -2.463325
 0.805000   1.724685   -2.503198
 0.810000   1.712056   -2.551565
 0.815000   1.699170   -2.606701
 0.820000   1.685989   -2.668551
 0.825000   1.672484   -2.736419
 0.830000   1.658625   -2.809869
 0.835000   1.644385   -2.888456
 0.840000   1.629741   -2.969694
 0.845000   1.614688   -3.052867
 0.850000   1.599212   -3.141190
 0.855000   1.583277   -3.239071
 0.860000   1.566821   -3.353661
 0.865000   1.549740   -3.500470
 0.870000   1.531817   -3.676090
 0.875000   1.512979   -3.869810
 0.880000   1.493118   -4.085369
 0.885000   1.472125   -4.322813
 0.890000   1.449890   -4.582458
 0.895000   1.426301   -4.885072
 0.900000   1.401040   -5.207057
 0.905000   1.374230   -5.527931
 0.910000   1.345760   -5.874071
 0.915000   1.315489   -6.249743
 0.920000   1.283263   -6.656182
 0.925000   1.248928   -7.135382
 0.930000   1.211909   -7.643107
 0.935000   1.172497   -8.118614
 0.940000   1.130723   -8.586743
 0.945000   1.086629   -9.042607
 0.950000   1.040297   -9.478204
 0.955000   0.991847   -9.913097
 0.960000   0.941166   -10.300645
 0.965000   0.888841   -10.590237
 0.970000   0.835264   -10.798401
 0.975000   0.780857   -10.907716
 0.980000   0.726186   -10.887303
 0.985000   0.671984   -10.694400
 0.990000   0.619242   -10.296992
 0.995000   0.569014   -9.704064
 1.000000   0.522202   -9.020726
201 psinorm nb(10^20/m^3) dnb/dpsiN
 0.000000   0.111588   0.030292
 0.005000   0.111452   -0.084961
 0.010000   0.110739   -0.173709
 0.015000   0.109714   -0.228598
 0.020000   0.108453   -0.271778
 0.025000   0.106997   -0.307097
 0.030000   0.105382   -0.336075
 0.035000   0.103636   -0.359290
 0.040000   0.101789   -0.377431
 0.045000   0.099862   -0.391324
 0.050000   0.097876   -0.401568
 0.055000   0.095846   -0.408894
 0.060000   0.093787   -0.413274
 0.065000   0.091713   -0.415108
 0.070000   0.089636   -0.415001
 0.075000   0.087563   -0.412744
 0.080000   0.085508   -0.408835
 0.085000   0.083475   -0.404051
 0.090000   0.081468   -0.398253
 0.095000   0.079492   -0.390991
 0.100000   0.077558   -0.382967
 0.105000   0.075663   -0.374823
 0.110000   0.073809   -0.366125
 0.115000   0.072001   -0.356792
 0.120000   0.070242   -0.347004
 0.125000   0.068531   -0.336562
 0.130000   0.066876   -0.325882
 0.135000   0.065273   -0.315455
 0.140000   0.063721   -0.304975
 0.145000   0.062223   -0.294496
 0.150000   0.060776   -0.284119
 0.155000   0.059382   -0.273853
 0.160000   0.058038   -0.263746
 0.165000   0.056744   -0.253848
 0.170000   0.055499   -0.244172
 0.175000   0.054302   -0.234746
 0.180000   0.053152   -0.225571
 0.185000   0.052047   -0.216692
 0.190000   0.050985   -0.207892
 0.195000   0.049968   -0.199296
 0.200000   0.048992   -0.191273
 0.205000   0.048055   -0.183693
 0.210000   0.047155   -0.176456
 0.215000   0.046291   -0.169560
 0.220000   0.045460   -0.163011
 0.225000   0.044660   -0.156810
 0.230000   0.043891   -0.150943
 0.235000   0.043151   -0.145141
 0.240000   0.042440   -0.139363
 0.245000   0.041757   -0.134138
 0.250000   0.041099   -0.129488
 0.255000   0.040462   -0.125112
 0.260000   0.039847   -0.121005
 0.265000   0.039252   -0.117151
 0.270000   0.038676   -0.113112
 0.275000   0.038121   -0.109309
 0.280000   0.037583   -0.106180
 0.285000   0.037059   -0.103285
 0.290000   0.036550   -0.100583
 0.295000   0.036054   -0.097882
 0.300000   0.035571   -0.095196
 0.305000   0.035102   -0.092873
 0.310000   0.034642   -0.090873
 0.315000   0.034193   -0.088997
 0.320000   0.033753   -0.087101
 0.325000   0.033322   -0.085200
 0.330000   0.032901   -0.083581
 0.335000   0.032486   -0.082203
 0.340000   0.032079   -0.080886
 0.345000   0.031677   -0.079459
 0.350000   0.031284   -0.078076
 0.355000   0.030897   -0.076949
 0.360000   0.030514   -0.075920
 0.365000   0.030137   -0.074879
 0.370000   0.029766   -0.073765
 0.375000   0.029400   -0.072764
 0.380000   0.029038   -0.071928
 0.385000   0.028680   -0.071120
 0.390000   0.028327   -0.070159
 0.395000   0.027979   -0.069225
 0.400000   0.027635   -0.068492
 0.405000   0.027294   -0.067778
 0.410000   0.026957   -0.066955
 0.415000   0.026624   -0.066111
 0.420000   0.026296   -0.065399
 0.425000   0.025970   -0.064728
 0.430000   0.025648   -0.063961
 0.435000   0.025331   -0.063141
 0.440000   0.025017   -0.062423
 0.445000   0.024707   -0.061761
 0.450000   0.024399   -0.061011
 0.455000   0.024096   -0.060199
 0.460000   0.023797   -0.059479
 0.465000   0.023502   -0.058822
 0.470000   0.023209   -0.058081
 0.475000   0.022921   -0.057265
 0.480000   0.022636   -0.056534
 0.485000   0.022355   -0.055886
 0.490000   0.022078   -0.055167
 0.495000   0.021804   -0.054376
 0.500000   0.021534   -0.053668
 0.505000   0.021267   -0.053048
 0.510000   0.021003   -0.052370
 0.515000   0.020743   -0.051623
 0.520000   0.020487   -0.050955
 0.525000   0.020234   -0.050377
 0.530000   0.019983   -0.049753
 0.535000   0.019736   -0.049069
 0.540000   0.019493   -0.048461
 0.545000   0.019252   -0.047945
 0.550000   0.019013   -0.047403
 0.555000   0.018778   -0.046805
 0.560000   0.018545   -0.046268
 0.565000   0.018315   -0.045825
 0.570000   0.018087   -0.045374
 0.575000   0.017861   -0.044873
 0.580000   0.017638   -0.044420
 0.585000   0.017417   -0.044058
 0.590000   0.017198   -0.043708
 0.595000   0.016980   -0.043314
 0.600000   0.016765   -0.042947
 0.605000   0.016551   -0.042668
 0.610000   0.016338   -0.042408
 0.615000   0.016126   -0.042134
 0.620000   0.015916   -0.041880
 0.625000   0.015708   -0.041693
 0.630000   0.015500   -0.041536
 0.635000   0.015292   -0.041387
 0.640000   0.015086   -0.041260
 0.645000   0.014880   -0.041176
 0.650000   0.014674   -0.041125
 0.655000   0.014468   -0.041094
 0.660000   0.014263   -0.041094
 0.665000   0.014057   -0.041126
 0.670000   0.013852   -0.041180
 0.675000   0.013646   -0.041253
 0.680000   0.013439   -0.041355
 0.685000   0.013232   -0.041495
 0.690000   0.013024   -0.041645
 0.695000   0.012816   -0.041791
 0.700000   0.012606   -0.041949
 0.705000   0.012396   -0.042136
 0.710000   0.012185   -0.042347
 0.715000   0.011973   -0.042552
 0.720000   0.011759   -0.042754
 0.725000   0.011545   -0.042970
 0.730000   0.011330   -0.043224
 0.735000   0.011113   -0.043512
 0.740000   0.010895   -0.043793
 0.745000   0.010675   -0.044069
 0.750000   0.010454   -0.044351
 0.755000   0.010231   -0.044650
 0.760000   0.010007   -0.044976
 0.765000   0.009782   -0.045279
 0.770000   0.009555   -0.045544
 0.775000   0.009326   -0.045801
 0.780000   0.009097   -0.046049
 0.785000   0.008866   -0.046302
 0.790000   0.008634   -0.046544
 0.795000   0.008400   -0.046748
 0.800000   0.008166   -0.046926
 0.805000   0.007931   -0.047092
 0.810000   0.007695   -0.047243
 0.815000   0.007459   -0.047385
 0.820000   0.007221   -0.047511
 0.825000   0.006984   -0.047604
 0.830000   0.006745   -0.047664
 0.835000   0.006507   -0.047696
 0.840000   0.006268   -0.047695
 0.845000   0.006030   -0.047657
 0.850000   0.005792   -0.047577
 0.855000   0.005554   -0.047439
 0.860000   0.005317   -0.047255
 0.865000   0.005082   -0.047078
 0.870000   0.004847   -0.046948
 0.875000   0.004612   -0.046866
 0.880000   0.004378   -0.046820
 0.885000   0.004144   -0.046794
 0.890000   0.003910   -0.046772
 0.895000   0.003676   -0.046737
 0.900000   0.003443   -0.046666
 0.905000   0.003210   -0.046533
 0.910000   0.002977   -0.046326
 0.915000   0.002746   -0.045989
 0.920000   0.002517   -0.045433
 0.925000   0.002292   -0.044634
 0.930000   0.002071   -0.043619
 0.935000   0.001856   -0.042433
 0.940000   0.001647   -0.041101
 0.945000   0.001445   -0.039589
 0.950000   0.001251   -0.037758
 0.955000   0.001067   -0.035346
 0.960000   0.000897   -0.032142
 0.965000   0.000746   -0.028239
 0.970000   0.000615   -0.024008
 0.975000   0.000506   -0.019870
 0.980000   0.000416   -0.016277
 0.985000   0.000343   -0.013726
 0.990000   0.000279   -0.012385
 0.995000   0.000219   -0.014067
 1.000000   0.000138   -0.018208
201 psinorm pb(KPa) dpb/dpsiN
 0.000000   45.778129   -12.510421
 0.005000   45.609382   -54.988326
 0.010000   45.228246   -88.407402
 0.015000   44.725308   -109.370362
 0.020000   44.134542   -125.467306
 0.025000   43.470635   -138.692877
 0.030000   42.747614   -149.379351
 0.035000   41.976842   -157.760066
 0.040000   41.170013   -164.099728
 0.045000   40.335845   -168.758827
 0.050000   39.482425   -172.079650
 0.055000   38.615048   -174.270978
 0.060000   37.739715   -175.258500
 0.065000   36.862463   -175.244998
 0.070000   35.987265   -174.504248
 0.075000   35.117421   -172.866475
 0.080000   34.258600   -170.590297
 0.085000   33.411518   -168.130979
 0.090000   32.577290   -165.335549
 0.095000   31.758162   -161.980841
 0.100000   30.957482   -158.369336
 0.105000   30.174469   -154.789873
 0.110000   29.409583   -151.023954
 0.115000   28.664229   -146.992344
 0.120000   27.939660   -142.784227
 0.125000   27.236387   -138.344539
 0.130000   26.556214   -133.836773
 0.135000   25.898019   -129.453458
 0.140000   25.261680   -125.083761
 0.145000   24.647182   -120.734715
 0.150000   24.054333   -116.430970
 0.155000   23.482872   -112.183450
 0.160000   22.932498   -108.014192
 0.165000   22.402730   -103.941282
 0.170000   21.893085   -99.970768
 0.175000   21.403022   -96.109215
 0.180000   20.931993   -92.339414
 0.185000   20.479628   -88.695215
 0.190000   20.045041   -85.114465
 0.195000   19.628484   -81.633526
 0.200000   19.228706   -78.388017
 0.205000   18.844603   -75.321933
 0.210000   18.475487   -72.397320
 0.215000   18.120630   -69.616911
 0.220000   17.779317   -66.982513
 0.225000   17.450805   -64.497159
 0.230000   17.134346   -62.152492
 0.235000   16.829280   -59.829008
 0.240000   16.536056   -57.515696
 0.245000   16.254123   -55.421062
 0.250000   15.981845   -53.546868
 0.255000   15.718654   -51.785299
 0.260000   15.463992   -50.132951
 0.265000   15.217325   -48.583060
 0.270000   14.978162   -46.970148
 0.275000   14.747623   -45.438433
 0.280000   14.523777   -44.160013
 0.285000   14.306023   -42.986440
 0.290000   14.093913   -41.893236
 0.295000   13.887091   -40.804328
 0.300000   13.685870   -39.724256
 0.305000   13.489848   -38.781544
 0.310000   13.298054   -37.960677
 0.315000   13.110242   -37.186991
 0.320000   12.926184   -36.408093
 0.325000   12.746161   -35.629935
 0.330000   12.569885   -34.962499
 0.335000   12.396536   -34.387716
 0.340000   12.226008   -33.830309
 0.345000   12.058233   -33.229736
 0.350000   11.893710   -32.646582
 0.355000   11.731767   -32.158868
 0.360000   11.572122   -31.708396
 0.365000   11.414683   -31.253969
 0.370000   11.259582   -30.773379
 0.375000   11.106949   -30.334550
 0.380000   10.956236   -29.956297
 0.385000   10.807386   -29.589473
 0.390000   10.660342   -29.164808
 0.395000   10.515738   -28.749466
 0.400000   10.372847   -28.411824
 0.405000   10.231620   -28.082722
 0.410000   10.092020   -27.714218
 0.415000   9.954478   -27.338836
 0.420000   9.818631   -27.013033
 0.425000   9.684347   -26.701540
 0.430000   9.551616   -26.355927
 0.435000   9.420788   -25.991747
 0.440000   9.291699   -25.665147
 0.445000   9.164137   -25.360002
 0.450000   9.038099   -25.022179
 0.455000   8.913915   -24.661832
 0.460000   8.791480   -24.336165
 0.465000   8.670553   -24.034598
 0.470000   8.551134   -23.703286
 0.475000   8.433520   -23.344767
 0.480000   8.317687   -23.019075
 0.485000   8.203329   -22.724976
 0.490000   8.090437   -22.406058
 0.495000   7.979269   -22.061546
 0.500000   7.869821   -21.749177
 0.505000   7.761777   -21.470104
 0.510000   7.655120   -21.170495
 0.515000   7.550072   -20.847130
 0.520000   7.446649   -20.553552
 0.525000   7.344537   -20.293013
 0.530000   7.243719   -20.016181
 0.535000   7.144375   -19.718685
 0.540000   7.046532   -19.449898
 0.545000   6.949876   -19.214770
 0.550000   6.854384   -18.970485
 0.555000   6.760171   -18.706448
 0.560000   6.667320   -18.465313
 0.565000   6.575518   -18.257933
 0.570000   6.484741   -18.048165
 0.575000   6.395036   -17.819532
 0.580000   6.306545   -17.607674
 0.585000   6.218959   -17.429695
 0.590000   6.132248   -17.256941
 0.595000   6.046390   -17.065656
 0.600000   5.961592   -16.883321
 0.605000   5.877557   -16.733530
 0.610000   5.794256   -16.589628
 0.615000   5.711661   -16.437714
 0.620000   5.629879   -16.292056
 0.625000   5.548740   -16.172431
 0.630000   5.468155   -16.065175
 0.635000   5.388088   -15.959060
 0.640000   5.308564   -15.859362
 0.645000   5.229495   -15.777108
 0.650000   5.150793   -15.707885
 0.655000   5.072416   -15.648433
 0.660000   4.994309   -15.596184
 0.665000   4.916454   -15.555280
 0.670000   4.838756   -15.527289
 0.675000   4.761181   -15.506426
 0.680000   4.683692   -15.495970
 0.685000   4.606221   -15.497712
 0.690000   4.528715   -15.501533
 0.695000   4.451206   -15.504194
 0.700000   4.373673   -15.511363
 0.705000   4.296092   -15.525694
 0.710000   4.218416   -15.546707
 0.715000   4.140625   -15.567111
 0.720000   4.062745   -15.588023
 0.725000   3.984745   -15.615455
 0.730000   3.906590   -15.655338
 0.735000   3.828192   -15.707734
 0.740000   3.749513   -15.761506
 0.745000   3.670577   -15.814911
 0.750000   3.591364   -15.871705
 0.755000   3.511860   -15.934496
 0.760000   3.432019   -16.005006
 0.765000   3.351810   -16.066096
 0.770000   3.271358   -16.113862
 0.775000   3.190671   -16.159721
 0.780000   3.109761   -16.202260
 0.785000   3.028648   -16.244206
 0.790000   2.947319   -16.280696
 0.795000   2.865841   -16.305039
 0.800000   2.784268   -16.321545
 0.805000   2.702626   -16.332725
 0.810000   2.620941   -16.338601
 0.815000   2.539240   -16.338847
 0.820000   2.457553   -16.330343
 0.825000   2.375937   -16.310953
 0.830000   2.294443   -16.281884
 0.835000   2.213118   -16.242945
 0.840000   2.132014   -16.192666
 0.845000   2.051191   -16.129780
 0.850000   1.970716   -16.051122
 0.855000   1.890680   -15.948675
 0.860000   1.811229   -15.831279
 0.865000   1.732367   -15.715362
 0.870000   1.654075   -15.605304
 0.875000   1.576314   -15.501794
 0.880000   1.499057   -15.401560
 0.885000   1.422298   -15.301662
 0.890000   1.346041   -15.198964
 0.895000   1.270309   -15.090488
 0.900000   1.195136   -14.960164
 0.905000   1.120707   -14.806076
 0.910000   1.047075   -14.640281
 0.915000   0.974304   -14.448761
 0.920000   0.902588   -14.214150
 0.925000   0.832163   -13.935269
 0.930000   0.763235   -13.627857
 0.935000   0.695884   -13.323516
 0.940000   0.630000   -13.058951
 0.945000   0.565295   -12.856173
 0.950000   0.501438   -12.696298
 0.955000   0.438332   -12.491959
 0.960000   0.376518   -12.114091
 0.965000   0.317191   -11.473825
 0.970000   0.261780   -10.559809
 0.975000   0.211593   -9.414119
 0.980000   0.167639   -8.137140
 0.985000   0.130221   -6.875759
 0.990000   0.098881   -5.694506
 0.995000   0.073276   -5.278159
 1.000000   0.046100   -5.592428
201 psinorm ptot(KPa) dptot/dpsiN
 0.000000   107.042566   -137.247545
 0.005000   106.279645   -167.921045
 0.010000   105.363356   -192.258931
 0.015000   104.357055   -207.626107
 0.020000   103.287095   -219.348608
 0.025000   102.163569   -229.036099
 0.030000   100.996734   -236.874984
 0.035000   99.794819   -243.048222
 0.040000   98.566251   -247.761109
 0.045000   97.317208   -251.290236
 0.050000   96.053349   -253.911409
 0.055000   94.778094   -255.760192
 0.060000   93.495747   -256.761703
 0.065000   92.210477   -257.072868
 0.070000   90.925018   -256.903706
 0.075000   89.641440   -256.091333
 0.080000   88.364105   -254.830157
 0.085000   87.093139   -253.493146
 0.090000   85.829174   -251.930207
 0.095000   84.573837   -249.947521
 0.100000   83.329698   -247.763614
 0.105000   82.096200   -245.590643
 0.110000   80.873792   -243.243505
 0.115000   79.663765   -240.643915
 0.120000   78.467353   -237.852133
 0.125000   77.285244   -234.817924
 0.130000   76.119174   -231.648107
 0.135000   74.968763   -228.485698
 0.140000   73.834317   -225.262790
 0.145000   72.716135   -221.987806
 0.150000   71.614439   -218.676055
 0.155000   70.529374   -215.339905
 0.160000   69.461040   -211.996969
 0.165000   68.409405   -208.644208
 0.170000   67.374597   -205.256139
 0.175000   66.356843   -201.820909
 0.180000   65.356388   -198.319080
 0.185000   64.373653   -194.781039
 0.190000   63.408578   -191.156474
 0.195000   62.462088   -187.468421
 0.200000   61.533894   -183.849947
 0.205000   60.623588   -180.267100
 0.210000   59.731223   -176.680100
 0.215000   58.856787   -173.098949
 0.220000   58.000233   -169.528913
 0.225000   57.161498   -165.998219
 0.230000   56.340251   -162.589492
 0.235000   55.535603   -159.244534
 0.240000   54.747806   -155.937696
 0.245000   53.976226   -152.845682
 0.250000   53.219349   -149.973026
 0.255000   52.476496   -147.238548
 0.260000   51.746963   -144.587951
 0.265000   51.030617   -141.973124
 0.270000   50.327232   -139.267854
 0.275000   49.637938   -136.587998
 0.280000   48.961352   -134.078960
 0.285000   48.297148   -131.629760
 0.290000   47.645055   -129.199173
 0.295000   47.005157   -126.716491
 0.300000   46.377890   -124.212298
 0.305000   45.763034   -121.806238
 0.310000   45.159827   -119.496692
 0.315000   44.568067   -117.226832
 0.320000   43.987559   -114.940026
 0.325000   43.418667   -112.636215
 0.330000   42.861197   -110.420347
 0.335000   42.314463   -108.283268
 0.340000   41.778364   -106.165863
 0.345000   41.252804   -104.008127
 0.350000   40.738283   -101.875826
 0.355000   40.234046   -99.860331
 0.360000   39.739680   -97.916246
 0.365000   39.254884   -96.018956
 0.370000   38.779490   -94.160961
 0.375000   38.313274   -92.409144
 0.380000   37.855399   -90.793827
 0.385000   37.405336   -89.273163
 0.390000   36.962667   -87.772450
 0.395000   36.527611   -86.343355
 0.400000   36.099233   -85.038404
 0.405000   35.677227   -83.793417
 0.410000   35.261299   -82.542070
 0.415000   34.851807   -81.289451
 0.420000   34.448405   -80.091014
 0.425000   34.050896   -78.921968
 0.430000   33.659185   -77.741716
 0.435000   33.273479   -76.560160
 0.440000   32.893583   -75.427172
 0.445000   32.519208   -74.345948
 0.450000   32.150124   -73.281263
 0.455000   31.786395   -72.243054
 0.460000   31.427693   -71.282442
 0.465000   31.073571   -70.389883
 0.470000   30.723795   -69.520358
 0.475000   30.378367   -68.674434
 0.480000   30.037050   -67.896217
 0.485000   29.699405   -67.176663
 0.490000   29.365284   -66.458962
 0.495000   29.034815   -65.736303
 0.500000   28.707921   -65.053178
 0.505000   28.384283   -64.405127
 0.510000   28.063869   -63.743290
 0.515000   27.746850   -63.063856
 0.520000   27.433231   -62.411701
 0.525000   27.122733   -61.785970
 0.530000   26.815371   -61.136999
 0.535000   26.511363   -60.464430
 0.540000   26.210727   -59.814319
 0.545000   25.913220   -59.185200
 0.550000   25.618875   -58.537224
 0.555000   25.327848   -57.858326
 0.560000   25.040292   -57.178830
 0.565000   24.756060   -56.521451
 0.570000   24.475077   -55.864675
 0.575000   24.197413   -55.186441
 0.580000   23.923213   -54.520259
 0.585000   23.652210   -53.882984
 0.590000   23.384383   -53.246607
 0.595000   23.119744   -52.600773
 0.600000   22.858375   -51.976709
 0.605000   22.599977   -51.388443
 0.610000   22.344491   -50.812727
 0.615000   22.091850   -50.237419
 0.620000   21.842116   -49.677633
 0.625000   21.595074   -49.138988
 0.630000   21.350727   -48.595749
 0.635000   21.109116   -48.041947
 0.640000   20.870307   -47.488759
 0.645000   20.634229   -46.951980
 0.650000   20.400787   -46.434930
 0.655000   20.169879   -45.932976
 0.660000   19.941458   -45.436924
 0.665000   19.715510   -44.951262
 0.670000   19.491945   -44.477869
 0.675000   19.270731   -44.010675
 0.680000   19.051838   -43.556736
 0.685000   18.835164   -43.116969
 0.690000   18.620668   -42.679646
 0.695000   18.408368   -42.244852
 0.700000   18.198220   -41.816706
 0.705000   17.990200   -41.393417
 0.710000   17.784286   -40.970508
 0.715000   17.580495   -40.537972
 0.720000   17.378906   -40.098775
 0.725000   17.179508   -39.662395
 0.730000   16.982282   -39.234361
 0.735000   16.787164   -38.815865
 0.740000   16.594123   -38.394509
 0.745000   16.403219   -37.972639
 0.750000   16.214397   -37.570439
 0.755000   16.027515   -37.199141
 0.760000   15.842406   -36.863546
 0.765000   15.658879   -36.555533
 0.770000   15.476850   -36.279187
 0.775000   15.296087   -36.057337
 0.780000   15.116277   -35.892269
 0.785000   14.937165   -35.776501
 0.790000   14.758512   -35.698527
 0.795000   14.580179   -35.647852
 0.800000   14.402033   -35.628330
 0.805000   14.223896   -35.642555
 0.810000   14.045608   -35.666994
 0.815000   13.867226   -35.683081
 0.820000   13.688777   -35.686399
 0.825000   13.510362   -35.665262
 0.830000   13.332124   -35.612169
 0.835000   13.154240   -35.515218
 0.840000   12.976972   -35.351906
 0.845000   12.800721   -35.117126
 0.850000   12.625801   -34.822571
 0.855000   12.452496   -34.474236
 0.860000   12.281059   -34.104309
 0.865000   12.111452   -33.781893
 0.870000   11.943240   -33.505196
 0.875000   11.776401   -33.256420
 0.880000   11.610675   -33.084537
 0.885000   11.445555   -33.057395
 0.890000   11.280102   -33.286040
 0.895000   11.112695   -34.003129
 0.900000   10.940070   -35.368453
 0.905000   10.759010   -37.670084
 0.910000   10.563369   -41.484062
 0.915000   10.344170   -47.426344
 0.920000   10.089106   -56.201496
 0.925000   9.782155   -68.646166
 0.930000   9.402644   -85.125000
 0.935000   8.930905   -105.419461
 0.940000   8.348450   -128.612260
 0.945000   7.644782   -152.370506
 0.950000   6.824745   -173.035802
 0.955000   5.914424   -186.290955
 0.960000   4.961835   -188.314898
 0.965000   4.031275   -177.521004
 0.970000   3.186625   -155.646659
 0.975000   2.474808   -127.224966
 0.980000   1.914375   -97.945497
 0.985000   1.495353   -72.403371
 0.990000   1.190342   -52.737315
 0.995000   0.967980   -39.466871
 1.000000   0.795673   -29.456076
201 psinorm omeg(kRad/s) domeg/dpsiN
 0.000000   54.641833   0.028859
 0.005000   54.641330   -0.230065
 0.010000   54.639532   -0.536598
 0.015000   54.635964   -0.948124
 0.020000   54.630051   -1.483032
 0.025000   54.621134   -2.158554
 0.030000   54.608466   -2.991137
 0.035000   54.591222   -3.994839
 0.040000   54.568517   -5.177387
 0.045000   54.539448   -6.537360
 0.050000   54.503144   -8.070296
 0.055000   54.458746   -9.769258
 0.060000   54.405451   -11.621535
 0.065000   54.342530   -13.611091
 0.070000   54.269340   -15.694106
 0.075000   54.185589   -17.842283
 0.080000   54.090917   -20.039828
 0.085000   53.985191   -22.241334
 0.090000   53.868504   -24.408604
 0.095000   53.741105   -26.515595
 0.100000   53.603348   -28.492133
 0.105000   53.456183   -30.377789
 0.110000   53.299570   -32.288356
 0.115000   53.133300   -34.229164
 0.120000   52.957278   -36.191477
 0.125000   52.771385   -38.168749
 0.130000   52.575591   -40.087105
 0.135000   52.370514   -41.913408
 0.140000   52.156457   -43.711874
 0.145000   51.933395   -45.501211
 0.150000   51.701445   -47.279523
 0.155000   51.460600   -49.070443
 0.160000   51.210740   -50.883131
 0.165000   50.951769   -52.700410
 0.170000   50.683736   -54.475813
 0.175000   50.407011   -56.155544
 0.180000   50.122181   -57.711960
 0.185000   49.829891   -59.137138
 0.190000   49.530809   -60.406914
 0.195000   49.225822   -61.506107
 0.200000   48.915748   -62.485313
 0.205000   48.600969   -63.344422
 0.210000   48.282304   -64.032244
 0.215000   47.960646   -64.538553
 0.220000   47.636919   -64.838357
 0.225000   47.312263   -64.907454
 0.230000   46.987844   -64.865893
 0.235000   46.663604   -64.786102
 0.240000   46.339983   -64.630276
 0.245000   46.017301   -64.418495
 0.250000   45.695798   -64.150456
 0.255000   45.375797   -63.753317
 0.260000   45.058265   -63.204776
 0.265000   44.743749   -62.505159
 0.270000   44.433213   -61.620646
 0.275000   44.127542   -60.569987
 0.280000   43.827513   -59.367974
 0.285000   43.533863   -57.956707
 0.290000   43.247946   -56.480103
 0.295000   42.969062   -55.065502
 0.300000   42.697291   -53.652141
 0.305000   42.432540   -52.273882
 0.310000   42.174553   -50.960161
 0.315000   41.922939   -49.709177
 0.320000   41.677461   -48.560987
 0.325000   41.437329   -47.520337
 0.330000   41.202257   -46.536223
 0.335000   40.971966   -45.605343
 0.340000   40.746204   -44.718745
 0.345000   40.524779   -43.885580
 0.350000   40.307348   -43.044119
 0.355000   40.094338   -42.128746
 0.360000   39.886061   -41.157218
 0.365000   39.682766   -40.138880
 0.370000   39.484672   -39.079973
 0.375000   39.291966   -38.008251
 0.380000   39.104589   -36.904572
 0.385000   38.922920   -35.731624
 0.390000   38.747273   -34.501359
 0.395000   38.577907   -33.218731
 0.400000   38.415086   -31.882974
 0.405000   38.259077   -30.500832
 0.410000   38.110078   -29.061357
 0.415000   37.968463   -27.557579
 0.420000   37.834502   -26.010237
 0.425000   37.708361   -24.434687
 0.430000   37.590155   -22.842144
 0.435000   37.479939   -21.237909
 0.440000   37.377776   -19.641472
 0.445000   37.283525   -18.096777
 0.450000   37.196808   -16.629071
 0.455000   37.117234   -15.238358
 0.460000   37.044424   -13.918929
 0.465000   36.978045   -12.668772
 0.470000   36.917737   -11.480256
 0.475000   36.863242   -10.320833
 0.480000   36.814528   -9.171875
 0.485000   36.771523   -8.035825
 0.490000   36.734170   -6.912803
 0.495000   36.702395   -5.811917
 0.500000   36.676051   -4.743322
 0.505000   36.654962   -3.713932
 0.510000   36.638912   -2.746046
 0.515000   36.627502   -1.868349
 0.520000   36.620228   -1.101786
 0.525000   36.616484   -0.465814
 0.530000   36.615570   0.022526
 0.535000   36.616709   0.349844
 0.540000   36.619068   0.508739
 0.545000   36.621797   0.497504
 0.550000   36.624043   0.316036
 0.555000   36.624957   -0.038588
 0.560000   36.623658   -0.577415
 0.565000   36.619183   -1.320148
 0.570000   36.610456   -2.292509
 0.575000   36.596258   -3.526155
 0.580000   36.575195   -5.058157
 0.585000   36.545676   -6.931287
 0.590000   36.505882   -9.223748
 0.595000   36.453439   -11.959772
 0.600000   36.386284   -15.142998
 0.605000   36.302009   -18.818641
 0.610000   36.198098   -23.000583
 0.615000   36.072003   -27.685945
 0.620000   35.921238   -32.893838
 0.625000   35.743064   -38.446073
 0.630000   35.536777   -44.136147
 0.635000   35.301703   -49.918122
 0.640000   35.037596   -55.707423
 0.645000   34.744629   -61.427162
 0.650000   34.423325   -66.942001
 0.655000   34.075209   -72.172431
 0.660000   33.701600   -77.105004
 0.665000   33.304159   -81.671301
 0.670000   32.884887   -85.817291
 0.675000   32.445986   -89.512383
 0.680000   31.989763   -92.654572
 0.685000   31.519440   -95.383031
 0.690000   31.035933   -97.939489
 0.695000   30.540045   -100.324021
 0.700000   30.032693   -102.543019
 0.705000   29.514615   -104.627105
 0.710000   28.986422   -106.688123
 0.715000   28.447734   -108.852499
 0.720000   27.897897   -110.963738
 0.725000   27.338096   -112.708623
 0.730000   26.770811   -113.837005
 0.735000   26.199726   -114.136089
 0.740000   25.629450   -113.484081
 0.745000   25.064885   -111.750542
 0.750000   24.511944   -108.924425
 0.755000   23.975641   -105.198930
 0.760000   23.459955   -100.788026
 0.765000   22.967761   -95.925869
 0.770000   22.500696   -90.869163
 0.775000   22.059069   -85.910939
 0.780000   21.641587   -81.161435
 0.785000   21.247455   -76.530699
 0.790000   20.876280   -71.971314
 0.795000   20.527742   -67.473212
 0.800000   20.201548   -63.093743
 0.805000   19.896804   -58.910067
 0.810000   19.612447   -54.781736
 0.815000   19.348987   -50.711438
 0.820000   19.105333   -46.954752
 0.825000   18.879440   -43.724722
 0.830000   18.668086   -41.283527
 0.835000   18.466604   -39.898758
 0.840000   18.269098   -39.733173
 0.845000   18.069273   -40.982926
 0.850000   17.859269   -43.892400
 0.855000   17.630349   -48.635272
 0.860000   17.372916   -55.433008
 0.865000   17.076018   -64.742694
 0.870000   16.725489   -76.738044
 0.875000   16.308638   -91.415617
 0.880000   15.811333   -108.951311
 0.885000   15.219125   -129.323587
 0.890000   14.518097   -152.316278
 0.895000   13.695962   -178.137709
 0.900000   12.736720   -204.970506
 0.905000   11.646257   -230.442665
 0.910000   10.432293   -253.383175
 0.915000   9.112425   -271.694418
 0.920000   7.715349   -283.121675
 0.925000   6.281209   -286.039155
 0.930000   4.854958   -277.733727
 0.935000   3.503871   -256.398045
 0.940000   2.290977   -222.757542
 0.945000   1.276296   -178.084903
 0.950000   0.510128   -125.104241
 0.955000   0.025253   -67.973207
 0.960000   -0.169604   -12.023106
 0.965000   -0.094978   37.338397
 0.970000   0.203780   75.933170
 0.975000   0.664354   101.250092
 0.980000   1.216281   112.576912
 0.985000   1.790123   110.555303
 0.990000   2.321834   97.831781
 0.995000   2.768441   78.135719
 1.000000   3.103191   55.764290
201 psinorm omegp(kRad/s) domegp/dpsiN
 0.000000   0.048533   129.875918
 0.005000   0.574724   80.600422
 0.010000   0.854538   53.095664
 0.015000   1.105681   48.983570
 0.020000   1.344373   46.567530
 0.025000   1.571356   43.856200
 0.030000   1.782935   40.284871
 0.035000   1.974205   36.701440
 0.040000   2.149950   33.476355
 0.045000   2.308968   30.275549
 0.050000   2.452705   27.631789
 0.055000   2.585286   25.759816
 0.060000   2.710303   24.492523
 0.065000   2.830211   23.709708
 0.070000   2.947400   23.319410
 0.075000   3.063406   23.059964
 0.080000   3.178000   22.784331
 0.085000   3.291249   22.591655
 0.090000   3.403917   22.284702
 0.095000   3.514096   21.790418
 0.100000   3.621821   21.127740
 0.105000   3.725373   20.291550
 0.110000   3.824736   19.382962
 0.115000   3.919203   18.323274
 0.120000   4.007969   17.271648
 0.125000   4.091919   16.386661
 0.130000   4.171836   15.619253
 0.135000   4.248112   14.948324
 0.140000   4.321319   14.395593
 0.145000   4.392068   13.889060
 0.150000   4.460209   13.285863
 0.155000   4.524927   12.553141
 0.160000   4.585741   11.645499
 0.165000   4.641382   10.583567
 0.170000   4.691576   9.374329
 0.175000   4.735125   8.070983
 0.180000   4.772286   6.693797
 0.185000   4.802063   5.274859
 0.190000   4.825035   3.847015
 0.195000   4.840533   2.336643
 0.200000   4.848401   0.899957
 0.205000   4.849532   -0.578245
 0.210000   4.842619   -1.950399
 0.215000   4.830028   -3.137058
 0.220000   4.811248   -4.326082
 0.225000   4.786768   -5.395373
 0.230000   4.757295   -6.477413
 0.235000   4.721994   -7.632920
 0.240000   4.680965   -8.883689
 0.245000   4.633157   -10.369888
 0.250000   4.577266   -11.878722
 0.255000   4.514369   -13.528666
 0.260000   4.441980   -15.355630
 0.265000   4.360813   -17.040851
 0.270000   4.271571   -18.718670
 0.275000   4.173626   -20.334455
 0.280000   4.068227   -21.732921
 0.285000   3.956297   -23.056064
 0.290000   3.837666   -24.247353
 0.295000   3.713824   -25.306160
 0.300000   3.584605   -26.421894
 0.305000   3.449605   -27.488915
 0.310000   3.309715   -28.542228
 0.315000   3.164182   -29.737689
 0.320000   3.012339   -30.956103
 0.325000   2.854621   -32.287394
 0.330000   2.689465   -33.825573
 0.335000   2.516366   -35.310837
 0.340000   2.336356   -36.688693
 0.345000   2.149479   -37.922143
 0.350000   1.957135   -38.746075
 0.355000   1.762018   -39.147171
 0.360000   1.565663   -39.266706
 0.365000   1.369351   -39.124500
 0.370000   1.174418   -38.791675
 0.375000   0.981434   -38.391149
 0.380000   0.790507   -37.896257
 0.385000   0.602472   -37.541762
 0.390000   0.415089   -37.524050
 0.395000   0.227231   -37.720095
 0.400000   0.037888   -38.148092
 0.405000   -0.154250   -38.751104
 0.410000   -0.349623   -39.416568
 0.415000   -0.548415   -40.005751
 0.420000   -0.749681   -40.556959
 0.425000   -0.953985   -41.372799
 0.430000   -1.163409   -42.689893
 0.435000   -1.380884   -44.758135
 0.440000   -1.610990   -47.936185
 0.445000   -1.860246   -51.758422
 0.450000   -2.128574   -55.626485
 0.455000   -2.416511   -59.529920
 0.460000   -2.723873   -63.253904
 0.465000   -3.049050   -66.674002
 0.470000   -3.390613   -69.418623
 0.475000   -3.743236   -70.775055
 0.480000   -4.098364   -70.678883
 0.485000   -4.450025   -69.286496
 0.490000   -4.791229   -66.538897
 0.495000   -5.115414   -62.468538
 0.500000   -5.415914   -57.091293
 0.505000   -5.686327   -51.119802
 0.510000   -5.927112   -45.238844
 0.515000   -6.138715   -39.565795
 0.520000   -6.322770   -34.226394
 0.525000   -6.480979   -29.233168
 0.530000   -6.615102   -25.172050
 0.535000   -6.732700   -22.375769
 0.540000   -6.838860   -20.439689
 0.545000   -6.937096   -19.242771
 0.550000   -7.031287   -18.651738
 0.555000   -7.123614   -18.507597
 0.560000   -7.216363   -18.619380
 0.565000   -7.309808   -18.739961
 0.570000   -7.403763   -18.621440
 0.575000   -7.496022   -18.122386
 0.580000   -7.584987   -17.304068
 0.585000   -7.669063   -16.123997
 0.590000   -7.746227   -14.351895
 0.595000   -7.812582   -11.975206
 0.600000   -7.865979   -9.362280
 0.605000   -7.906204   -6.588081
 0.610000   -7.931860   -3.708245
 0.615000   -7.943287   -1.007684
 0.620000   -7.941936   1.374624
 0.625000   -7.929541   3.400006
 0.630000   -7.907936   5.041818
 0.635000   -7.879122   6.241956
 0.640000   -7.845517   7.085816
 0.645000   -7.808264   7.690918
 0.650000   -7.768608   8.105415
 0.655000   -7.727210   8.456104
 0.660000   -7.684047   8.804441
 0.665000   -7.639166   9.170536
 0.670000   -7.592341   9.508070
 0.675000   -7.544085   9.819852
 0.680000   -7.494143   10.173428
 0.685000   -7.442351   10.613743
 0.690000   -7.388005   11.192583
 0.695000   -7.330425   11.980732
 0.700000   -7.268198   13.097895
 0.705000   -7.199446   14.456756
 0.710000   -7.123630   15.819370
 0.715000   -7.041252   17.038390
 0.720000   -6.953246   17.976581
 0.725000   -6.861486   18.465652
 0.730000   -6.768590   18.413930
 0.735000   -6.677347   17.611715
 0.740000   -6.592473   15.966794
 0.745000   -6.517679   13.644982
 0.750000   -6.456023   10.886336
 0.755000   -6.408816   7.941354
 0.760000   -6.376609   4.995315
 0.765000   -6.358863   2.373808
 0.770000   -6.352871   0.269304
 0.775000   -6.356170   -1.340037
 0.780000   -6.366272   -2.529571
 0.785000   -6.381465   -3.415645
 0.790000   -6.400428   -4.294133
 0.795000   -6.424407   -5.619816
 0.800000   -6.456626   -7.567766
 0.805000   -6.500084   -10.123606
 0.810000   -6.557862   -13.305400
 0.815000   -6.633138   -17.109607
 0.820000   -6.728958   -21.460405
 0.825000   -6.847742   -25.643369
 0.830000   -6.985392   -28.980455
 0.835000   -7.137547   -31.300087
 0.840000   -7.298393   -32.212216
 0.845000   -7.459669   -31.493339
 0.850000   -7.613326   -29.268260
 0.855000   -7.752352   -25.672458
 0.860000   -7.870051   -20.796328
 0.865000   -7.960315   -14.780597
 0.870000   -8.017857   -7.952141
 0.875000   -8.039836   -0.464766
 0.880000   -8.022505   7.596119
 0.885000   -7.963875   15.908628
 0.890000   -7.863418   24.235041
 0.895000   -7.721525   32.430634
 0.900000   -7.539112   40.300063
 0.905000   -7.318524   47.581532
 0.910000   -7.063297   53.629331
 0.915000   -6.782231   57.671715
 0.920000   -6.486580   59.713526
 0.925000   -6.185096   60.808321
 0.930000   -5.878496   61.088814
 0.935000   -5.574207   61.189718
 0.940000   -5.266599   63.446474
 0.945000   -4.939743   67.881595
 0.950000   -4.587783   70.320737
 0.955000   -4.236535   64.891445
 0.960000   -3.938869   44.063795
 0.965000   -3.795897   -2.177707
 0.970000   -3.960646   -72.206815
 0.975000   -4.517966   -123.891830
 0.980000   -5.199564   -59.781001
 0.985000   -5.115776   234.930384
 0.990000   -2.850260   765.347255
 0.995000   2.537697   1268.526495
 1.000000   9.835005   1650.396587
201 psinorm omgvb(kRad/s) domgvb/dpsiN
 0.000000   54.690366   129.904777
 0.005000   55.216054   80.370358
 0.010000   55.494070   52.559066
 0.015000   55.741645   48.035445
 0.020000   55.974424   45.084498
 0.025000   56.192490   41.697646
 0.030000   56.391401   37.293734
 0.035000   56.565427   32.706601
 0.040000   56.718467   28.298968
 0.045000   56.848417   23.738189
 0.050000   56.955849   19.561492
 0.055000   57.044032   15.990558
 0.060000   57.115754   12.870988
 0.065000   57.172742   10.098616
 0.070000   57.216740   7.625304
 0.075000   57.248995   5.217682
 0.080000   57.268917   2.744503
 0.085000   57.276440   0.350321
 0.090000   57.272421   -2.123903
 0.095000   57.255201   -4.725178
 0.100000   57.225169   -7.364393
 0.105000   57.181557   -10.086238
 0.110000   57.124306   -12.905394
 0.115000   57.052503   -15.905890
 0.120000   56.965247   -18.919829
 0.125000   56.863305   -21.782088
 0.130000   56.747427   -24.467852
 0.135000   56.618626   -26.965084
 0.140000   56.477776   -29.316281
 0.145000   56.325463   -31.612151
 0.150000   56.161654   -33.993659
 0.155000   55.985527   -36.517302
 0.160000   55.796481   -39.237632
 0.165000   55.593150   -42.116844
 0.170000   55.375313   -45.101483
 0.175000   55.142135   -48.084560
 0.180000   54.894467   -51.018163
 0.185000   54.631954   -53.862279
 0.190000   54.355844   -56.559898
 0.195000   54.066355   -59.169464
 0.200000   53.764150   -61.585356
 0.205000   53.450501   -63.922667
 0.210000   53.124923   -65.982644
 0.215000   52.790675   -67.675611
 0.220000   52.448167   -69.164439
 0.225000   52.099030   -70.302827
 0.230000   51.745139   -71.343306
 0.235000   51.385597   -72.419022
 0.240000   51.020948   -73.513964
 0.245000   50.650458   -74.788383
 0.250000   50.273065   -76.029178
 0.255000   49.890166   -77.281983
 0.260000   49.500245   -78.560405
 0.265000   49.104562   -79.546011
 0.270000   48.704785   -80.339316
 0.275000   48.301169   -80.904442
 0.280000   47.895740   -81.100895
 0.285000   47.490160   -81.012771
 0.290000   47.085613   -80.727455
 0.295000   46.682885   -80.371662
 0.300000   46.281896   -80.074035
 0.305000   45.882145   -79.762797
 0.310000   45.484268   -79.502389
 0.315000   45.087121   -79.446866
 0.320000   44.689799   -79.517091
 0.325000   44.291950   -79.807731
 0.330000   43.891722   -80.361796
 0.335000   43.488332   -80.916180
 0.340000   43.082560   -81.407438
 0.345000   42.674258   -81.807723
 0.350000   42.264483   -81.790193
 0.355000   41.856356   -81.275918
 0.360000   41.451724   -80.423923
 0.365000   41.052117   -79.263381
 0.370000   40.659090   -77.871648
 0.375000   40.273400   -76.399400
 0.380000   39.895096   -74.800830
 0.385000   39.525392   -73.273386
 0.390000   39.162362   -72.025409
 0.395000   38.805138   -70.938826
 0.400000   38.452974   -70.031067
 0.405000   38.104827   -69.251937
 0.410000   37.760454   -68.477925
 0.415000   37.420048   -67.563330
 0.420000   37.084821   -66.567196
 0.425000   36.754376   -65.807487
 0.430000   36.426746   -65.532037
 0.435000   36.099056   -65.996044
 0.440000   35.766786   -67.577657
 0.445000   35.423279   -69.855199
 0.450000   35.068234   -72.255555
 0.455000   34.700723   -74.768278
 0.460000   34.320551   -77.172833
 0.465000   33.928995   -79.342773
 0.470000   33.527123   -80.898878
 0.475000   33.120006   -81.095888
 0.480000   32.716164   -79.850757
 0.485000   32.321499   -77.322322
 0.490000   31.942941   -73.451700
 0.495000   31.586982   -68.280455
 0.500000   31.260137   -61.834615
 0.505000   30.968636   -54.833734
 0.510000   30.711799   -47.984890
 0.515000   30.488787   -41.434143
 0.520000   30.297458   -35.328181
 0.525000   30.135505   -29.698983
 0.530000   30.000468   -25.149524
 0.535000   29.884010   -22.025925
 0.540000   29.780209   -19.930950
 0.545000   29.684700   -18.745267
 0.550000   29.592756   -18.335702
 0.555000   29.501343   -18.546185
 0.560000   29.407294   -19.196795
 0.565000   29.309375   -20.060109
 0.570000   29.206693   -20.913948
 0.575000   29.100236   -21.648541
 0.580000   28.990208   -22.362225
 0.585000   28.876613   -23.055284
 0.590000   28.759655   -23.575643
 0.595000   28.640857   -23.934979
 0.600000   28.520305   -24.505277
 0.605000   28.395804   -25.406722
 0.610000   28.266238   -26.708827
 0.615000   28.128716   -28.693629
 0.620000   27.979302   -31.519214
 0.625000   27.813524   -35.046067
 0.630000   27.628841   -39.094330
 0.635000   27.422581   -43.676165
 0.640000   27.192079   -48.621607
 0.645000   26.936364   -53.736244
 0.650000   26.654717   -58.836586
 0.655000   26.347999   -63.716327
 0.660000   26.017554   -68.300563
 0.665000   25.664993   -72.500765
 0.670000   25.292546   -76.309222
 0.675000   24.901901   -79.692530
 0.680000   24.495621   -82.481145
 0.685000   24.077089   -84.769288
 0.690000   23.647928   -86.746906
 0.695000   23.209620   -88.343289
 0.700000   22.764495   -89.445125
 0.705000   22.315169   -90.170349
 0.710000   21.862791   -90.868754
 0.715000   21.406481   -91.814110
 0.720000   20.944650   -92.987157
 0.725000   20.476610   -94.242971
 0.730000   20.002221   -95.423075
 0.735000   19.522379   -96.524374
 0.740000   19.036977   -97.517288
 0.745000   18.547206   -98.105560
 0.750000   18.055921   -98.038089
 0.755000   17.566825   -97.257577
 0.760000   17.083346   -95.792711
 0.765000   16.608898   -93.552061
 0.770000   16.147825   -90.599859
 0.775000   15.702900   -87.250976
 0.780000   15.275315   -83.691006
 0.785000   14.865990   -79.946345
 0.790000   14.475852   -76.265447
 0.795000   14.103335   -73.093028
 0.800000   13.744921   -70.661510
 0.805000   13.396720   -69.033673
 0.810000   13.054585   -68.087136
 0.815000   12.715849   -67.821045
 0.820000   12.376374   -68.415157
 0.825000   12.031697   -69.368091
 0.830000   11.682693   -70.263982
 0.835000   11.329057   -71.198845
 0.840000   10.970705   -71.945389
 0.845000   10.609603   -72.476265
 0.850000   10.245942   -73.160661
 0.855000   9.877997   -74.307730
 0.860000   9.502865   -76.229336
 0.865000   9.115703   -79.523291
 0.870000   8.707632   -84.690185
 0.875000   8.268802   -91.880383
 0.880000   7.788828   -101.355191
 0.885000   7.255250   -113.414959
 0.890000   6.654679   -128.081237
 0.895000   5.974437   -145.707075
 0.900000   5.197608   -164.670443
 0.905000   4.327733   -182.861133
 0.910000   3.368997   -199.753844
 0.915000   2.330194   -214.022702
 0.920000   1.228770   -223.408149
 0.925000   0.096113   -225.230834
 0.930000   -1.023539   -216.644913
 0.935000   -2.070336   -195.208327
 0.940000   -2.975622   -159.311068
 0.945000   -3.663447   -110.203308
 0.950000   -4.077655   -54.783503
 0.955000   -4.211282   -3.081762
 0.960000   -4.108473   32.040689
 0.965000   -3.890875   35.160690
 0.970000   -3.756866   3.726355
 0.975000   -3.853611   -22.641738
 0.980000   -3.983283   52.795911
 0.985000   -3.325652   345.485686
 0.990000   -0.528426   863.179036
 0.995000   5.306138   1346.662214
 1.000000   12.938196   1706.160877
201 psinorm omgpp(kRad/s) domgpp/dpsiN
 0.000000   -0.103783   -51.763741
 0.005000   -0.418874   -74.272632
 0.010000   -0.846509   -86.339301
 0.015000   -1.282267   -87.878300
 0.020000   -1.725292   -89.241332
 0.025000   -2.174680   -90.430402
 0.030000   -2.629596   -91.403599
 0.035000   -3.088716   -92.119168
 0.040000   -3.550788   -92.571918
 0.045000   -4.014435   -92.737788
 0.050000   -4.478166   -92.606411
 0.055000   -4.940499   -91.998585
 0.060000   -5.398152   -90.678171
 0.065000   -5.847281   -88.706926
 0.070000   -6.285221   -86.193191
 0.075000   -6.709213   -83.165346
 0.080000   -7.116874   -79.617329
 0.085000   -7.505386   -75.491554
 0.090000   -7.871790   -71.459116
 0.095000   -8.219977   -67.458805
 0.100000   -8.546378   -62.913338
 0.105000   -8.849111   -57.955726
 0.110000   -9.125935   -52.415151
 0.115000   -9.373262   -45.822972
 0.120000   -9.584165   -39.701722
 0.125000   -9.770279   -34.290569
 0.130000   -9.927070   -28.592494
 0.135000   -10.056204   -23.265818
 0.140000   -10.159729   -18.354893
 0.145000   -10.239753   -13.369779
 0.150000   -10.293426   -9.416050
 0.155000   -10.333914   -6.185885
 0.160000   -10.355285   -2.367005
 0.165000   -10.357584   1.474061
 0.170000   -10.340545   5.391181
 0.175000   -10.303672   9.452971
 0.180000   -10.246015   13.277248
 0.185000   -10.170900   16.954939
 0.190000   -10.076466   20.819248
 0.195000   -9.962707   24.672361
 0.200000   -9.829742   28.499800
 0.205000   -9.677709   32.799954
 0.210000   -9.501742   36.986317
 0.215000   -9.307846   40.339873
 0.220000   -9.098344   43.104689
 0.225000   -8.876799   45.087753
 0.230000   -8.647466   46.242457
 0.235000   -8.414374   46.650970
 0.240000   -8.180957   46.054151
 0.245000   -7.953833   45.137479
 0.250000   -7.729582   44.781301
 0.255000   -7.506020   44.804069
 0.260000   -7.281541   45.130303
 0.265000   -7.054717   45.335743
 0.270000   -6.828184   45.805761
 0.275000   -6.596659   46.840327
 0.280000   -6.359780   47.679583
 0.285000   -6.119864   48.256540
 0.290000   -5.877215   48.760601
 0.295000   -5.632257   49.113635
 0.300000   -5.386079   49.315145
 0.305000   -5.139106   49.222836
 0.310000   -4.893850   48.779893
 0.315000   -4.651307   48.234533
 0.320000   -4.411505   47.671622
 0.325000   -4.174591   47.129281
 0.330000   -3.940212   46.567541
 0.335000   -3.708915   45.621984
 0.340000   -3.483992   44.341524
 0.345000   -3.265500   42.984534
 0.350000   -3.054147   41.491462
 0.355000   -2.850586   39.980131
 0.360000   -2.654346   38.300414
 0.365000   -2.467581   35.807285
 0.370000   -2.296273   32.960170
 0.375000   -2.137980   30.373652
 0.380000   -1.992536   27.837144
 0.385000   -1.859608   25.317531
 0.390000   -1.739361   22.601767
 0.395000   -1.633591   20.175896
 0.400000   -1.537602   18.337113
 0.405000   -1.450220   16.752332
 0.410000   -1.370079   15.389667
 0.415000   -1.296323   14.142922
 0.420000   -1.228649   12.988406
 0.425000   -1.166439   11.920154
 0.430000   -1.109448   10.743702
 0.435000   -1.059002   9.388583
 0.440000   -1.015562   7.925080
 0.445000   -0.979751   6.317758
 0.450000   -0.952384   4.621146
 0.455000   -0.933540   2.610545
 0.460000   -0.926279   0.535415
 0.465000   -0.928185   -1.257474
 0.470000   -0.938854   -2.973285
 0.475000   -0.957918   -4.603930
 0.480000   -0.984893   -6.183586
 0.485000   -1.019754   -7.413176
 0.490000   -1.059025   -8.270148
 0.495000   -1.102456   -9.056186
 0.500000   -1.149587   -9.747177
 0.505000   -1.199927   -10.332778
 0.510000   -1.252914   -10.726770
 0.515000   -1.307195   -11.020972
 0.520000   -1.363124   -11.323335
 0.525000   -1.420428   -11.539379
 0.530000   -1.478518   -11.639149
 0.535000   -1.536820   -11.625844
 0.540000   -1.594776   -11.302810
 0.545000   -1.649848   -10.859592
 0.550000   -1.703372   -10.532112
 0.555000   -1.755169   -10.098468
 0.560000   -1.804357   -9.565481
 0.565000   -1.850824   -9.020483
 0.570000   -1.894562   -8.309766
 0.575000   -1.933922   -7.758541
 0.580000   -1.972147   -7.612978
 0.585000   -2.010051   -7.449411
 0.590000   -2.046641   -7.215904
 0.595000   -2.082210   -7.039944
 0.600000   -2.117041   -6.918080
 0.605000   -2.151391   -6.932033
 0.610000   -2.186361   -6.953612
 0.615000   -2.220927   -6.752419
 0.620000   -2.253885   -6.306313
 0.625000   -2.283990   -5.618403
 0.630000   -2.310069   -4.740109
 0.635000   -2.331392   -3.890884
 0.640000   -2.348978   -3.266560
 0.645000   -2.364057   -2.804661
 0.650000   -2.377025   -2.410624
 0.655000   -2.388163   -2.074055
 0.660000   -2.397765   -1.859591
 0.665000   -2.406759   -1.821055
 0.670000   -2.415976   -1.597315
 0.675000   -2.422732   -1.236453
 0.680000   -2.428340   -1.034945
 0.685000   -2.433082   -0.886500
 0.690000   -2.437205   -0.851502
 0.695000   -2.441597   -1.258159
 0.700000   -2.449787   -1.863432
 0.705000   -2.460231   -2.840717
 0.710000   -2.478194   -4.474879
 0.715000   -2.504980   -6.278231
 0.720000   -2.540976   -8.199297
 0.725000   -2.586973   -11.139680
 0.730000   -2.652373   -12.192796
 0.735000   -2.708901   -11.476290
 0.740000   -2.767136   -11.640845
 0.745000   -2.825309   -11.424010
 0.750000   -2.881376   -10.773263
 0.755000   -2.933042   -10.103808
 0.760000   -2.982414   -7.840335
 0.765000   -3.011445   -4.798088
 0.770000   -3.030395   -2.742487
 0.775000   -3.038870   -0.644856
 0.780000   -3.036844   1.395040
 0.785000   -3.024920   4.062038
 0.790000   -2.996223   5.917668
 0.795000   -2.965743   6.413643
 0.800000   -2.932087   6.978813
 0.805000   -2.895955   7.297461
 0.810000   -2.859112   7.236207
 0.815000   -2.823593   7.483218
 0.820000   -2.784280   6.439028
 0.825000   -2.759203   3.884847
 0.830000   -2.745432   1.714160
 0.835000   -2.742061   -0.381624
 0.840000   -2.749248   -2.391730
 0.845000   -2.765978   -4.102115
 0.850000   -2.790269   -5.413917
 0.855000   -2.820118   -6.737093
 0.860000   -2.857640   -8.535207
 0.865000   -2.905470   -10.825129
 0.870000   -2.965891   -13.570117
 0.875000   -3.041171   -18.162095
 0.880000   -3.147512   -23.649289
 0.885000   -3.277664   -26.889061
 0.890000   -3.416403   -29.072515
 0.895000   -3.568389   -31.658489
 0.900000   -3.732988   -34.310161
 0.905000   -3.911490   -40.144204
 0.910000   -4.134430   -48.549465
 0.915000   -4.396985   -52.662088
 0.920000   -4.661051   -55.585641
 0.925000   -4.952841   -61.491145
 0.930000   -5.275962   -68.422927
 0.935000   -5.637071   -81.049384
 0.940000   -6.086456   -99.932137
 0.945000   -6.636392   -112.924474
 0.950000   -7.215701   -129.738407
 0.955000   -7.933776   -163.907524
 0.960000   -8.854776   -210.828054
 0.965000   -10.042057   -270.960825
 0.970000   -11.564384   -335.104014
 0.975000   -13.393097   -364.476498
 0.980000   -15.209149   -345.988276
 0.985000   -16.852980   -281.547995
 0.990000   -18.024629   -156.614763
 0.995000   -18.419127   18.214486
 1.000000   -17.842484   212.442682
201 psinorm omgeb(kRad/s) domgeb/dpsiN
 0.000000   54.586584   78.141036
 0.005000   54.797180   6.097725
 0.010000   54.647561   -33.780235
 0.015000   54.459378   -39.842855
 0.020000   54.249132   -44.156834
 0.025000   54.017810   -48.732756
 0.030000   53.761805   -54.109865
 0.035000   53.476711   -59.412567
 0.040000   53.167679   -64.272950
 0.045000   52.833982   -68.999598
 0.050000   52.477683   -73.044919
 0.055000   52.103532   -76.008027
 0.060000   51.717603   -77.807183
 0.065000   51.325461   -78.608309
 0.070000   50.931520   -78.567887
 0.075000   50.539782   -77.947664
 0.080000   50.152043   -76.872826
 0.085000   49.771053   -75.141233
 0.090000   49.400631   -73.583019
 0.095000   49.035223   -72.183983
 0.100000   48.678791   -70.277731
 0.105000   48.332446   -68.041965
 0.110000   47.998371   -65.320545
 0.115000   47.679241   -61.728862
 0.120000   47.381083   -58.621550
 0.125000   47.093025   -56.072657
 0.130000   46.820356   -53.060346
 0.135000   46.562422   -50.230903
 0.140000   46.318047   -47.671174
 0.145000   46.085710   -44.981931
 0.150000   45.868228   -43.409709
 0.155000   45.651613   -42.703188
 0.160000   45.441196   -41.604637
 0.165000   45.235566   -40.642783
 0.170000   45.034768   -39.710302
 0.175000   44.838463   -38.631589
 0.180000   44.648452   -37.740915
 0.185000   44.461054   -36.907340
 0.190000   44.279379   -35.740650
 0.195000   44.103648   -34.497103
 0.200000   43.934408   -33.085556
 0.205000   43.772792   -31.122713
 0.210000   43.623181   -28.996327
 0.215000   43.482829   -27.335738
 0.220000   43.349823   -26.059750
 0.225000   43.222231   -25.215074
 0.230000   43.097672   -25.100849
 0.235000   42.971223   -25.768053
 0.240000   42.839992   -27.459813
 0.245000   42.696625   -29.650904
 0.250000   42.543483   -31.247877
 0.255000   42.384146   -32.477914
 0.260000   42.218704   -33.430102
 0.265000   42.049845   -34.210268
 0.270000   41.876601   -34.533555
 0.275000   41.704509   -34.064116
 0.280000   41.535960   -33.421311
 0.285000   41.370296   -32.756231
 0.290000   41.208398   -31.966854
 0.295000   41.050628   -31.258027
 0.300000   40.895817   -30.758890
 0.305000   40.743039   -30.539962
 0.310000   40.590418   -30.722495
 0.315000   40.435814   -31.212333
 0.320000   40.278294   -31.845469
 0.325000   40.117359   -32.678450
 0.330000   39.951510   -33.794255
 0.335000   39.779417   -35.294196
 0.340000   39.598568   -37.065914
 0.345000   39.408758   -38.823189
 0.350000   39.210336   -40.298732
 0.355000   39.005770   -41.295787
 0.360000   38.797378   -42.123510
 0.365000   38.584535   -43.456096
 0.370000   38.362817   -44.911478
 0.375000   38.135420   -46.025748
 0.380000   37.902560   -46.963685
 0.385000   37.665783   -47.955855
 0.390000   37.423001   -49.423642
 0.395000   37.171547   -50.762930
 0.400000   36.915372   -51.693953
 0.405000   36.654608   -52.499604
 0.410000   36.390376   -53.088258
 0.415000   36.123725   -53.420408
 0.420000   35.856172   -53.578790
 0.425000   35.587937   -53.887333
 0.430000   35.317298   -54.788336
 0.435000   35.040054   -56.607461
 0.440000   34.751224   -59.652577
 0.445000   34.443528   -63.537441
 0.450000   34.115849   -67.634409
 0.455000   33.767184   -72.157733
 0.460000   33.394272   -76.637417
 0.465000   33.000810   -80.600247
 0.470000   32.588270   -83.872163
 0.475000   32.162088   -85.699818
 0.480000   31.731271   -86.034343
 0.485000   31.301745   -84.735498
 0.490000   30.883916   -81.721848
 0.495000   30.484526   -77.336641
 0.500000   30.110550   -71.581792
 0.505000   29.768708   -65.166512
 0.510000   29.458885   -58.711660
 0.515000   29.181592   -52.455115
 0.520000   28.934334   -46.651516
 0.525000   28.715076   -41.238361
 0.530000   28.521950   -36.788673
 0.535000   28.347190   -33.651769
 0.540000   28.185432   -31.233760
 0.545000   28.034852   -29.604859
 0.550000   27.889384   -28.867814
 0.555000   27.746174   -28.644652
 0.560000   27.602937   -28.762276
 0.565000   27.458551   -29.080592
 0.570000   27.312131   -29.223714
 0.575000   27.166314   -29.407082
 0.580000   27.018061   -29.975203
 0.585000   26.866562   -30.504695
 0.590000   26.713014   -30.791547
 0.595000   26.558647   -30.974923
 0.600000   26.403264   -31.423358
 0.605000   26.244413   -32.338754
 0.610000   26.079877   -33.662439
 0.615000   25.907789   -35.446048
 0.620000   25.725416   -37.825527
 0.625000   25.529533   -40.664469
 0.630000   25.318772   -43.834439
 0.635000   25.091189   -47.567050
 0.640000   24.843101   -51.888166
 0.645000   24.572307   -56.540905
 0.650000   24.277692   -61.247210
 0.655000   23.959835   -65.790382
 0.660000   23.619788   -70.160154
 0.665000   23.258234   -74.321820
 0.670000   22.876570   -77.906537
 0.675000   22.479168   -80.928983
 0.680000   22.067280   -83.516089
 0.685000   21.644007   -85.655788
 0.690000   21.210722   -87.598408
 0.695000   20.768023   -89.601448
 0.700000   20.314708   -91.308556
 0.705000   19.854938   -93.011067
 0.710000   19.384597   -95.343632
 0.715000   18.901501   -98.092341
 0.720000   18.403674   -101.186454
 0.725000   17.889637   -105.382651
 0.730000   17.349847   -107.615871
 0.735000   16.813478   -108.000664
 0.740000   16.269841   -109.158133
 0.745000   15.721897   -109.529570
 0.750000   15.174545   -108.811351
 0.755000   14.633783   -107.361385
 0.760000   14.100931   -103.633046
 0.765000   13.597453   -98.350149
 0.770000   13.117430   -93.342346
 0.775000   12.664029   -87.895832
 0.780000   12.238471   -82.295966
 0.785000   11.841070   -75.884306
 0.790000   11.479628   -70.347779
 0.795000   11.137592   -66.679386
 0.800000   10.812834   -63.682696
 0.805000   10.500765   -61.736212
 0.810000   10.195472   -60.850928
 0.815000   9.892256   -60.337827
 0.820000   9.592094   -61.976129
 0.825000   9.272494   -65.483244
 0.830000   8.937262   -68.549822
 0.835000   8.586996   -71.580469
 0.840000   8.221457   -74.337119
 0.845000   7.843625   -76.578380
 0.850000   7.455673   -78.574577
 0.855000   7.057879   -81.044823
 0.860000   6.645225   -84.764543
 0.865000   6.210234   -90.348420
 0.870000   5.741741   -98.260301
 0.875000   5.227631   -110.042478
 0.880000   4.641316   -125.004480
 0.885000   3.977586   -140.304020
 0.890000   3.238276   -157.153752
 0.895000   2.406049   -177.365565
 0.900000   1.464620   -198.980604
 0.905000   0.416242   -223.005337
 0.910000   -0.765433   -248.303309
 0.915000   -2.066791   -266.684790
 0.920000   -3.432281   -278.993790
 0.925000   -4.856729   -286.721979
 0.930000   -6.299501   -285.067840
 0.935000   -7.707407   -276.257711
 0.940000   -9.062078   -259.243205
 0.945000   -10.299839   -223.127783
 0.950000   -11.293356   -184.521910
 0.955000   -12.145058   -166.989287
 0.960000   -12.963249   -178.787365
 0.965000   -13.932932   -235.800136
 0.970000   -15.321250   -331.377659
 0.975000   -17.246708   -387.118236
 0.980000   -19.192433   -293.192365
 0.985000   -20.178632   63.937691
 0.990000   -18.553056   706.564273
 0.995000   -13.112989   1364.876700
 1.000000   -4.904289   1918.603559
201 psinorm er(kV/m) der/dpsiN
 0.000000   0.483196   1207.797548
 0.005000   5.248050   698.143901
 0.010000   7.464635   389.278405
 0.015000   9.140834   309.790916
 0.020000   10.562544   264.300533
 0.025000   11.783839   231.059779
 0.030000   12.873142   207.036599
 0.035000   13.854205   187.323454
 0.040000   14.746376   170.996056
 0.045000   15.564166   157.294914
 0.050000   16.319326   144.270021
 0.055000   17.006866   131.657809
 0.060000   17.635904   120.540987
 0.065000   18.212276   114.619634
 0.070000   18.782100   108.721035
 0.075000   19.299486   96.623810
 0.080000   19.748338   93.699130
 0.085000   20.236477   89.882735
 0.090000   20.647166   81.564193
 0.095000   21.052119   81.623980
 0.100000   21.463405   72.540148
 0.105000   21.777521   72.636306
 0.110000   22.189768   67.555851
 0.115000   22.453079   65.851041
 0.120000   22.848279   64.592303
 0.125000   23.099002   61.853494
 0.130000   23.466814   60.007774
 0.135000   23.699080   59.027924
 0.140000   24.057093   56.260992
 0.145000   24.261690   56.747775
 0.150000   24.624571   52.697836
 0.155000   24.788668   50.139578
 0.160000   25.125966   52.117624
 0.165000   25.309844   46.161877
 0.170000   25.587585   49.576550
 0.175000   25.805610   42.763835
 0.180000   26.015224   46.653654
 0.185000   26.272146   39.710764
 0.190000   26.412331   41.217882
 0.195000   26.684325   40.871480
 0.200000   26.821046   35.924970
 0.205000   27.043575   43.189775
 0.210000   27.252944   35.457748
 0.215000   27.398152   39.141293
 0.220000   27.644357   37.606096
 0.225000   27.774213   33.061506
 0.230000   27.974972   39.996382
 0.235000   28.174177   30.533569
 0.240000   28.280307   29.846753
 0.245000   28.472645   31.226098
 0.250000   28.592568   22.841936
 0.255000   28.701064   26.195887
 0.260000   28.854527   21.283916
 0.265000   28.913903   17.024292
 0.270000   29.024770   23.208230
 0.275000   29.145986   15.472841
 0.280000   29.179499   14.568066
 0.285000   29.291666   20.626906
 0.290000   29.385768   13.733442
 0.295000   29.429001   14.266419
 0.300000   29.528432   17.491135
 0.305000   29.603912   11.886528
 0.310000   29.647297   12.390433
 0.315000   29.727816   13.401638
 0.320000   29.781314   8.308638
 0.325000   29.810903   8.387164
 0.330000   29.865185   8.265341
 0.335000   29.893556   3.272767
 0.340000   29.897913   2.358304
 0.345000   29.917139   1.570573
 0.350000   29.913619   -2.895655
 0.355000   29.888183   -3.662918
 0.360000   29.876989   -3.676295
 0.365000   29.851420   -7.627185
 0.370000   29.800718   -9.187169
 0.375000   29.759548   -9.296201
 0.380000   29.707756   -12.603298
 0.385000   29.633515   -14.172252
 0.390000   29.566033   -14.452313
 0.395000   29.488992   -17.791288
 0.400000   29.388120   -19.593652
 0.405000   29.293055   -19.477168
 0.410000   29.193348   -21.579757
 0.415000   29.077258   -23.091348
 0.420000   28.962435   -22.999414
 0.425000   28.847264   -24.053593
 0.430000   28.721899   -26.150387
 0.435000   28.585760   -27.951013
 0.440000   28.442389   -30.647425
 0.445000   28.279286   -35.208529
 0.450000   28.090304   -39.260154
 0.455000   27.886684   -42.918733
 0.460000   27.661116   -47.969029
 0.465000   27.406994   -52.168047
 0.470000   27.139436   -54.817009
 0.475000   26.858824   -57.292181
 0.480000   26.566514   -58.677489
 0.485000   26.272049   -57.850530
 0.490000   25.988009   -55.654279
 0.495000   25.715506   -53.172931
 0.500000   25.456279   -48.821049
 0.505000   25.227295   -43.179898
 0.510000   25.024480   -38.884918
 0.515000   24.838446   -34.236763
 0.520000   24.682113   -28.895250
 0.525000   24.549494   -24.830042
 0.530000   24.433812   -21.954411
 0.535000   24.329950   -19.279418
 0.540000   24.241018   -16.945561
 0.545000   24.160494   -16.677310
 0.550000   24.074245   -16.396843
 0.555000   23.996526   -15.568042
 0.560000   23.918565   -16.386251
 0.565000   23.832663   -17.418890
 0.570000   23.744376   -17.282749
 0.575000   23.659836   -17.300826
 0.580000   23.571368   -18.879474
 0.585000   23.471041   -19.561972
 0.590000   23.375748   -19.156144
 0.595000   23.279479   -20.057968
 0.600000   23.175168   -21.122277
 0.605000   23.068257   -21.579604
 0.610000   22.959372   -22.607167
 0.615000   22.842185   -25.229784
 0.620000   22.707074   -27.508310
 0.625000   22.567102   -29.346930
 0.630000   22.413605   -32.829632
 0.635000   22.238806   -36.809455
 0.640000   22.045510   -40.349216
 0.645000   21.835313   -44.262182
 0.650000   21.602889   -49.533832
 0.655000   21.339975   -53.825563
 0.660000   21.064633   -57.056184
 0.665000   20.769413   -61.346405
 0.670000   20.451169   -65.291209
 0.675000   20.116501   -67.848442
 0.680000   19.772685   -69.864973
 0.685000   19.417851   -72.773492
 0.690000   19.044950   -74.869568
 0.695000   18.669156   -76.111674
 0.700000   18.283833   -77.988353
 0.705000   17.889272   -80.347190
 0.710000   17.480361   -82.444080
 0.715000   17.064831   -84.524261
 0.720000   16.635118   -88.110122
 0.725000   16.183730   -92.421939
 0.730000   15.710899   -94.071420
 0.735000   15.243016   -94.386184
 0.740000   14.767037   -96.510590
 0.745000   14.277910   -97.046109
 0.750000   13.796576   -95.751197
 0.755000   13.320398   -95.005426
 0.760000   12.846522   -92.379079
 0.765000   12.396607   -87.391686
 0.770000   11.972605   -82.447580
 0.775000   11.572132   -78.366496
 0.780000   11.188940   -73.653516
 0.785000   10.835596   -67.241424
 0.790000   10.516526   -62.203468
 0.795000   10.213562   -59.754575
 0.800000   9.918980   -57.081028
 0.805000   9.642751   -54.668982
 0.810000   9.372290   -54.287942
 0.815000   9.099872   -54.410691
 0.820000   8.828183   -55.764707
 0.825000   8.542225   -58.678070
 0.830000   8.241403   -62.121518
 0.835000   7.921010   -65.259378
 0.840000   7.588809   -67.465213
 0.845000   7.246358   -69.507731
 0.850000   6.893731   -72.036484
 0.855000   6.525993   -74.476610
 0.860000   6.148965   -77.508091
 0.865000   5.750912   -82.927046
 0.870000   5.319695   -90.749362
 0.875000   4.843418   -101.696000
 0.880000   4.302735   -115.340773
 0.885000   3.690011   -129.823487
 0.890000   3.004500   -145.688602
 0.895000   2.233125   -164.365222
 0.900000   1.360848   -184.440552
 0.905000   0.388719   -207.252689
 0.910000   -0.711679   -230.804663
 0.915000   -1.919328   -247.586045
 0.920000   -3.187540   -259.727977
 0.925000   -4.516607   -269.111733
 0.930000   -5.878657   -268.081910
 0.935000   -7.197426   -259.158560
 0.940000   -8.470242   -247.519092
 0.945000   -9.672617   -218.868335
 0.950000   -10.658926   -180.118949
 0.955000   -11.473807   -160.082164
 0.960000   -12.259747   -181.335745
 0.965000   -13.287164   -240.802442
 0.970000   -14.667772   -323.246544
 0.975000   -16.519630   -372.376133
 0.980000   -18.391533   -285.865870
 0.985000   -19.378288   55.040016
 0.990000   -17.841133   673.170089
 0.995000   -12.646588   1304.780192
 1.000000   -4.793331   1836.522386
201 psinorm ommvb() dommvb/dpsiN
 0.000000   71.113775   22768.640574
 0.005000   161.829423   13517.618830
 0.010000   206.289963   8053.483173
 0.015000   242.364255   6648.652144
 0.020000   272.776484   5599.359885
 0.025000   298.357854   4770.499438
 0.030000   320.481479   4167.322753
 0.035000   340.031081   3623.850417
 0.040000   356.719983   3072.628979
 0.045000   370.757371   2640.604252
 0.050000   383.126025   2351.528217
 0.055000   394.272653   2003.274970
 0.060000   403.158775   1643.632137
 0.065000   410.708975   1385.350489
 0.070000   417.012280   1099.952476
 0.075000   421.708499   845.667272
 0.080000   425.468953   671.129871
 0.085000   428.419798   506.269085
 0.090000   430.531644   375.362528
 0.095000   432.173423   256.097345
 0.100000   433.092617   110.861545
 0.105000   433.282039   -84.439358
 0.110000   432.248224   -237.590092
 0.115000   430.906138   -328.137458
 0.120000   428.966849   -449.995474
 0.125000   426.406183   -569.064688
 0.130000   423.276202   -675.131654
 0.135000   419.654867   -775.360009
 0.140000   415.522602   -869.465617
 0.145000   410.960210   -948.346063
 0.150000   406.039141   -1022.436280
 0.155000   400.735848   -1087.409861
 0.160000   395.165043   -1137.761801
 0.165000   389.358230   -1181.618794
 0.170000   383.348855   -1216.596522
 0.175000   377.192264   -1258.239549
 0.180000   370.766459   -1288.721637
 0.185000   364.305048   -1284.201835
 0.190000   357.924441   -1274.038324
 0.195000   351.564665   -1268.652692
 0.200000   345.237914   -1258.375700
 0.205000   338.980908   -1243.066606
 0.210000   332.807248   -1220.942519
 0.215000   326.771483   -1328.235431
 0.220000   319.524894   -1299.178764
 0.225000   313.779695   -1110.843822
 0.230000   308.416455   -1067.336903
 0.235000   303.106326   -1047.596948
 0.240000   297.940486   -1013.594320
 0.245000   292.970383   -975.327349
 0.250000   288.187212   -1027.011543
 0.255000   282.700267   -1042.305324
 0.260000   277.764159   -886.011376
 0.265000   273.840154   -762.017117
 0.270000   270.143988   -728.594978
 0.275000   266.554204   -709.404361
 0.280000   263.049944   -752.499253
 0.285000   259.029211   -719.189650
 0.290000   255.858048   -562.132537
 0.295000   253.407886   -472.326464
 0.300000   251.134783   -437.677768
 0.305000   249.031108   -458.137104
 0.310000   246.553412   -484.490932
 0.315000   244.186199   -384.238765
 0.320000   242.711025   -281.567586
 0.325000   241.370523   -253.434650
 0.330000   240.176678   -275.464118
 0.335000   238.615882   -289.584927
 0.340000   237.280829   -214.158201
 0.345000   236.474300   -154.237100
 0.350000   235.738458   -141.994528
 0.355000   235.054355   -211.745091
 0.360000   233.621007   -185.602091
 0.365000   233.198334   -79.754825
 0.370000   232.823459   -70.802876
 0.375000   232.490305   -115.589654
 0.380000   231.667562   -132.478272
 0.385000   231.165522   -72.789308
 0.390000   230.939669   -45.085448
 0.395000   230.714668   -69.015484
 0.400000   230.249514   -107.554922
 0.405000   229.639118   -70.862381
 0.410000   229.540890   -19.553674
 0.415000   229.443582   -34.507682
 0.420000   229.195814   -102.582507
 0.425000   228.417757   -88.483716
 0.430000   228.310976   -23.660140
 0.435000   228.181155   -36.951041
 0.440000   227.941466   -124.951540
 0.445000   226.931640   -126.823751
 0.450000   226.673229   -54.049159
 0.455000   226.391148   -61.518424
 0.460000   226.058044   -164.287586
 0.465000   224.748272   -174.325509
 0.470000   224.314789   -90.081548
 0.475000   223.847457   -96.026042
 0.480000   223.354529   -196.783417
 0.485000   221.879623   -197.070462
 0.490000   221.383824   -97.747756
 0.495000   220.902145   -95.005963
 0.500000   220.433765   -184.079132
 0.505000   219.061354   -178.725776
 0.510000   218.646507   -76.443562
 0.515000   218.296918   -67.334543
 0.520000   217.973161   -148.712012
 0.525000   216.809798   -146.242854
 0.530000   216.510733   -48.783156
 0.535000   216.321967   -34.509825
 0.540000   216.165635   -102.634045
 0.545000   215.295626   -102.413927
 0.550000   215.141495   -16.659872
 0.555000   215.129027   -0.194226
 0.560000   215.139553   -53.036546
 0.565000   214.598662   -56.505488
 0.570000   214.574498   16.558992
 0.575000   214.764252   41.237835
 0.580000   214.986876   8.180037
 0.585000   214.846052   3.507675
 0.590000   215.021953   63.347270
 0.595000   215.479525   95.455125
 0.600000   215.976504   81.646933
 0.605000   216.295994   69.871530
 0.610000   216.675220   115.180662
 0.615000   217.447801   161.242320
 0.620000   218.287643   170.243170
 0.625000   219.150233   166.728331
 0.630000   219.954926   201.216559
 0.635000   221.162398   253.986914
 0.640000   222.494795   279.206538
 0.645000   223.954464   290.030851
 0.650000   225.395104   324.740410
 0.655000   227.201868   375.416604
 0.660000   229.149270   403.760180
 0.665000   231.239469   437.722558
 0.670000   233.526496   484.903035
 0.675000   236.088500   530.993444
 0.680000   238.836430   566.587711
 0.685000   241.754377   599.922826
 0.690000   244.835658   638.311961
 0.695000   248.137497   686.315043
 0.700000   251.698809   717.325219
 0.705000   255.310749   742.667752
 0.710000   259.125486   785.045618
 0.715000   263.161205   843.290359
 0.720000   267.558390   910.897757
 0.725000   272.270182   958.101905
 0.730000   277.139409   1009.769605
 0.735000   282.367879   1083.491356
 0.740000   287.974322   1180.102589
 0.745000   294.168904   1279.982746
 0.750000   300.774150   1335.186155
 0.755000   307.520766   1386.247366
 0.760000   314.636624   1460.558296
 0.765000   322.126349   1530.790422
 0.770000   329.944528   1643.932664
 0.775000   338.565676   1725.681078
 0.780000   347.201339   1771.509272
 0.785000   356.280768   1863.566427
 0.790000   365.837003   1959.797368
 0.795000   375.878742   2063.212648
 0.800000   386.469129   2181.249911
 0.805000   397.691241   2287.171645
 0.810000   409.340846   2395.035865
 0.815000   421.641600   2529.301598
 0.820000   434.633862   2669.278048
 0.825000   448.334380   2815.109393
 0.830000   462.784956   2958.245088
 0.835000   477.916831   3092.008590
 0.840000   493.705042   3252.671143
 0.845000   510.443543   3441.572945
 0.850000   528.120771   3637.092283
 0.855000   546.814465   3850.565012
 0.860000   566.626421   4104.962847
 0.865000   587.864094   4467.607282
 0.870000   611.302494   4919.646816
 0.875000   637.060562   5418.780979
 0.880000   665.490304   6048.820139
 0.885000   697.548763   6770.374057
 0.890000   733.194044   7545.657741
 0.895000   773.005341   8429.930192
 0.900000   817.493346   9450.831093
 0.905000   867.513652   10651.274968
 0.910000   924.006096   12031.785716
 0.915000   987.831509   13544.283895
 0.920000   1059.448935   15208.981069
 0.925000   1139.921320   17289.629791
 0.930000   1232.345233   20300.112504
 0.935000   1342.922445   24934.267127
 0.940000   1481.687904   31910.989911
 0.945000   1662.032344   41597.494699
 0.950000   1897.662851   53189.177588
 0.955000   2193.924120   63442.173143
 0.960000   2532.084582   69082.635802
 0.965000   2884.750478   68401.637378
 0.970000   3216.100956   59822.111070
 0.975000   3482.971588   42631.328861
 0.980000   3642.414245   24016.771842
 0.985000   3723.139307   13775.225622
 0.990000   3780.166501   34177.729881
 0.995000   4064.916606   518533.976248
 1.000000   8965.506264   1441701.886961
201 psinorm ommpp() dommpp/dpsiN
 0.000000   -16.527191   -22690.499538
 0.005000   -107.032243   -13511.521104
 0.010000   -151.642402   -8087.263408
 0.015000   -187.904877   -6688.494999
 0.020000   -218.527352   -5643.516718
 0.025000   -244.340044   -4819.232193
 0.030000   -266.719674   -4221.432618
 0.035000   -286.554370   -3683.262984
 0.040000   -303.552304   -3136.901928
 0.045000   -317.923389   -2709.603850
 0.050000   -330.648342   -2424.573135
 0.055000   -342.169121   -2079.282996
 0.060000   -351.441172   -1721.439320
 0.065000   -359.383514   -1463.958798
 0.070000   -366.080760   -1178.520363
 0.075000   -371.168718   -923.614937
 0.080000   -375.316910   -748.002697
 0.085000   -378.648745   -581.410318
 0.090000   -381.131013   -448.945547
 0.095000   -383.138200   -328.281328
 0.100000   -384.413826   -181.139276
 0.105000   -384.949593   16.397393
 0.110000   -384.249852   172.269547
 0.115000   -383.226897   266.408596
 0.120000   -381.585766   391.373924
 0.125000   -379.313158   512.992031
 0.130000   -376.455846   622.071308
 0.135000   -373.092445   725.129106
 0.140000   -369.204555   821.794444
 0.145000   -364.874501   903.364132
 0.150000   -360.170914   979.026571
 0.155000   -355.084235   1044.706673
 0.160000   -349.723847   1096.157163
 0.165000   -344.122663   1140.976011
 0.170000   -338.314087   1176.886220
 0.175000   -332.353801   1219.607960
 0.180000   -326.118007   1250.980722
 0.185000   -319.843994   1247.294495
 0.190000   -313.645062   1238.297674
 0.195000   -307.461017   1234.155589
 0.200000   -301.303506   1225.290144
 0.205000   -295.208116   1211.943893
 0.210000   -289.184067   1191.946192
 0.215000   -283.288654   1300.899693
 0.220000   -276.175070   1273.119014
 0.225000   -270.557464   1085.628748
 0.230000   -265.318783   1042.236054
 0.235000   -260.135103   1021.828895
 0.240000   -255.100494   986.134507
 0.245000   -250.273758   945.676445
 0.250000   -245.643730   995.763666
 0.255000   -240.316121   1009.827410
 0.260000   -235.545456   852.581274
 0.265000   -231.790309   727.806849
 0.270000   -228.267387   694.061423
 0.275000   -224.849694   675.340246
 0.280000   -221.513985   719.077942
 0.285000   -217.658915   686.433419
 0.290000   -214.649650   530.165683
 0.295000   -212.357258   441.068437
 0.300000   -210.238966   406.918878
 0.305000   -208.288069   427.597142
 0.310000   -205.962995   453.768437
 0.315000   -203.750385   353.026432
 0.320000   -202.432730   249.722117
 0.325000   -201.253164   220.756200
 0.330000   -200.225168   241.669862
 0.335000   -198.836465   254.290731
 0.340000   -197.682261   177.092288
 0.345000   -197.065542   115.413912
 0.350000   -196.528122   101.695796
 0.355000   -196.048584   170.449305
 0.360000   -194.823629   143.478582
 0.365000   -194.613799   36.298729
 0.370000   -194.460642   25.891398
 0.375000   -194.354885   69.563906
 0.380000   -193.765002   85.514587
 0.385000   -193.499739   24.833453
 0.390000   -193.516668   -4.338193
 0.395000   -193.543121   18.252554
 0.400000   -193.334142   55.860969
 0.405000   -192.984511   18.362777
 0.410000   -193.150515   -33.534584
 0.415000   -193.319857   -18.912726
 0.420000   -193.339642   49.003716
 0.425000   -192.829820   34.596383
 0.430000   -192.993678   -31.128196
 0.435000   -193.141102   -19.656420
 0.440000   -193.190242   65.298963
 0.445000   -192.488112   63.286310
 0.450000   -192.557379   -13.585250
 0.455000   -192.623964   -10.639308
 0.460000   -192.663772   87.650168
 0.465000   -191.747463   93.725262
 0.470000   -191.726520   6.209384
 0.475000   -191.685369   10.326224
 0.480000   -191.623257   110.749074
 0.485000   -190.577878   112.334964
 0.490000   -190.499908   16.025909
 0.495000   -190.417619   17.669322
 0.500000   -190.323215   112.497340
 0.505000   -189.292646   113.559263
 0.510000   -189.187622   17.731902
 0.515000   -189.115327   14.879428
 0.520000   -189.038828   102.060496
 0.525000   -188.094722   105.004493
 0.530000   -187.988783   11.994483
 0.535000   -187.974777   0.858057
 0.540000   -187.980202   71.400285
 0.545000   -187.260774   72.809068
 0.550000   -187.252111   -12.207942
 0.555000   -187.382853   -28.450426
 0.560000   -187.536616   24.274270
 0.565000   -187.140111   27.424896
 0.570000   -187.262367   -45.782706
 0.575000   -187.597938   -70.644917
 0.580000   -187.968816   -38.155240
 0.585000   -187.979490   -34.012369
 0.590000   -188.308940   -94.138817
 0.595000   -188.920878   -126.430048
 0.600000   -189.573240   -113.070290
 0.605000   -190.051581   -102.210285
 0.610000   -190.595343   -148.843101
 0.615000   -191.540012   -196.688368
 0.620000   -192.562227   -208.068697
 0.625000   -193.620699   -207.392801
 0.630000   -194.636155   -245.050998
 0.635000   -196.071209   -301.553964
 0.640000   -197.651694   -331.094704
 0.645000   -199.382156   -346.571756
 0.650000   -201.117412   -385.987619
 0.655000   -203.242032   -441.206986
 0.660000   -205.529482   -473.920334
 0.665000   -207.981236   -512.044378
 0.670000   -210.649925   -562.809571
 0.675000   -213.609332   -611.922427
 0.680000   -216.769150   -650.103801
 0.685000   -220.110370   -685.578614
 0.690000   -223.624936   -725.910369
 0.695000   -227.369473   -775.916491
 0.700000   -231.384101   -808.633775
 0.705000   -235.455811   -835.678818
 0.710000   -239.740889   -880.389251
 0.715000   -244.259703   -941.382699
 0.720000   -249.154716   -1012.084211
 0.725000   -254.380546   -1063.484556
 0.730000   -259.789561   -1117.385476
 0.735000   -265.554400   -1191.492021
 0.740000   -271.704482   -1289.260721
 0.745000   -278.447008   -1389.512316
 0.750000   -285.599605   -1443.997506
 0.755000   -292.886983   -1493.608751
 0.760000   -300.535692   -1564.191342
 0.765000   -308.528896   -1629.140572
 0.770000   -316.827098   -1737.275010
 0.775000   -325.901646   -1813.576910
 0.780000   -334.962867   -1853.805238
 0.785000   -344.439699   -1939.450733
 0.790000   -354.357375   -2030.145146
 0.795000   -364.741150   -2129.892034
 0.800000   -375.656295   -2244.932607
 0.805000   -387.190476   -2348.907857
 0.810000   -399.145373   -2455.886793
 0.815000   -411.749344   -2589.639425
 0.820000   -425.041768   -2731.254177
 0.825000   -439.061886   -2880.592638
 0.830000   -453.847694   -3026.794909
 0.835000   -469.329835   -3163.589058
 0.840000   -485.483585   -3327.008262
 0.845000   -502.599917   -3518.151325
 0.850000   -520.665098   -3715.666860
 0.855000   -539.756586   -3931.609835
 0.860000   -559.981196   -4189.727390
 0.865000   -581.653860   -4557.955702
 0.870000   -605.560753   -5017.907118
 0.875000   -631.832931   -5528.823457
 0.880000   -660.848988   -6173.824619
 0.885000   -693.571177   -6910.678077
 0.890000   -729.955769   -7702.811493
 0.895000   -770.599292   -8607.295757
 0.900000   -816.028726   -9649.811697
 0.905000   -867.097409   -10874.280305
 0.910000   -924.771529   -12280.089025
 0.915000   -989.898299   -13810.968685
 0.920000   -1062.881216   -15487.974858
 0.925000   -1144.778048   -17576.351770
 0.930000   -1238.644734   -20585.180344
 0.935000   -1350.629851   -25210.524838
 0.940000   -1490.749982   -32170.233116
 0.945000   -1672.332183   -41820.622481
 0.950000   -1908.956207   -53373.699498
 0.955000   -2206.069178   -63609.162430
 0.960000   -2545.047831   -69261.423167
 0.965000   -2898.683409   -68637.437513
 0.970000   -3231.422206   -60153.488730
 0.975000   -3500.218297   -43018.447098
 0.980000   -3661.606677   -24309.964208
 0.985000   -3743.317939   -13711.287931
 0.990000   -3798.719557   -33471.165608
 0.995000   -4078.029595   -517169.099548
 1.000000   -8970.410552   -1439783.283402
201 psinorm omevb() domevb/dpsiN
 0.000000   22.778238   111.686697
 0.005000   23.183041   50.234606
 0.010000   23.280584   15.475321
 0.015000   23.337794   9.059963
 0.020000   23.371183   4.395502
 0.025000   23.381749   -0.528658
 0.030000   23.365897   -6.251773
 0.035000   23.319231   -11.898262
 0.040000   23.246914   -17.100224
 0.045000   23.148229   -22.166257
 0.050000   23.025252   -26.548778
 0.055000   22.882741   -29.846915
 0.060000   22.726782   -31.978942
 0.065000   22.562952   -33.110791
 0.070000   22.395675   -33.398956
 0.075000   22.228962   -33.105196
 0.080000   22.064623   -32.354710
 0.085000   21.905415   -30.945368
 0.090000   21.755169   -29.707316
 0.095000   21.608342   -28.626365
 0.100000   21.468905   -27.036134
 0.105000   21.337981   -25.114333
 0.110000   21.217762   -22.704837
 0.115000   21.110932   -19.423046
 0.120000   21.023531   -16.623607
 0.125000   20.944696   -14.380578
 0.130000   20.879726   -11.672133
 0.135000   20.827975   -9.144571
 0.140000   20.788280   -6.884747
 0.145000   20.759128   -4.493447
 0.150000   20.743346   -3.217214
 0.155000   20.726955   -2.804741
 0.160000   20.715298   -1.998307
 0.165000   20.706972   -1.326650
 0.170000   20.702032   -0.682457
 0.175000   20.700148   0.109866
 0.180000   20.703130   0.716038
 0.185000   20.707308   1.266987
 0.190000   20.715800   2.152917
 0.195000   20.728837   3.117559
 0.200000   20.746976   4.252047
 0.205000   20.771358   5.939665
 0.210000   20.806372   7.792649
 0.215000   20.849284   9.181649
 0.220000   20.898189   10.187853
 0.225000   20.951163   10.764535
 0.230000   21.005834   10.612550
 0.235000   21.057288   9.680908
 0.240000   21.102643   7.726472
 0.245000   21.134553   5.274456
 0.250000   21.155388   3.418300
 0.255000   21.168736   1.930811
 0.260000   21.174696   0.722893
 0.265000   21.175965   -0.311291
 0.270000   21.171583   -0.886895
 0.275000   21.167096   -0.668081
 0.280000   21.164902   -0.274220
 0.285000   21.164354   0.143590
 0.290000   21.166338   0.687358
 0.295000   21.171227   1.152229
 0.300000   21.177860   1.409054
 0.305000   21.185318   1.387302
 0.310000   21.191733   0.965713
 0.315000   21.194975   0.238434
 0.320000   21.194118   -0.630538
 0.325000   21.188670   -1.697760
 0.330000   21.177140   -3.046220
 0.335000   21.158208   -4.777238
 0.340000   21.129368   -6.778467
 0.345000   21.090423   -8.763694
 0.350000   21.041731   -10.465640
 0.355000   20.985766   -11.687559
 0.360000   20.924855   -12.738614
 0.365000   20.858380   -14.293011
 0.370000   20.781925   -15.968692
 0.375000   20.698693   -17.301757
 0.380000   20.608908   -18.456995
 0.385000   20.514123   -19.664979
 0.390000   20.412258   -21.347103
 0.395000   20.300652   -22.899261
 0.400000   20.183265   -24.041695
 0.405000   20.060235   -25.057305
 0.410000   19.932692   -25.854477
 0.415000   19.801691   -26.393711
 0.420000   19.668755   -26.757753
 0.425000   19.534113   -27.270540
 0.430000   19.396050   -28.374379
 0.435000   19.250369   -30.394941
 0.440000   19.092100   -33.640103
 0.445000   18.913968   -37.723632
 0.450000   18.714864   -42.017890
 0.455000   18.493789   -46.737138
 0.460000   18.247493   -51.411391
 0.465000   17.979676   -55.567439
 0.470000   17.691818   -59.031232
 0.475000   17.389363   -61.049432
 0.480000   17.081324   -61.573177
 0.485000   16.773631   -60.462235
 0.490000   16.476701   -57.635180
 0.495000   16.197280   -53.435268
 0.500000   15.942349   -47.864420
 0.505000   15.718635   -41.631857
 0.510000   15.526030   -35.358444
 0.515000   15.365051   -29.282070
 0.520000   15.233210   -23.657379
 0.525000   15.128477   -18.421879
 0.530000   15.048991   -14.148599
 0.535000   14.986991   -11.186864
 0.540000   14.937122   -8.942793
 0.545000   14.897563   -7.486605
 0.550000   14.862256   -6.921057
 0.555000   14.828353   -6.868181
 0.560000   14.793574   -7.154887
 0.565000   14.756804   -7.641090
 0.570000   14.717163   -7.950907
 0.575000   14.677295   -8.299786
 0.580000   14.634165   -9.032239
 0.585000   14.586972   -9.724889
 0.590000   14.536917   -10.173732
 0.595000   14.485235   -10.517932
 0.600000   14.431737   -11.126028
 0.605000   14.373975   -12.199926
 0.610000   14.309738   -13.680951
 0.615000   14.237165   -15.620739
 0.620000   14.153531   -18.155229
 0.625000   14.055613   -21.148010
 0.630000   13.942051   -24.470634
 0.635000   13.810907   -28.354700
 0.640000   13.658504   -32.826052
 0.645000   13.482646   -37.627777
 0.650000   13.282226   -42.481781
 0.655000   13.057828   -47.171318
 0.660000   12.810513   -51.686054
 0.665000   12.540968   -55.991203
 0.670000   12.250601   -59.717815
 0.675000   11.943790   -62.880435
 0.680000   11.621796   -65.605824
 0.685000   11.287731   -67.881697
 0.690000   10.942979   -69.958111
 0.695000   10.588150   -72.092222
 0.700000   10.222057   -73.927242
 0.705000   9.848878   -75.753965
 0.710000   9.464517   -78.206358
 0.715000   9.066814   -81.069654
 0.720000   8.653821   -84.272046
 0.725000   8.224094   -88.568874
 0.730000   7.768132   -90.893411
 0.735000   7.315160   -91.358129
 0.740000   6.854551   -92.581548
 0.745000   6.389344   -93.001757
 0.750000   5.924533   -92.311164
 0.755000   5.466233   -90.862776
 0.760000   5.015905   -87.103929
 0.765000   4.595193   -81.751015
 0.770000   4.198395   -76.624601
 0.775000   3.828947   -70.999798
 0.780000   3.488397   -65.148505
 0.785000   3.177462   -58.396021
 0.790000   2.904437   -52.409753
 0.795000   2.653365   -48.159447
 0.800000   2.422843   -44.421220
 0.805000   2.209153   -41.541540
 0.810000   2.007427   -39.494579
 0.815000   1.814207   -37.549811
 0.820000   1.631929   -37.440940
 0.825000   1.439797   -38.837413
 0.830000   1.243555   -39.382476
 0.835000   1.045973   -39.439106
 0.840000   0.849164   -38.741938
 0.845000   0.658553   -37.050192
 0.850000   0.478662   -34.683707
 0.855000   0.311716   -32.491869
 0.860000   0.153743   -31.508721
 0.865000   -0.003371   -32.805989
 0.870000   -0.174317   -37.604789
 0.875000   -0.379419   -48.650493
 0.880000   -0.660821   -67.105793
 0.885000   -1.050477   -92.910995
 0.890000   -1.589931   -131.358888
 0.895000   -2.364066   -190.096618
 0.900000   -3.490898   -275.269114
 0.905000   -5.116757   -398.716184
 0.910000   -7.478059   -573.022892
 0.915000   -10.846986   -805.977994
 0.920000   -15.537839   -1114.417177
 0.925000   -21.991158   -1510.810816
 0.930000   -30.645948   -1987.263668
 0.935000   -41.863794   -2515.234887
 0.940000   -55.798296   -3018.925504
 0.945000   -72.053049   -3356.106044
 0.950000   -89.359357   -3359.763070
 0.955000   -105.650680   -2858.636937
 0.960000   -117.945726   -1750.182680
 0.965000   -123.152507   -155.576727
 0.970000   -119.501493   1537.793776
 0.975000   -107.774569   2852.657984
 0.980000   -90.974914   3502.199027
 0.985000   -72.752579   3608.613739
 0.990000   -54.888776   3532.061986
 0.995000   -37.431959   3383.217924
 1.000000   -21.056597   3166.926839
201 psinorm omepp() domepp/dpsiN
 0.000000   31.808346   -33.545661
 0.005000   31.614140   -44.136881
 0.010000   31.366977   -49.255556
 0.015000   31.121584   -48.902818
 0.020000   30.877949   -48.552336
 0.025000   30.636061   -48.204098
 0.030000   30.395908   -47.858092
 0.035000   30.157480   -47.514305
 0.040000   29.920765   -47.172726
 0.045000   29.685752   -46.833342
 0.050000   29.452431   -46.496141
 0.055000   29.220791   -46.161112
 0.060000   28.990820   -45.828241
 0.065000   28.762509   -45.497519
 0.070000   28.535845   -45.168931
 0.075000   28.310819   -44.842468
 0.080000   28.087420   -44.518117
 0.085000   27.865638   -44.195865
 0.090000   27.645462   -43.875703
 0.095000   27.426881   -43.557617
 0.100000   27.209886   -43.241597
 0.105000   26.994465   -42.927631
 0.110000   26.780609   -42.615708
 0.115000   26.568308   -42.305816
 0.120000   26.357551   -41.997943
 0.125000   26.148329   -41.692079
 0.130000   25.940630   -41.388213
 0.135000   25.734446   -41.086332
 0.140000   25.529767   -40.786426
 0.145000   25.326582   -40.488484
 0.150000   25.124882   -40.192495
 0.155000   24.924657   -39.898447
 0.160000   24.725898   -39.606330
 0.165000   24.528594   -39.316133
 0.170000   24.332736   -39.027845
 0.175000   24.138316   -38.741455
 0.180000   23.945322   -38.456953
 0.185000   23.753746   -38.174327
 0.190000   23.563579   -37.893567
 0.195000   23.374810   -37.614663
 0.200000   23.187432   -37.337603
 0.205000   23.001434   -37.062378
 0.210000   22.816808   -36.788976
 0.215000   22.633545   -36.517388
 0.220000   22.451634   -36.247602
 0.225000   22.271069   -35.979610
 0.230000   22.091838   -35.713399
 0.235000   21.913935   -35.448961
 0.240000   21.737349   -35.186284
 0.245000   21.562072   -34.925360
 0.250000   21.388095   -34.666177
 0.255000   21.215410   -34.408725
 0.260000   21.044008   -34.152995
 0.265000   20.873880   -33.898977
 0.270000   20.705018   -33.646660
 0.275000   20.537413   -33.396035
 0.280000   20.371058   -33.147092
 0.285000   20.205942   -32.899821
 0.290000   20.042059   -32.654212
 0.295000   19.879400   -32.410256
 0.300000   19.717957   -32.167943
 0.305000   19.557721   -31.927264
 0.310000   19.398684   -31.688208
 0.315000   19.240839   -31.450767
 0.320000   19.084177   -31.214931
 0.325000   18.928690   -30.980690
 0.330000   18.774370   -30.748035
 0.335000   18.621209   -30.516958
 0.340000   18.469200   -30.287447
 0.345000   18.318335   -30.059495
 0.350000   18.168605   -29.833091
 0.355000   18.020004   -29.608228
 0.360000   17.872523   -29.384895
 0.365000   17.726155   -29.163084
 0.370000   17.580892   -28.942786
 0.375000   17.436727   -28.723991
 0.380000   17.293652   -28.506690
 0.385000   17.151660   -28.290876
 0.390000   17.010743   -28.076538
 0.395000   16.870895   -27.863669
 0.400000   16.732107   -27.652259
 0.405000   16.594372   -27.442299
 0.410000   16.457684   -27.233781
 0.415000   16.322034   -27.026697
 0.420000   16.187417   -26.821037
 0.425000   16.053824   -26.616793
 0.430000   15.921249   -26.413957
 0.435000   15.789684   -26.212520
 0.440000   15.659124   -26.012474
 0.445000   15.529560   -25.813809
 0.450000   15.400985   -25.616519
 0.455000   15.273394   -25.420594
 0.460000   15.146780   -25.226027
 0.465000   15.021134   -25.032808
 0.470000   14.896451   -24.840931
 0.475000   14.772725   -24.650386
 0.480000   14.649948   -24.461166
 0.485000   14.528113   -24.273262
 0.490000   14.407215   -24.086667
 0.495000   14.287246   -23.901373
 0.500000   14.168201   -23.717372
 0.505000   14.050073   -23.534655
 0.510000   13.932855   -23.353215
 0.515000   13.816541   -23.173045
 0.520000   13.701124   -22.994137
 0.525000   13.586599   -22.816482
 0.530000   13.472959   -22.640074
 0.535000   13.360199   -22.464904
 0.540000   13.248310   -22.290967
 0.545000   13.137289   -22.118253
 0.550000   13.027128   -21.946757
 0.555000   12.917821   -21.776471
 0.560000   12.809363   -21.607389
 0.565000   12.701747   -21.439503
 0.570000   12.594968   -21.272807
 0.575000   12.489019   -21.107296
 0.580000   12.383895   -20.942964
 0.585000   12.279590   -20.779805
 0.590000   12.176097   -20.617816
 0.595000   12.073412   -20.456991
 0.600000   11.971527   -20.297329
 0.605000   11.870438   -20.138828
 0.610000   11.770139   -19.981488
 0.615000   11.670623   -19.825310
 0.620000   11.571886   -19.670298
 0.625000   11.473920   -19.516460
 0.630000   11.376721   -19.363805
 0.635000   11.280282   -19.212350
 0.640000   11.184598   -19.062115
 0.645000   11.089661   -18.913128
 0.650000   10.995466   -18.765428
 0.655000   10.902007   -18.619064
 0.660000   10.809276   -18.474100
 0.665000   10.717266   -18.330617
 0.670000   10.625970   -18.188722
 0.675000   10.535379   -18.048548
 0.680000   10.445484   -17.910266
 0.685000   10.356276   -17.774091
 0.690000   10.267743   -17.640297
 0.695000   10.179873   -17.509227
 0.700000   10.092651   -17.381314
 0.705000   10.006060   -17.257102
 0.710000   9.920080   -17.137275
 0.715000   9.834687   -17.022686
 0.720000   9.749853   -16.914408
 0.725000   9.665543   -16.813777
 0.730000   9.581715   -16.722460
 0.735000   9.498318   -16.642535
 0.740000   9.415290   -16.576585
 0.745000   9.332553   -16.527813
 0.750000   9.250012   -16.500187
 0.755000   9.167551   -16.498608
 0.760000   9.085026   -16.529117
 0.765000   9.002260   -16.599134
 0.770000   8.919034   -16.717745
 0.775000   8.835082   -16.896034
 0.780000   8.750074   -17.147461
 0.785000   8.663608   -17.488285
 0.790000   8.575191   -17.938026
 0.795000   8.484227   -18.519939
 0.800000   8.389992   -19.261476
 0.805000   8.291613   -20.194672
 0.810000   8.188045   -21.356350
 0.815000   8.078049   -22.788016
 0.820000   7.960165   -24.535189
 0.825000   7.832697   -26.645831
 0.830000   7.693707   -29.167346
 0.835000   7.541024   -32.141362
 0.840000   7.372293   -35.595180
 0.845000   7.185072   -39.528188
 0.850000   6.977011   -43.890871
 0.855000   6.746163   -48.552954
 0.860000   6.491482   -53.255822
 0.865000   6.213605   -57.542432
 0.870000   5.916057   -60.655513
 0.875000   5.607050   -61.391985
 0.880000   5.302137   -57.898687
 0.885000   5.028063   -47.393025
 0.890000   4.828207   -25.794864
 0.895000   4.770114   12.731053
 0.900000   4.955518   76.288509
 0.905000   5.532999   175.710847
 0.910000   6.712626   324.719583
 0.915000   8.780195   539.293204
 0.920000   12.105558   835.423387
 0.925000   17.134429   1224.088837
 0.930000   24.346447   1702.195828
 0.935000   34.156387   2238.977176
 0.940000   46.736218   2759.682298
 0.945000   61.753210   3132.978262
 0.950000   78.066001   3175.241160
 0.955000   93.505622   2691.647650
 0.960000   104.982477   1571.395314
 0.965000   109.219575   -80.223408
 0.970000   104.180243   -1869.171435
 0.975000   90.527861   -3239.776220
 0.980000   71.782481   -3795.391392
 0.985000   52.573947   -3544.676048
 0.990000   36.335721   -2825.497713
 0.995000   24.318970   -2018.341225
 1.000000   16.152308   -1248.323280
201 psinorm kpol(km/s/T) dkpol/dpsiN
 0.000000   0.047676   131.795251
 0.005000   0.587030   83.946498
 0.010000   0.887141   57.504574
 0.015000   1.162076   54.026646
 0.020000   1.427407   52.113169
 0.025000   1.683208   49.772184
 0.030000   1.925129   46.410062
 0.035000   2.147308   42.910003
 0.040000   2.354229   39.701976
 0.045000   2.544328   36.461344
 0.050000   2.718843   33.766495
 0.055000   2.881993   31.870772
 0.060000   3.037550   30.624298
 0.065000   3.188236   29.908701
 0.070000   3.336637   29.613880
 0.075000   3.484375   29.460129
 0.080000   3.631239   29.290429
 0.085000   3.777279   29.209403
 0.090000   3.923333   28.987359
 0.095000   4.067153   28.543685
 0.100000   4.208770   27.900444
 0.105000   4.346157   27.043045
 0.110000   4.479200   26.084919
 0.115000   4.607006   24.940230
 0.120000   4.728602   23.794944
 0.125000   4.844956   22.826588
 0.130000   4.956868   21.987395
 0.135000   5.064830   21.262487
 0.140000   5.169493   20.666310
 0.145000   5.271493   20.115733
 0.150000   5.370650   19.448072
 0.155000   5.465974   18.619024
 0.160000   5.556841   17.566548
 0.165000   5.641639   16.313687
 0.170000   5.719978   14.874590
 0.175000   5.790385   13.306876
 0.180000   5.853046   11.632522
 0.185000   5.906710   9.895859
 0.190000   5.952005   8.134470
 0.195000   5.988055   6.256843
 0.200000   6.014573   4.453134
 0.205000   6.032586   2.587576
 0.210000   6.040449   0.841226
 0.215000   6.040998   -0.689371
 0.220000   6.033555   -2.229907
 0.225000   6.018699   -3.630636
 0.230000   5.997249   -5.056888
 0.235000   5.968131   -6.585798
 0.240000   5.931391   -8.245850
 0.245000   5.885672   -10.211772
 0.250000   5.829273   -12.224190
 0.255000   5.763430   -14.430329
 0.260000   5.684970   -16.872150
 0.265000   5.594709   -19.151781
 0.270000   5.493452   -21.435249
 0.275000   5.380356   -23.650475
 0.280000   5.256947   -25.599042
 0.285000   5.124366   -27.460357
 0.290000   4.982344   -29.161495
 0.295000   4.832751   -30.700124
 0.300000   4.675343   -32.319025
 0.305000   4.509560   -33.884328
 0.310000   4.336499   -35.439873
 0.315000   4.155162   -37.186836
 0.320000   3.964631   -38.975943
 0.325000   3.765402   -40.924778
 0.330000   3.555383   -43.154199
 0.335000   3.333860   -45.326515
 0.340000   3.102118   -47.368518
 0.345000   2.860175   -49.226726
 0.350000   2.609851   -50.548558
 0.355000   2.354690   -51.310769
 0.360000   2.096743   -51.696178
 0.365000   1.837728   -51.730684
 0.370000   1.579436   -51.506574
 0.375000   1.322662   -51.186373
 0.380000   1.067573   -50.734332
 0.385000   0.815319   -50.467917
 0.390000   0.562893   -50.654296
 0.395000   0.308776   -51.130371
 0.400000   0.051590   -51.923432
 0.405000   -0.210459   -52.958067
 0.410000   -0.477991   -54.082308
 0.415000   -0.751282   -55.106272
 0.420000   -1.029054   -56.082493
 0.425000   -1.312107   -57.427368
 0.430000   -1.603327   -59.468957
 0.435000   -1.906796   -62.559241
 0.440000   -2.228920   -67.203981
 0.445000   -2.578836   -72.765623
 0.450000   -2.956576   -78.421187
 0.455000   -3.363048   -84.157908
 0.460000   -3.798155   -89.674128
 0.465000   -4.259789   -94.793551
 0.470000   -4.746091   -98.993915
 0.475000   -5.249728   -101.267450
 0.480000   -5.758765   -101.505911
 0.485000   -6.264787   -99.916402
 0.490000   -6.757929   -96.404697
 0.495000   -7.228834   -90.996856
 0.500000   -7.667898   -83.702449
 0.505000   -8.065859   -75.524940
 0.510000   -8.423147   -67.428437
 0.515000   -8.740143   -59.577950
 0.520000   -9.018927   -52.159791
 0.525000   -9.261741   -45.198355
 0.530000   -9.470910   -39.528245
 0.535000   -9.657024   -35.640608
 0.540000   -9.827316   -32.974094
 0.545000   -9.986764   -31.354204
 0.550000   -10.140858   -30.596480
 0.555000   -10.292729   -30.483966
 0.560000   -10.445698   -30.742389
 0.565000   -10.600153   -31.009486
 0.570000   -10.755793   -30.930496
 0.575000   -10.909458   -30.300793
 0.580000   -11.058801   -29.198115
 0.585000   -11.201439   -27.558297
 0.590000   -11.334384   -25.044798
 0.595000   -11.451887   -21.632896
 0.600000   -11.550713   -17.850114
 0.605000   -11.630388   -13.809572
 0.610000   -11.688808   -9.597836
 0.615000   -11.726367   -5.624588
 0.620000   -11.745054   -2.099170
 0.625000   -11.747358   0.911676
 0.630000   -11.735938   3.367032
 0.635000   -11.713688   5.182864
 0.640000   -11.684109   6.476904
 0.645000   -11.648919   7.415576
 0.650000   -11.609953   8.076387
 0.655000   -11.568155   8.648016
 0.660000   -11.523473   9.215695
 0.665000   -11.475998   9.809674
 0.670000   -11.425376   10.369252
 0.675000   -11.372306   10.892512
 0.680000   -11.316451   11.476042
 0.685000   -11.257545   12.195622
 0.690000   -11.194495   13.131673
 0.695000   -11.126229   14.388718
 0.700000   -11.050608   16.148728
 0.705000   -10.964741   18.289876
 0.710000   -10.867709   20.448548
 0.715000   -10.760256   22.393564
 0.720000   -10.643773   23.917714
 0.725000   -10.521079   24.763885
 0.730000   -10.396134   24.781662
 0.735000   -10.273262   23.638996
 0.740000   -10.159744   21.192760
 0.745000   -10.061334   17.690569
 0.750000   -9.982839   13.491843
 0.755000   -9.926416   8.980575
 0.760000   -9.893033   4.449411
 0.765000   -9.881922   0.400716
 0.770000   -9.889026   -2.866985
 0.775000   -9.910592   -5.377833
 0.780000   -9.942804   -7.241512
 0.785000   -9.983007   -8.640261
 0.790000   -10.029207   -10.038371
 0.795000   -10.083391   -12.143019
 0.800000   -10.150637   -15.235137
 0.805000   -10.235742   -19.303149
 0.810000   -10.343668   -24.381257
 0.815000   -10.479555   -30.463889
 0.820000   -10.648307   -37.440811
 0.825000   -10.853963   -44.189332
 0.830000   -11.090201   -49.625686
 0.835000   -11.350220   -53.464357
 0.840000   -11.624844   -55.078270
 0.845000   -11.901002   -54.099455
 0.850000   -12.165839   -50.703871
 0.855000   -12.408041   -45.092519
 0.860000   -12.616764   -37.402472
 0.865000   -12.782066   -27.846538
 0.870000   -12.895229   -16.931042
 0.875000   -12.951376   -4.899265
 0.880000   -12.944222   8.111304
 0.885000   -12.870263   21.590697
 0.890000   -12.728315   35.162374
 0.895000   -12.518639   48.585742
 0.900000   -12.242458   61.537412
 0.905000   -11.903265   73.595893
 0.910000   -11.506499   83.702588
 0.915000   -11.066239   90.579805
 0.920000   -10.600701   94.214348
 0.925000   -10.124096   96.318904
 0.930000   -9.637512   97.097759
 0.935000   -9.153118   97.583259
 0.940000   -8.661679   101.619698
 0.945000   -8.136921   109.267672
 0.950000   -7.569002   113.651357
 0.955000   -7.000408   105.033734
 0.960000   -6.518665   70.864519
 0.965000   -6.291763   -5.625253
 0.970000   -6.574918   -121.982030
 0.975000   -7.511583   -208.309567
 0.980000   -8.658013   -101.989274
 0.985000   -8.531476   389.746191
 0.990000   -4.760551   1277.642910
 0.995000   4.244954   2123.718183
 1.000000   16.476631   2768.952624
201 psinorm omghb() domghb/dpsiN
 0.000000   -0.000043   0.152918
 0.005000   0.000622   0.113303
 0.010000   0.001090   0.133355
 0.015000   0.001956   0.189285
 0.020000   0.002983   0.219568
 0.025000   0.004152   0.250252
 0.030000   0.005485   0.294387
 0.035000   0.007095   0.338667
 0.040000   0.008872   0.372149
 0.045000   0.010817   0.390153
 0.050000   0.012773   0.385456
 0.055000   0.014671   0.368567
 0.060000   0.016459   0.339596
 0.065000   0.018067   0.300219
 0.070000   0.019461   0.264557
 0.075000   0.020713   0.241309
 0.080000   0.021874   0.216610
 0.085000   0.022879   0.188406
 0.090000   0.023758   0.168484
 0.095000   0.024564   0.123970
 0.100000   0.024998   0.095666
 0.105000   0.025521   0.086964
 0.110000   0.025868   0.024745
 0.115000   0.025768   -0.024456
 0.120000   0.025623   -0.055584
 0.125000   0.025212   -0.127223
 0.130000   0.024351   -0.116279
 0.135000   0.024049   -0.014688
 0.140000   0.024204   -0.021163
 0.145000   0.023838   -0.051378
 0.150000   0.023690   -0.029950
 0.155000   0.023538   0.002995
 0.160000   0.023720   0.047887
 0.165000   0.024017   0.059371
 0.170000   0.024314   0.037084
 0.175000   0.024388   0.005627
 0.180000   0.024370   0.008690
 0.185000   0.024475   -0.019230
 0.190000   0.024178   -0.056435
 0.195000   0.023911   -0.066676
 0.200000   0.023511   -0.099983
 0.205000   0.022911   -0.150718
 0.210000   0.022004   -0.192028
 0.215000   0.020990   -0.213582
 0.220000   0.019868   -0.183248
 0.225000   0.019158   0.080358
 0.230000   0.020672   0.260085
 0.235000   0.021759   0.237669
 0.240000   0.023048   0.316662
 0.245000   0.024925   0.415224
 0.250000   0.027201   0.486475
 0.255000   0.029790   0.322619
 0.260000   0.030427   0.136881
 0.265000   0.031159   0.137569
 0.270000   0.031803   0.107531
 0.275000   0.032234   0.045604
 0.280000   0.032259   0.048001
 0.285000   0.032714   -0.062556
 0.290000   0.031633   -0.143805
 0.295000   0.031276   -0.042912
 0.300000   0.031204   0.020388
 0.305000   0.031480   0.096993
 0.310000   0.032174   0.178800
 0.315000   0.033268   0.188166
 0.320000   0.034055   0.213269
 0.325000   0.035401   0.321762
 0.330000   0.037273   0.416081
 0.335000   0.039562   0.469427
 0.340000   0.041967   0.404545
 0.345000   0.043607   0.416826
 0.350000   0.046136   0.463565
 0.355000   0.048243   0.403153
 0.360000   0.050167   0.369298
 0.365000   0.051936   0.331772
 0.370000   0.053485   0.336165
 0.375000   0.055297   0.420852
 0.380000   0.057693   0.421253
 0.385000   0.059510   0.370345
 0.390000   0.061397   0.391833
 0.395000   0.063428   0.421857
 0.400000   0.065615   0.441948
 0.405000   0.067848   0.293667
 0.410000   0.068552   0.132144
 0.415000   0.069169   0.138293
 0.420000   0.069935   0.187938
 0.425000   0.071049   0.328589
 0.430000   0.073221   0.497764
 0.435000   0.076026   0.684493
 0.440000   0.080066   0.973808
 0.445000   0.085764   1.211407
 0.450000   0.092180   1.432936
 0.455000   0.100094   1.479949
 0.460000   0.106979   1.293484
 0.465000   0.113028   1.102873
 0.470000   0.118008   0.826451
 0.475000   0.121293   0.481743
 0.480000   0.122826   0.047144
 0.485000   0.121764   -0.497661
 0.490000   0.117849   -0.972699
 0.495000   0.112037   -1.315202
 0.500000   0.104697   -1.582674
 0.505000   0.096211   -1.754515
 0.510000   0.087152   -1.912040
 0.515000   0.077090   -1.832344
 0.520000   0.068828   -1.565658
 0.525000   0.061434   -1.361081
 0.530000   0.055218   -1.055551
 0.535000   0.050878   -0.791233
 0.540000   0.047305   -0.551365
 0.545000   0.045364   -0.264445
 0.550000   0.044661   -0.123504
 0.555000   0.044129   -0.118607
 0.560000   0.043475   0.074505
 0.565000   0.044875   0.237729
 0.570000   0.045852   0.206872
 0.575000   0.046943   0.167709
 0.580000   0.047529   0.114844
 0.585000   0.048092   0.058083
 0.590000   0.048110   0.134134
 0.595000   0.049433   0.236216
 0.600000   0.050472   0.244567
 0.605000   0.051879   0.357788
 0.610000   0.054050   0.529587
 0.615000   0.057175   0.785288
 0.620000   0.061903   0.885196
 0.625000   0.066027   0.950254
 0.630000   0.071405   1.202513
 0.635000   0.078052   1.403676
 0.640000   0.085442   1.522068
 0.645000   0.093272   1.622035
 0.650000   0.101662   1.655889
 0.655000   0.109831   1.580659
 0.660000   0.117469   1.456170
 0.665000   0.124393   1.304728
 0.670000   0.130516   1.181343
 0.675000   0.136206   1.141448
 0.680000   0.141931   0.978461
 0.685000   0.145991   0.737850
 0.690000   0.149309   0.624469
 0.695000   0.152236   0.591564
 0.700000   0.155225   0.670787
 0.705000   0.158944   1.080305
 0.710000   0.166028   1.262530
 0.715000   0.171569   0.907663
 0.720000   0.175105   0.874652
 0.725000   0.180315   1.044203
 0.730000   0.185547   0.895545
 0.735000   0.189271   0.893323
 0.740000   0.194480   0.522812
 0.745000   0.194499   -0.331921
 0.750000   0.191161   -0.621126
 0.755000   0.188288   -0.828235
 0.760000   0.182878   -1.231358
 0.765000   0.175974   -1.550825
 0.770000   0.167370   -1.985280
 0.775000   0.156121   -2.117822
 0.780000   0.146192   -1.934245
 0.785000   0.136779   -1.775952
 0.790000   0.128432   -1.578123
 0.795000   0.120998   -1.469253
 0.800000   0.113740   -1.240624
 0.805000   0.108591   -0.306481
 0.810000   0.110675   0.313509
 0.815000   0.111726   0.428010
 0.820000   0.114955   0.745166
 0.825000   0.119178   0.913469
 0.830000   0.124090   1.216886
 0.835000   0.131347   1.425285
 0.840000   0.138343   1.035826
 0.845000   0.141705   0.658493
 0.850000   0.144928   0.771707
 0.855000   0.149422   1.163559
 0.860000   0.156563   2.101419
 0.865000   0.170436   2.738284
 0.870000   0.183946   3.344954
 0.875000   0.203886   4.531411
 0.880000   0.229260   5.599863
 0.885000   0.259885   6.544810
 0.890000   0.294708   8.545810
 0.895000   0.345343   8.001739
 0.900000   0.374726   7.227613
 0.905000   0.417619   8.535195
 0.910000   0.460078   8.183834
 0.915000   0.499457   6.829831
 0.920000   0.528376   7.451115
 0.925000   0.573968   2.372827
 0.930000   0.552104   -4.575731
 0.935000   0.528211   -6.817798
 0.940000   0.483926   -10.611812
 0.945000   0.422093   -12.576882
 0.950000   0.358157   -6.670881
 0.955000   0.355384   -0.474521
 0.960000   0.353412   10.086149
 0.965000   0.456246   28.622471
 0.970000   0.639637   34.184122
 0.975000   0.798087   4.982224
 0.980000   0.689459   -80.211905
 0.985000   -0.004032   -213.824688
 0.990000   -1.448788   -293.738648
 0.995000   -2.941419   -186.527144
 1.000000   -3.314059   37.470906
201 psinorm nz1(10^20/m^3) dnz1/dpsiN
 0.000000   0.015907   0.000011
 0.005000   0.015905   -0.001007
 0.010000   0.015897   -0.002041
 0.015000   0.015884   -0.003103
 0.020000   0.015866   -0.004190
 0.025000   0.015842   -0.005297
 0.030000   0.015813   -0.006418
 0.035000   0.015778   -0.007546
 0.040000   0.015738   -0.008674
 0.045000   0.015691   -0.009795
 0.050000   0.015640   -0.010906
 0.055000   0.015582   -0.011999
 0.060000   0.015520   -0.013067
 0.065000   0.015452   -0.014098
 0.070000   0.015379   -0.015077
 0.075000   0.015301   -0.015998
 0.080000   0.015219   -0.016861
 0.085000   0.015132   -0.017661
 0.090000   0.015042   -0.018395
 0.095000   0.014948   -0.019064
 0.100000   0.014852   -0.019662
 0.105000   0.014752   -0.020190
 0.110000   0.014650   -0.020648
 0.115000   0.014545   -0.021026
 0.120000   0.014439   -0.021321
 0.125000   0.014332   -0.021534
 0.130000   0.014224   -0.021663
 0.135000   0.014115   -0.021720
 0.140000   0.014007   -0.021726
 0.145000   0.013898   -0.021681
 0.150000   0.013790   -0.021581
 0.155000   0.013682   -0.021428
 0.160000   0.013576   -0.021226
 0.165000   0.013470   -0.020985
 0.170000   0.013366   -0.020722
 0.175000   0.013263   -0.020437
 0.180000   0.013162   -0.020130
 0.185000   0.013062   -0.019802
 0.190000   0.012963   -0.019455
 0.195000   0.012867   -0.019086
 0.200000   0.012773   -0.018684
 0.205000   0.012680   -0.018246
 0.210000   0.012590   -0.017774
 0.215000   0.012503   -0.017268
 0.220000   0.012417   -0.016728
 0.225000   0.012335   -0.016154
 0.230000   0.012256   -0.015544
 0.235000   0.012180   -0.014899
 0.240000   0.012107   -0.014227
 0.245000   0.012038   -0.013535
 0.250000   0.011972   -0.012827
 0.255000   0.011909   -0.012107
 0.260000   0.011851   -0.011381
 0.265000   0.011795   -0.010650
 0.270000   0.011744   -0.009915
 0.275000   0.011696   -0.009179
 0.280000   0.011652   -0.008442
 0.285000   0.011612   -0.007707
 0.290000   0.011575   -0.006973
 0.295000   0.011542   -0.006242
 0.300000   0.011513   -0.005513
 0.305000   0.011487   -0.004788
 0.310000   0.011465   -0.004071
 0.315000   0.011446   -0.003363
 0.320000   0.011431   -0.002668
 0.325000   0.011420   -0.001990
 0.330000   0.011411   -0.001331
 0.335000   0.011406   -0.000693
 0.340000   0.011404   -0.000080
 0.345000   0.011406   0.000508
 0.350000   0.011410   0.001067
 0.355000   0.011416   0.001599
 0.360000   0.011425   0.002103
 0.365000   0.011437   0.002580
 0.370000   0.011451   0.003031
 0.375000   0.011468   0.003455
 0.380000   0.011486   0.003856
 0.385000   0.011506   0.004235
 0.390000   0.011528   0.004588
 0.395000   0.011552   0.004916
 0.400000   0.011577   0.005217
 0.405000   0.011604   0.005490
 0.410000   0.011632   0.005734
 0.415000   0.011661   0.005947
 0.420000   0.011692   0.006129
 0.425000   0.011723   0.006280
 0.430000   0.011755   0.006398
 0.435000   0.011787   0.006484
 0.440000   0.011819   0.006537
 0.445000   0.011852   0.006558
 0.450000   0.011885   0.006547
 0.455000   0.011918   0.006505
 0.460000   0.011950   0.006433
 0.465000   0.011982   0.006332
 0.470000   0.012013   0.006204
 0.475000   0.012044   0.006051
 0.480000   0.012074   0.005873
 0.485000   0.012103   0.005670
 0.490000   0.012131   0.005442
 0.495000   0.012157   0.005192
 0.500000   0.012182   0.004918
 0.505000   0.012206   0.004622
 0.510000   0.012229   0.004303
 0.515000   0.012249   0.003962
 0.520000   0.012268   0.003600
 0.525000   0.012285   0.003218
 0.530000   0.012300   0.002817
 0.535000   0.012314   0.002399
 0.540000   0.012324   0.001965
 0.545000   0.012333   0.001520
 0.550000   0.012340   0.001066
 0.555000   0.012344   0.000606
 0.560000   0.012346   0.000143
 0.565000   0.012345   -0.000320
 0.570000   0.012342   -0.000783
 0.575000   0.012337   -0.001243
 0.580000   0.012330   -0.001703
 0.585000   0.012320   -0.002160
 0.590000   0.012308   -0.002617
 0.595000   0.012294   -0.003073
 0.600000   0.012278   -0.003529
 0.605000   0.012259   -0.003985
 0.610000   0.012238   -0.004437
 0.615000   0.012215   -0.004886
 0.620000   0.012189   -0.005328
 0.625000   0.012161   -0.005760
 0.630000   0.012131   -0.006181
 0.635000   0.012099   -0.006588
 0.640000   0.012066   -0.006981
 0.645000   0.012030   -0.007358
 0.650000   0.011992   -0.007719
 0.655000   0.011952   -0.008069
 0.660000   0.011911   -0.008414
 0.665000   0.011868   -0.008755
 0.670000   0.011824   -0.009093
 0.675000   0.011777   -0.009428
 0.680000   0.011729   -0.009766
 0.685000   0.011680   -0.010105
 0.690000   0.011628   -0.010437
 0.695000   0.011575   -0.010766
 0.700000   0.011521   -0.011110
 0.705000   0.011464   -0.011492
 0.710000   0.011406   -0.011977
 0.715000   0.011345   -0.012597
 0.720000   0.011280   -0.013304
 0.725000   0.011211   -0.014075
 0.730000   0.011139   -0.014907
 0.735000   0.011062   -0.015783
 0.740000   0.010981   -0.016726
 0.745000   0.010895   -0.017691
 0.750000   0.010804   -0.018560
 0.755000   0.010710   -0.019306
 0.760000   0.010611   -0.019939
 0.765000   0.010510   -0.020435
 0.770000   0.010407   -0.020768
 0.775000   0.010302   -0.020892
 0.780000   0.010198   -0.020807
 0.785000   0.010094   -0.020565
 0.790000   0.009992   -0.020190
 0.795000   0.009892   -0.019702
 0.800000   0.009795   -0.019093
 0.805000   0.009702   -0.018356
 0.810000   0.009612   -0.017595
 0.815000   0.009526   -0.016874
 0.820000   0.009443   -0.016176
 0.825000   0.009364   -0.015521
 0.830000   0.009288   -0.014927
 0.835000   0.009215   -0.014426
 0.840000   0.009144   -0.014072
 0.845000   0.009074   -0.013832
 0.850000   0.009005   -0.013628
 0.855000   0.008938   -0.013432
 0.860000   0.008871   -0.013226
 0.865000   0.008805   -0.013010
 0.870000   0.008741   -0.012819
 0.875000   0.008677   -0.012695
 0.880000   0.008614   -0.012660
 0.885000   0.008551   -0.012716
 0.890000   0.008487   -0.012856
 0.895000   0.008422   -0.013140
 0.900000   0.008355   -0.013527
 0.905000   0.008287   -0.013976
 0.910000   0.008216   -0.014553
 0.915000   0.008141   -0.015266
 0.920000   0.008063   -0.016136
 0.925000   0.007980   -0.017429
 0.930000   0.007889   -0.019192
 0.935000   0.007788   -0.021406
 0.940000   0.007675   -0.024393
 0.945000   0.007544   -0.028505
 0.950000   0.007389   -0.034282
 0.955000   0.007201   -0.043021
 0.960000   0.006959   -0.055490
 0.965000   0.006646   -0.071841
 0.970000   0.006241   -0.092069
 0.975000   0.005726   -0.114298
 0.980000   0.005098   -0.134441
 0.985000   0.004381   -0.147493
 0.990000   0.003623   -0.148516
 0.995000   0.002896   -0.136153
 1.000000   0.002261   -0.117671
201 psinorm vtor1(km/s) dvtor1/dpsiN
 0.000000   95.127699   482.981506
 0.005000   97.000434   266.112156
 0.010000   97.788821   138.552157
 0.015000   98.385955   108.863369
 0.020000   98.877455   91.291135
 0.025000   99.298867   79.479398
 0.030000   99.672249   70.713152
 0.035000   100.005998   62.856094
 0.040000   100.300810   55.745303
 0.045000   100.563451   49.498019
 0.050000   100.795790   43.430318
 0.055000   100.997754   37.318946
 0.060000   101.168979   31.348348
 0.065000   101.311238   25.510575
 0.070000   101.424085   19.578728
 0.075000   101.507025   13.686856
 0.080000   101.560954   7.937694
 0.085000   101.586402   2.301308
 0.090000   101.583967   -3.248839
 0.095000   101.553914   -8.582516
 0.100000   101.498141   -13.530194
 0.105000   101.418612   -18.281583
 0.110000   101.315326   -23.053898
 0.115000   101.188073   -27.802359
 0.120000   101.037302   -32.506662
 0.125000   100.863006   -37.286099
 0.130000   100.664441   -41.916292
 0.135000   100.443843   -46.258559
 0.140000   100.201855   -50.576306
 0.145000   99.938080   -54.884356
 0.150000   99.653012   -59.108107
 0.155000   99.346999   -63.315515
 0.160000   99.019857   -67.588556
 0.165000   98.671113   -71.873620
 0.170000   98.301121   -76.035105
 0.175000   97.910762   -79.996167
 0.180000   97.501159   -83.728037
 0.185000   97.073482   -87.186386
 0.190000   96.629295   -90.311804
 0.195000   96.170364   -93.114380
 0.200000   95.698151   -95.679513
 0.205000   95.213569   -97.980817
 0.210000   94.718343   -99.932906
 0.215000   94.214240   -101.536538
 0.220000   93.702978   -102.718850
 0.225000   93.187051   -103.416156
 0.230000   92.668816   -103.893398
 0.235000   92.148117   -104.289299
 0.240000   91.625923   -104.511050
 0.245000   91.103007   -104.601906
 0.250000   90.579904   -104.584339
 0.255000   90.057163   -104.297708
 0.260000   89.536927   -103.686104
 0.265000   89.020302   -102.768353
 0.270000   88.509243   -101.471087
 0.275000   88.005591   -99.819243
 0.280000   87.511051   -97.842124
 0.285000   87.027170   -95.440229
 0.290000   86.556649   -92.891962
 0.295000   86.098251   -90.446130
 0.300000   85.652187   -87.990943
 0.305000   85.218341   -85.591944
 0.310000   84.796268   -83.301298
 0.315000   84.385328   -81.115622
 0.320000   83.985112   -79.132280
 0.325000   83.594005   -77.361861
 0.330000   83.211493   -75.685098
 0.335000   82.837154   -74.097224
 0.340000   82.470521   -72.595475
 0.345000   82.111200   -71.195578
 0.350000   81.758565   -69.766055
 0.355000   81.413539   -68.176130
 0.360000   81.076804   -66.461477
 0.365000   80.748924   -64.642291
 0.370000   80.430381   -62.732068
 0.375000   80.121604   -60.787406
 0.380000   79.822507   -58.763275
 0.385000   79.533971   -56.586741
 0.390000   79.256639   -54.288333
 0.395000   78.991088   -51.870136
 0.400000   78.737938   -49.327768
 0.405000   78.497810   -46.682292
 0.410000   78.271115   -43.912584
 0.415000   78.058684   -40.994387
 0.420000   77.861171   -37.973397
 0.425000   77.678950   -34.887269
 0.430000   77.512299   -31.754009
 0.435000   77.361410   -28.581658
 0.440000   77.226482   -25.415623
 0.445000   77.107254   -22.347432
 0.450000   77.003008   -19.424828
 0.455000   76.913005   -16.652200
 0.460000   76.836486   -14.018605
 0.465000   76.772819   -11.518415
 0.470000   76.721302   -9.138744
 0.475000   76.681432   -6.811046
 0.480000   76.653191   -4.495341
 0.485000   76.636479   -2.200308
 0.490000   76.631188   0.074113
 0.495000   76.637220   2.314296
 0.500000   76.654331   4.491399
 0.505000   76.682134   6.590888
 0.510000   76.720240   8.574379
 0.515000   76.767878   10.373359
 0.520000   76.823973   11.941327
 0.525000   76.887291   13.244712
 0.530000   76.956421   14.241715
 0.535000   77.029708   14.899861
 0.540000   77.105419   15.208830
 0.545000   77.181796   15.160701
 0.550000   77.257026   14.752707
 0.555000   77.329323   13.979532
 0.560000   77.396822   12.814094
 0.565000   77.457464   11.216018
 0.570000   77.508982   9.128763
 0.575000   77.548752   6.479112
 0.580000   77.573773   3.192226
 0.585000   77.580674   -0.825653
 0.590000   77.565516   -5.748904
 0.595000   77.523185   -11.626041
 0.600000   77.449256   -18.469860
 0.605000   77.338486   -26.382652
 0.610000   77.185429   -35.394299
 0.615000   76.984543   -45.504529
 0.620000   76.730384   -56.756479
 0.625000   76.416979   -68.773800
 0.630000   76.042646   -81.118680
 0.635000   75.605792   -93.688947
 0.640000   75.105757   -106.307696
 0.645000   74.542715   -118.810575
 0.650000   73.917651   -130.902121
 0.655000   73.233694   -142.413024
 0.660000   72.493521   -153.312018
 0.665000   71.700574   -163.448426
 0.670000   70.859036   -172.703844
 0.675000   69.973535   -181.007543
 0.680000   69.048961   -188.138643
 0.685000   68.092149   -194.392505
 0.690000   67.105036   -200.286650
 0.695000   66.089282   -205.824061
 0.700000   65.046795   -211.014755
 0.705000   63.979135   -215.923820
 0.710000   62.887557   -220.794125
 0.715000   61.771193   -225.899285
 0.720000   60.628564   -230.901031
 0.725000   59.462183   -235.115103
 0.730000   58.277413   -237.995600
 0.735000   57.082227   -239.074906
 0.740000   55.886664   -238.078894
 0.745000   54.701438   -234.717673
 0.750000   53.539487   -228.959201
 0.755000   52.411846   -221.217665
 0.760000   51.327311   -211.954816
 0.765000   50.292298   -201.678372
 0.770000   49.310527   -190.949475
 0.775000   48.382803   -180.407997
 0.780000   47.506447   -170.296903
 0.785000   46.679834   -160.421307
 0.790000   45.902234   -150.676280
 0.795000   45.173071   -141.041147
 0.800000   44.491823   -131.642227
 0.805000   43.856649   -122.651401
 0.810000   43.265309   -113.759539
 0.815000   42.719054   -104.972456
 0.820000   42.215584   -96.857079
 0.825000   41.750483   -89.886039
 0.830000   41.316724   -84.643751
 0.835000   40.904045   -81.729003
 0.840000   40.499434   -81.510452
 0.845000   40.088941   -84.432426
 0.850000   39.655109   -91.047047
 0.855000   39.178470   -101.753356
 0.860000   38.637576   -117.056906
 0.865000   38.007901   -137.990043
 0.870000   37.257675   -164.957833
 0.875000   36.358323   -197.971924
 0.880000   35.277956   -237.444172
 0.885000   33.983881   -283.346329
 0.890000   32.444493   -335.215720
 0.895000   30.631724   -393.537772
 0.900000   28.509115   -454.260674
 0.905000   26.089117   -512.077973
 0.910000   23.388335   -564.352784
 0.915000   20.445590   -606.358885
 0.920000   17.324746   -632.997684
 0.925000   14.115613   -640.565463
 0.930000   10.919092   -622.895394
 0.935000   7.886659   -575.839324
 0.940000   5.160699   -500.938793
 0.945000   2.877271   -400.976864
 0.950000   1.150930   -282.025053
 0.955000   0.057020   -153.417939
 0.960000   -0.383249   -27.180412
 0.965000   -0.214784   84.443472
 0.970000   0.461185   171.946963
 0.975000   1.504686   229.565274
 0.980000   2.756838   255.592046
 0.985000   4.060606   251.387529
 0.990000   5.270713   222.871495
 0.995000   6.289321   178.445058
 1.000000   7.055164   127.892006
201 psinorm vpol1(km/s) dvpol1/dpsiN
 0.000000   0.000289   5.710938
 0.005000   0.031352   6.714062
 0.010000   0.067430   7.699219
 0.015000   0.108344   8.607031
 0.020000   0.153500   9.357812
 0.025000   0.201922   9.903906
 0.030000   0.252539   10.186719
 0.035000   0.303789   10.275000
 0.040000   0.355289   10.265625
 0.045000   0.406445   10.166406
 0.050000   0.456953   10.054687
 0.055000   0.506992   9.995313
 0.060000   0.556906   10.015625
 0.065000   0.607148   10.114844
 0.070000   0.658055   10.257031
 0.075000   0.709719   10.416406
 0.080000   0.762219   10.578125
 0.085000   0.815500   10.740625
 0.090000   0.869625   10.862500
 0.095000   0.924125   10.921875
 0.100000   0.978844   10.925781
 0.105000   1.033383   10.866406
 0.110000   1.087508   10.753906
 0.115000   1.140922   10.585938
 0.120000   1.193367   10.398438
 0.125000   1.244906   10.231250
 0.130000   1.295680   10.080469
 0.135000   1.345711   9.957813
 0.140000   1.395258   9.853125
 0.145000   1.444242   9.744531
 0.150000   1.492703   9.605469
 0.155000   1.540297   9.407031
 0.160000   1.586773   9.138281
 0.165000   1.631680   8.784375
 0.170000   1.674617   8.380469
 0.175000   1.715484   7.906250
 0.180000   1.753680   7.382031
 0.185000   1.789305   6.839844
 0.190000   1.822078   6.257031
 0.195000   1.851875   5.643750
 0.200000   1.878516   5.010938
 0.205000   1.901984   4.363281
 0.210000   1.922148   3.733594
 0.215000   1.939320   3.145313
 0.220000   1.953602   2.577344
 0.225000   1.965094   2.013281
 0.230000   1.973734   1.447656
 0.235000   1.979570   0.841406
 0.240000   1.982148   0.163281
 0.245000   1.981203   -0.585938
 0.250000   1.976289   -1.403906
 0.255000   1.967164   -2.298438
 0.260000   1.953305   -3.242969
 0.265000   1.934734   -4.185937
 0.270000   1.911445   -5.124219
 0.275000   1.883492   -6.037500
 0.280000   1.851070   -6.891406
 0.285000   1.814578   -7.694531
 0.290000   1.774125   -8.457813
 0.295000   1.730000   -9.182812
 0.300000   1.682297   -9.907031
 0.305000   1.630930   -10.639062
 0.310000   1.575906   -11.378906
 0.315000   1.517141   -12.156250
 0.320000   1.454344   -12.981250
 0.325000   1.387328   -13.874219
 0.330000   1.315602   -14.842187
 0.335000   1.238906   -15.819531
 0.340000   1.157406   -16.756250
 0.345000   1.071344   -17.600781
 0.350000   0.981398   -18.265625
 0.355000   0.888687   -18.721875
 0.360000   0.794180   -19.013281
 0.365000   0.698555   -19.179687
 0.370000   0.602383   -19.245312
 0.375000   0.506102   -19.256250
 0.380000   0.409820   -19.215625
 0.385000   0.313945   -19.242969
 0.390000   0.217391   -19.434375
 0.395000   0.119602   -19.735156
 0.400000   0.020039   -20.157031
 0.405000   -0.081969   -20.670312
 0.410000   -0.186664   -21.217969
 0.415000   -0.294148   -21.721875
 0.420000   -0.403883   -22.207031
 0.425000   -0.516219   -22.841406
 0.430000   -0.632297   -23.739844
 0.435000   -0.753617   -25.054687
 0.440000   -0.882844   -27.003125
 0.445000   -1.023648   -29.308594
 0.450000   -1.175930   -31.655469
 0.455000   -1.340203   -34.060156
 0.460000   -1.516531   -36.377344
 0.465000   -1.703977   -38.527344
 0.470000   -1.901805   -40.328125
 0.475000   -2.107258   -41.369531
 0.480000   -2.315500   -41.559375
 0.485000   -2.522852   -41.012500
 0.490000   -2.725625   -39.716406
 0.495000   -2.920016   -37.606250
 0.500000   -3.101688   -34.707812
 0.505000   -3.267094   -31.474219
 0.510000   -3.416430   -28.246094
 0.515000   -3.549555   -25.071094
 0.520000   -3.667141   -22.078906
 0.525000   -3.770344   -19.291406
 0.530000   -3.860055   -16.965625
 0.535000   -3.940000   -15.357813
 0.540000   -4.013633   -14.296875
 0.545000   -4.082969   -13.629687
 0.550000   -4.149930   -13.289062
 0.555000   -4.215859   -13.241406
 0.560000   -4.282344   -13.362500
 0.565000   -4.349484   -13.440625
 0.570000   -4.416750   -13.381250
 0.575000   -4.483297   -13.140625
 0.580000   -4.548156   -12.673438
 0.585000   -4.610031   -11.964844
 0.590000   -4.667805   -10.925000
 0.595000   -4.719281   -9.525000
 0.600000   -4.763055   -7.928906
 0.605000   -4.798570   -6.228906
 0.610000   -4.825344   -4.495313
 0.615000   -4.843523   -2.832031
 0.620000   -4.853664   -1.335156
 0.625000   -4.856875   -0.074219
 0.630000   -4.854406   0.945313
 0.635000   -4.847422   1.734375
 0.640000   -4.837063   2.305469
 0.645000   -4.824367   2.696875
 0.650000   -4.810094   2.989063
 0.655000   -4.794477   3.258594
 0.660000   -4.777508   3.510937
 0.665000   -4.759367   3.760156
 0.670000   -4.739906   4.017969
 0.675000   -4.719188   4.261719
 0.680000   -4.697289   4.507812
 0.685000   -4.674109   4.816406
 0.690000   -4.649125   5.226563
 0.695000   -4.621844   5.763281
 0.700000   -4.591492   6.497656
 0.705000   -4.556867   7.402344
 0.710000   -4.517469   8.317969
 0.715000   -4.473688   9.133594
 0.720000   -4.426133   9.773438
 0.725000   -4.375953   10.142187
 0.730000   -4.324711   10.164062
 0.735000   -4.274312   9.692187
 0.740000   -4.227789   8.684375
 0.745000   -4.187469   7.242188
 0.750000   -4.155367   5.502344
 0.755000   -4.132445   3.625781
 0.760000   -4.119109   1.753125
 0.765000   -4.114914   0.082031
 0.770000   -4.118289   -1.277344
 0.775000   -4.127688   -2.318750
 0.780000   -4.141477   -3.077344
 0.785000   -4.158461   -3.646875
 0.790000   -4.177945   -4.229687
 0.795000   -4.200758   -5.092969
 0.800000   -4.228875   -6.357813
 0.805000   -4.264336   -8.042969
 0.810000   -4.309305   -10.158594
 0.815000   -4.365922   -12.663281
 0.820000   -4.435938   -15.536719
 0.825000   -4.521289   -18.342969
 0.830000   -4.619367   -20.594531
 0.835000   -4.727234   -22.145313
 0.840000   -4.840820   -22.777344
 0.845000   -4.955008   -22.362500
 0.850000   -5.064445   -20.909375
 0.855000   -5.164102   -18.505469
 0.860000   -5.249500   -15.268750
 0.865000   -5.316789   -11.285938
 0.870000   -5.362359   -6.676563
 0.875000   -5.383555   -1.594531
 0.880000   -5.378305   3.824219
 0.885000   -5.345313   9.421875
 0.890000   -5.284086   15.074219
 0.895000   -5.194570   20.653125
 0.900000   -5.077555   26.004297
 0.905000   -4.934527   30.887109
 0.910000   -4.768684   34.839453
 0.915000   -4.586133   37.557031
 0.920000   -4.393113   39.061719
 0.925000   -4.195516   39.518750
 0.930000   -3.997926   39.300000
 0.935000   -3.802516   39.434766
 0.940000   -3.603578   41.236328
 0.945000   -3.390152   44.133984
 0.950000   -3.162238   45.731641
 0.955000   -2.932836   42.366406
 0.960000   -2.738574   28.296094
 0.965000   -2.649875   -3.452344
 0.970000   -2.773098   -52.279687
 0.975000   -3.172672   -88.898828
 0.980000   -3.662086   -43.733984
 0.985000   -3.610012   165.069141
 0.990000   -2.011395   540.089453
 0.995000   1.790883   895.229297
 1.000000   6.940898   1164.776953
3 N Z A of ION SPECIES
 6.000000   6.000000   12.010700
 1.000000   1.000000   2.000000
 1.000000   1.000000   2.000000
