201 psinorm ne(10^20/m^3) dne/dpsiN
 0.000000   0.512699   -0.436518
 0.005000   0.510525   -0.433020
 0.010000   0.508369   -0.429536
 0.015000   0.506230   -0.426081
 0.020000   0.504108   -0.422655
 0.025000   0.502003   -0.419256
 0.030000   0.499916   -0.415886
 0.035000   0.497845   -0.412543
 0.040000   0.495790   -0.409227
 0.045000   0.493752   -0.405938
 0.050000   0.491731   -0.402675
 0.055000   0.489726   -0.399439
 0.060000   0.487736   -0.396230
 0.065000   0.485763   -0.393046
 0.070000   0.483806   -0.389887
 0.075000   0.481864   -0.386755
 0.080000   0.479938   -0.383647
 0.085000   0.478028   -0.380564
 0.090000   0.476133   -0.377506
 0.095000   0.474253   -0.374472
 0.100000   0.472388   -0.371462
 0.105000   0.470538   -0.368476
 0.110000   0.468703   -0.365513
 0.115000   0.466883   -0.362574
 0.120000   0.465078   -0.359659
 0.125000   0.463287   -0.356766
 0.130000   0.461510   -0.353896
 0.135000   0.459748   -0.351048
 0.140000   0.457999   -0.348223
 0.145000   0.456265   -0.345419
 0.150000   0.454545   -0.342638
 0.155000   0.452839   -0.339878
 0.160000   0.451146   -0.337139
 0.165000   0.449468   -0.334422
 0.170000   0.447802   -0.331725
 0.175000   0.446150   -0.329050
 0.180000   0.444512   -0.326395
 0.185000   0.442886   -0.323760
 0.190000   0.441274   -0.321145
 0.195000   0.439675   -0.318550
 0.200000   0.438089   -0.315975
 0.205000   0.436515   -0.313420
 0.210000   0.434954   -0.310883
 0.215000   0.433406   -0.308366
 0.220000   0.431871   -0.305868
 0.225000   0.430348   -0.303389
 0.230000   0.428837   -0.300928
 0.235000   0.427338   -0.298486
 0.240000   0.425852   -0.296062
 0.245000   0.424378   -0.293656
 0.250000   0.422916   -0.291268
 0.255000   0.421465   -0.288897
 0.260000   0.420027   -0.286544
 0.265000   0.418600   -0.284208
 0.270000   0.417184   -0.281890
 0.275000   0.415781   -0.279588
 0.280000   0.414389   -0.277303
 0.285000   0.413008   -0.275035
 0.290000   0.411638   -0.272783
 0.295000   0.410280   -0.270548
 0.300000   0.408933   -0.268329
 0.305000   0.407597   -0.266125
 0.310000   0.406271   -0.263938
 0.315000   0.404957   -0.261766
 0.320000   0.403654   -0.259610
 0.325000   0.402361   -0.257469
 0.330000   0.401079   -0.255344
 0.335000   0.399808   -0.253233
 0.340000   0.398547   -0.251137
 0.345000   0.397296   -0.249056
 0.350000   0.396056   -0.246990
 0.355000   0.394826   -0.244938
 0.360000   0.393607   -0.242900
 0.365000   0.392397   -0.240877
 0.370000   0.391198   -0.238868
 0.375000   0.390009   -0.236872
 0.380000   0.388829   -0.234890
 0.385000   0.387660   -0.232922
 0.390000   0.386500   -0.230968
 0.395000   0.385350   -0.229026
 0.400000   0.384210   -0.227098
 0.405000   0.383079   -0.225183
 0.410000   0.381958   -0.223281
 0.415000   0.380846   -0.221392
 0.420000   0.379744   -0.219515
 0.425000   0.378651   -0.217651
 0.430000   0.377568   -0.215799
 0.435000   0.376493   -0.213960
 0.440000   0.375428   -0.212133
 0.445000   0.374372   -0.210318
 0.450000   0.373325   -0.208514
 0.455000   0.372287   -0.206723
 0.460000   0.371258   -0.204943
 0.465000   0.370237   -0.203175
 0.470000   0.369226   -0.201418
 0.475000   0.368223   -0.199673
 0.480000   0.367229   -0.197939
 0.485000   0.366244   -0.196216
 0.490000   0.365267   -0.194504
 0.495000   0.364299   -0.192802
 0.500000   0.363339   -0.191112
 0.505000   0.362388   -0.189432
 0.510000   0.361445   -0.187763
 0.515000   0.360510   -0.186104
 0.520000   0.359584   -0.184456
 0.525000   0.358665   -0.182817
 0.530000   0.357755   -0.181189
 0.535000   0.356854   -0.179571
 0.540000   0.355960   -0.177963
 0.545000   0.355074   -0.176364
 0.550000   0.354196   -0.174776
 0.555000   0.353326   -0.173197
 0.560000   0.352464   -0.171627
 0.565000   0.351610   -0.170067
 0.570000   0.350763   -0.168516
 0.575000   0.349925   -0.166974
 0.580000   0.349094   -0.165441
 0.585000   0.348270   -0.163918
 0.590000   0.347455   -0.162403
 0.595000   0.346646   -0.160897
 0.600000   0.345846   -0.159400
 0.605000   0.345052   -0.157911
 0.610000   0.344266   -0.156431
 0.615000   0.343488   -0.154959
 0.620000   0.342717   -0.153496
 0.625000   0.341953   -0.152041
 0.630000   0.341196   -0.150594
 0.635000   0.340447   -0.149156
 0.640000   0.339705   -0.147725
 0.645000   0.338970   -0.146302
 0.650000   0.338242   -0.144887
 0.655000   0.337521   -0.143480
 0.660000   0.336807   -0.142080
 0.665000   0.336100   -0.140688
 0.670000   0.335400   -0.139304
 0.675000   0.334707   -0.137926
 0.680000   0.334021   -0.136557
 0.685000   0.333342   -0.135194
 0.690000   0.332669   -0.133839
 0.695000   0.332003   -0.132490
 0.700000   0.331344   -0.131149
 0.705000   0.330692   -0.129814
 0.710000   0.330046   -0.128487
 0.715000   0.329407   -0.127166
 0.720000   0.328774   -0.125852
 0.725000   0.328148   -0.124544
 0.730000   0.327529   -0.123243
 0.735000   0.326916   -0.121948
 0.740000   0.326309   -0.120660
 0.745000   0.325709   -0.119378
 0.750000   0.325116   -0.118103
 0.755000   0.324528   -0.116833
 0.760000   0.323947   -0.115570
 0.765000   0.323373   -0.114312
 0.770000   0.322804   -0.113061
 0.775000   0.322242   -0.111815
 0.780000   0.321686   -0.110575
 0.785000   0.321136   -0.109341
 0.790000   0.320593   -0.108113
 0.795000   0.320055   -0.106890
 0.800000   0.319524   -0.105672
 0.805000   0.318998   -0.104460
 0.810000   0.318479   -0.103254
 0.815000   0.317966   -0.102053
 0.820000   0.317459   -0.100857
 0.825000   0.316957   -0.099666
 0.830000   0.316462   -0.098480
 0.835000   0.315972   -0.097299
 0.840000   0.315489   -0.096122
 0.845000   0.315011   -0.094950
 0.850000   0.314539   -0.093781
 0.855000   0.314073   -0.092616
 0.860000   0.313613   -0.091452
 0.865000   0.313159   -0.090287
 0.870000   0.312710   -0.089121
 0.875000   0.312268   -0.087949
 0.880000   0.311831   -0.086772
 0.885000   0.311400   -0.085597
 0.890000   0.310975   -0.084453
 0.895000   0.310555   -0.083431
 0.900000   0.310141   -0.082765
 0.905000   0.309728   -0.083030
 0.910000   0.309310   -0.085572
 0.915000   0.308872   -0.093447
 0.920000   0.308376   -0.113419
 0.925000   0.307738   -0.160069
 0.930000   0.306775   -0.263810
 0.935000   0.305100   -0.484797
 0.940000   0.301927   -0.930671
 0.945000   0.295793   -1.756564
 0.950000   0.284362   -3.079010
 0.955000   0.265003   -4.729968
 0.960000   0.237062   -6.052592
 0.965000   0.204477   -6.293720
 0.970000   0.174125   -5.401213
 0.975000   0.150465   -4.043525
 0.980000   0.133689   -2.851671
 0.985000   0.121948   -2.031092
 0.990000   0.113378   -1.523777
 0.995000   0.106710   -1.218232
 1.000000   0.101196   -0.987473
201 psinorm te(KeV) dte/dpsiN
 0.000000   3.994946   -3.211710
 0.005000   3.978849   -3.227342
 0.010000   3.962673   -3.242825
 0.015000   3.946420   -3.258012
 0.020000   3.930093   -3.272902
 0.025000   3.913691   -3.287494
 0.030000   3.897218   -3.301788
 0.035000   3.880674   -3.315783
 0.040000   3.864060   -3.329481
 0.045000   3.847379   -3.342879
 0.050000   3.830631   -3.355979
 0.055000   3.813819   -3.368780
 0.060000   3.796943   -3.381281
 0.065000   3.780006   -3.393484
 0.070000   3.763009   -3.405387
 0.075000   3.745952   -3.416992
 0.080000   3.728839   -3.428298
 0.085000   3.711669   -3.439304
 0.090000   3.694446   -3.450013
 0.095000   3.677169   -3.460423
 0.100000   3.659841   -3.470535
 0.105000   3.642464   -3.480349
 0.110000   3.625038   -3.489866
 0.115000   3.607565   -3.499086
 0.120000   3.590047   -3.508009
 0.125000   3.572485   -3.516636
 0.130000   3.554881   -3.524967
 0.135000   3.537235   -3.533004
 0.140000   3.519551   -3.540746
 0.145000   3.501828   -3.548194
 0.150000   3.484069   -3.555350
 0.155000   3.466274   -3.562212
 0.160000   3.448447   -3.568784
 0.165000   3.430587   -3.575064
 0.170000   3.412696   -3.581054
 0.175000   3.394776   -3.586755
 0.180000   3.376828   -3.592168
 0.185000   3.358854   -3.597294
 0.190000   3.340855   -3.602133
 0.195000   3.322833   -3.606687
 0.200000   3.304789   -3.610956
 0.205000   3.286724   -3.614943
 0.210000   3.268639   -3.618647
 0.215000   3.250537   -3.622070
 0.220000   3.232418   -3.625214
 0.225000   3.214285   -3.628079
 0.230000   3.196138   -3.630667
 0.235000   3.177978   -3.632979
 0.240000   3.159808   -3.635016
 0.245000   3.141628   -3.636780
 0.250000   3.123440   -3.638272
 0.255000   3.105245   -3.639493
 0.260000   3.087045   -3.640446
 0.265000   3.068841   -3.641130
 0.270000   3.050634   -3.641549
 0.275000   3.032425   -3.641703
 0.280000   3.014217   -3.641594
 0.285000   2.996009   -3.641224
 0.290000   2.977805   -3.640593
 0.295000   2.959604   -3.639705
 0.300000   2.941408   -3.638560
 0.305000   2.923218   -3.637161
 0.310000   2.905036   -3.635508
 0.315000   2.886863   -3.633604
 0.320000   2.868700   -3.631451
 0.325000   2.850548   -3.629050
 0.330000   2.832409   -3.626403
 0.335000   2.814284   -3.623512
 0.340000   2.796174   -3.620378
 0.345000   2.778081   -3.617005
 0.350000   2.760004   -3.613393
 0.355000   2.741947   -3.609545
 0.360000   2.723909   -3.605462
 0.365000   2.705892   -3.601147
 0.370000   2.687897   -3.596601
 0.375000   2.669926   -3.591827
 0.380000   2.651979   -3.586827
 0.385000   2.634058   -3.581602
 0.390000   2.616163   -3.576155
 0.395000   2.598296   -3.570488
 0.400000   2.580458   -3.564603
 0.405000   2.562650   -3.558501
 0.410000   2.544873   -3.552187
 0.415000   2.527128   -3.545660
 0.420000   2.509417   -3.538924
 0.425000   2.491739   -3.531981
 0.430000   2.474097   -3.524833
 0.435000   2.456491   -3.517482
 0.440000   2.438922   -3.509930
 0.445000   2.421391   -3.502181
 0.450000   2.403900   -3.494235
 0.455000   2.386449   -3.486095
 0.460000   2.369039   -3.477764
 0.465000   2.351671   -3.469244
 0.470000   2.334347   -3.460536
 0.475000   2.317066   -3.451645
 0.480000   2.299830   -3.442571
 0.485000   2.282640   -3.433317
 0.490000   2.265497   -3.423885
 0.495000   2.248401   -3.414279
 0.500000   2.231354   -3.404499
 0.505000   2.214356   -3.394549
 0.510000   2.197409   -3.384431
 0.515000   2.180512   -3.374147
 0.520000   2.163667   -3.363700
 0.525000   2.146875   -3.353092
 0.530000   2.130136   -3.342325
 0.535000   2.113452   -3.331402
 0.540000   2.096822   -3.320325
 0.545000   2.080249   -3.309097
 0.550000   2.063731   -3.297720
 0.555000   2.047271   -3.286196
 0.560000   2.030869   -3.274528
 0.565000   2.014526   -3.262719
 0.570000   1.998242   -3.250770
 0.575000   1.982018   -3.238684
 0.580000   1.965855   -3.226464
 0.585000   1.949754   -3.214112
 0.590000   1.933714   -3.201630
 0.595000   1.917738   -3.189021
 0.600000   1.901824   -3.176287
 0.605000   1.885975   -3.163430
 0.610000   1.870190   -3.150454
 0.615000   1.854470   -3.137360
 0.620000   1.838816   -3.124150
 0.625000   1.823229   -3.110828
 0.630000   1.807708   -3.097396
 0.635000   1.792255   -3.083855
 0.640000   1.776869   -3.070209
 0.645000   1.761553   -3.056459
 0.650000   1.746305   -3.042609
 0.655000   1.731127   -3.028660
 0.660000   1.716018   -3.014615
 0.665000   1.700980   -3.000476
 0.670000   1.686013   -2.986245
 0.675000   1.671118   -2.971925
 0.680000   1.656294   -2.957519
 0.685000   1.641543   -2.943028
 0.690000   1.626864   -2.928455
 0.695000   1.612258   -2.913802
 0.700000   1.597726   -2.899071
 0.705000   1.583267   -2.884265
 0.710000   1.568883   -2.869385
 0.715000   1.554574   -2.854435
 0.720000   1.540339   -2.839416
 0.725000   1.526179   -2.824330
 0.730000   1.512096   -2.809179
 0.735000   1.498088   -2.793966
 0.740000   1.484156   -2.778693
 0.745000   1.470301   -2.763360
 0.750000   1.456522   -2.747971
 0.755000   1.442821   -2.732526
 0.760000   1.429197   -2.717027
 0.765000   1.415651   -2.701474
 0.770000   1.402182   -2.685869
 0.775000   1.388792   -2.670211
 0.780000   1.375480   -2.654500
 0.785000   1.362247   -2.638734
 0.790000   1.349093   -2.622911
 0.795000   1.336018   -2.607027
 0.800000   1.323023   -2.591076
 0.805000   1.310107   -2.575049
 0.810000   1.297272   -2.558936
 0.815000   1.284518   -2.542723
 0.820000   1.271845   -2.526390
 0.825000   1.259254   -2.509916
 0.830000   1.246746   -2.493272
 0.835000   1.234321   -2.476427
 0.840000   1.221981   -2.459346
 0.845000   1.209728   -2.441994
 0.850000   1.197562   -2.424344
 0.855000   1.185484   -2.406390
 0.860000   1.173498   -2.388167
 0.865000   1.161603   -2.369791
 0.870000   1.149800   -2.351518
 0.875000   1.138087   -2.333846
 0.880000   1.126461   -2.317672
 0.885000   1.114911   -2.304544
 0.890000   1.103416   -2.297051
 0.895000   1.091940   -2.299431
 0.900000   1.080422   -2.318495
 0.905000   1.068755   -2.365024
 0.910000   1.056771   -2.455837
 0.915000   1.044197   -2.616775
 0.920000   1.030604   -2.886798
 0.925000   1.015329   -3.323202
 0.930000   0.997372   -4.007206
 0.935000   0.975257   -5.047424
 0.940000   0.946897   -6.575094
 0.945000   0.909506   -8.719017
 0.950000   0.859707   -11.542226
 0.955000   0.794084   -14.927259
 0.960000   0.710435   -18.435474
 0.965000   0.609729   -21.253094
 0.970000   0.497904   -22.405250
 0.975000   0.385676   -21.280749
 0.980000   0.285096   -18.117173
 0.985000   0.204505   -13.925388
 0.990000   0.145842   -9.852193
 0.995000   0.105983   -6.593260
 1.000000   0.079910   -3.836010
201 psinorm ni(10^20/m^3) dni/dpsiN
 0.000000   0.324509   -0.523743
 0.005000   0.322125   -0.430042
 0.010000   0.320209   -0.354000
 0.015000   0.318585   -0.301491
 0.020000   0.317194   -0.257488
 0.025000   0.316010   -0.219554
 0.030000   0.314998   -0.187951
 0.035000   0.314130   -0.161236
 0.040000   0.313386   -0.138413
 0.045000   0.312746   -0.118727
 0.050000   0.312199   -0.102149
 0.055000   0.311725   -0.088772
 0.060000   0.311311   -0.077757
 0.065000   0.310947   -0.068947
 0.070000   0.310622   -0.062226
 0.075000   0.310325   -0.057073
 0.080000   0.310051   -0.053398
 0.085000   0.309791   -0.051078
 0.090000   0.309540   -0.050004
 0.095000   0.309291   -0.050063
 0.100000   0.309039   -0.050909
 0.105000   0.308782   -0.052438
 0.110000   0.308515   -0.054607
 0.115000   0.308236   -0.057347
 0.120000   0.307942   -0.060552
 0.125000   0.307630   -0.064205
 0.130000   0.307300   -0.068203
 0.135000   0.306948   -0.072549
 0.140000   0.306574   -0.077088
 0.145000   0.306177   -0.081630
 0.150000   0.305758   -0.086234
 0.155000   0.305315   -0.090855
 0.160000   0.304849   -0.095629
 0.165000   0.304359   -0.100443
 0.170000   0.303845   -0.105073
 0.175000   0.303308   -0.109582
 0.180000   0.302749   -0.113928
 0.185000   0.302169   -0.118113
 0.190000   0.301568   -0.122178
 0.195000   0.300947   -0.126079
 0.200000   0.300307   -0.129795
 0.205000   0.299649   -0.133331
 0.210000   0.298974   -0.136680
 0.215000   0.298282   -0.140013
 0.220000   0.297574   -0.143481
 0.225000   0.296847   -0.146564
 0.230000   0.296108   -0.149104
 0.235000   0.295356   -0.151438
 0.240000   0.294594   -0.153580
 0.245000   0.293821   -0.155546
 0.250000   0.293038   -0.157685
 0.255000   0.292244   -0.159808
 0.260000   0.291440   -0.161410
 0.265000   0.290630   -0.162699
 0.270000   0.289813   -0.163871
 0.275000   0.288991   -0.164973
 0.280000   0.288163   -0.166404
 0.285000   0.287327   -0.167664
 0.290000   0.286487   -0.168373
 0.295000   0.285643   -0.169019
 0.300000   0.284797   -0.169609
 0.305000   0.283947   -0.170473
 0.310000   0.283092   -0.171262
 0.315000   0.282234   -0.171636
 0.320000   0.281375   -0.171939
 0.325000   0.280515   -0.172233
 0.330000   0.279653   -0.172655
 0.335000   0.278789   -0.172940
 0.340000   0.277924   -0.172971
 0.345000   0.277059   -0.172974
 0.350000   0.276194   -0.173088
 0.355000   0.275328   -0.173260
 0.360000   0.274461   -0.173280
 0.365000   0.273595   -0.173229
 0.370000   0.272729   -0.173232
 0.375000   0.271863   -0.173379
 0.380000   0.270995   -0.173490
 0.385000   0.270128   -0.173473
 0.390000   0.269261   -0.173465
 0.395000   0.268393   -0.173567
 0.400000   0.267525   -0.173655
 0.405000   0.266657   -0.173585
 0.410000   0.265789   -0.173462
 0.415000   0.264922   -0.173370
 0.420000   0.264055   -0.173273
 0.425000   0.263189   -0.173052
 0.430000   0.262325   -0.172737
 0.435000   0.261462   -0.172412
 0.440000   0.260601   -0.172105
 0.445000   0.259741   -0.171711
 0.450000   0.258884   -0.171212
 0.455000   0.258029   -0.170706
 0.460000   0.257177   -0.170239
 0.465000   0.256326   -0.169690
 0.470000   0.255480   -0.168998
 0.475000   0.254636   -0.168230
 0.480000   0.253797   -0.167448
 0.485000   0.252962   -0.166542
 0.490000   0.252132   -0.165422
 0.495000   0.251308   -0.164173
 0.500000   0.250490   -0.162854
 0.505000   0.249679   -0.161389
 0.510000   0.248876   -0.159700
 0.515000   0.248082   -0.157855
 0.520000   0.247298   -0.155913
 0.525000   0.246523   -0.153840
 0.530000   0.245759   -0.151572
 0.535000   0.245007   -0.149153
 0.540000   0.244268   -0.146633
 0.545000   0.243541   -0.144013
 0.550000   0.242828   -0.141236
 0.555000   0.242129   -0.138300
 0.560000   0.241445   -0.135247
 0.565000   0.240776   -0.132108
 0.570000   0.240124   -0.128831
 0.575000   0.239488   -0.125378
 0.580000   0.238870   -0.121796
 0.585000   0.238270   -0.118115
 0.590000   0.237689   -0.114317
 0.595000   0.237127   -0.110376
 0.600000   0.236585   -0.106326
 0.605000   0.236064   -0.102192
 0.610000   0.235563   -0.097979
 0.615000   0.235084   -0.093669
 0.620000   0.234626   -0.089258
 0.625000   0.234191   -0.084760
 0.630000   0.233779   -0.080180
 0.635000   0.233389   -0.075517
 0.640000   0.233024   -0.070772
 0.645000   0.232682   -0.065960
 0.650000   0.232364   -0.061078
 0.655000   0.232071   -0.056145
 0.660000   0.231802   -0.051208
 0.665000   0.231559   -0.046264
 0.670000   0.231340   -0.041247
 0.675000   0.231146   -0.036029
 0.680000   0.230980   -0.030210
 0.685000   0.230844   -0.023594
 0.690000   0.230744   -0.016369
 0.695000   0.230680   -0.008589
 0.700000   0.230658   -0.000282
 0.705000   0.230678   0.008458
 0.710000   0.230742   0.017776
 0.715000   0.230855   0.027319
 0.720000   0.231015   0.036370
 0.725000   0.231219   0.044784
 0.730000   0.231463   0.052455
 0.735000   0.231744   0.059119
 0.740000   0.232055   0.064518
 0.745000   0.232389   0.068206
 0.750000   0.232737   0.069945
 0.755000   0.233088   0.069920
 0.760000   0.233436   0.068306
 0.765000   0.233771   0.065292
 0.770000   0.234089   0.060937
 0.775000   0.234381   0.055483
 0.780000   0.234644   0.049730
 0.785000   0.234878   0.044057
 0.790000   0.235084   0.038429
 0.795000   0.235262   0.033011
 0.800000   0.235414   0.027878
 0.805000   0.235541   0.023194
 0.810000   0.235646   0.019155
 0.815000   0.235733   0.015507
 0.820000   0.235801   0.011892
 0.825000   0.235852   0.008204
 0.830000   0.235883   0.004401
 0.835000   0.235896   0.000482
 0.840000   0.235888   -0.003419
 0.845000   0.235861   -0.007216
 0.850000   0.235816   -0.010929
 0.855000   0.235752   -0.014529
 0.860000   0.235671   -0.017973
 0.865000   0.235572   -0.021141
 0.870000   0.235459   -0.023924
 0.875000   0.235333   -0.026358
 0.880000   0.235196   -0.028530
 0.885000   0.235048   -0.030492
 0.890000   0.234891   -0.032243
 0.895000   0.234725   -0.033680
 0.900000   0.234554   -0.034982
 0.905000   0.234376   -0.036633
 0.910000   0.234188   -0.039424
 0.915000   0.233981   -0.045197
 0.920000   0.233736   -0.058099
 0.925000   0.233400   -0.086587
 0.930000   0.232870   -0.151353
 0.935000   0.231887   -0.298529
 0.940000   0.229884   -0.617165
 0.945000   0.225715   -1.245110
 0.950000   0.217433   -2.294050
 0.955000   0.202775   -3.610932
 0.960000   0.181324   -4.612614
 0.965000   0.156649   -4.651645
 0.970000   0.134808   -3.738071
 0.975000   0.119268   -2.537865
 0.980000   0.109429   -1.617481
 0.985000   0.103093   -1.097582
 0.990000   0.098453   -0.856557
 0.995000   0.094527   -0.752156
 1.000000   0.090932   -0.686195
201 psinorm ti(KeV) dti/dpsiN
 0.000000   5.339265   0.002205
 0.005000   5.338631   -0.255649
 0.010000   5.336708   -0.516689
 0.015000   5.333464   -0.783770
 0.020000   5.328870   -1.056159
 0.025000   5.322903   -1.332983
 0.030000   5.315541   -1.613266
 0.035000   5.306770   -1.895990
 0.040000   5.296581   -2.179746
 0.045000   5.284972   -2.463725
 0.050000   5.271943   -2.747469
 0.055000   5.257498   -3.030010
 0.060000   5.241643   -3.310533
 0.065000   5.224392   -3.588212
 0.070000   5.205761   -3.861416
 0.075000   5.185778   -4.129984
 0.080000   5.164461   -4.394841
 0.085000   5.141830   -4.655749
 0.090000   5.117904   -4.912631
 0.095000   5.092704   -5.165526
 0.100000   5.066249   -5.414301
 0.105000   5.038560   -5.658747
 0.110000   5.009661   -5.898257
 0.115000   4.979578   -6.132146
 0.120000   4.948340   -6.360313
 0.125000   4.915975   -6.582996
 0.130000   4.882510   -6.801213
 0.135000   4.847963   -7.014593
 0.140000   4.812364   -7.220395
 0.145000   4.775759   -7.416877
 0.150000   4.738195   -7.603362
 0.155000   4.699725   -7.778960
 0.160000   4.660405   -7.942530
 0.165000   4.620300   -8.092629
 0.170000   4.579479   -8.229012
 0.175000   4.538010   -8.351852
 0.180000   4.495961   -8.460746
 0.185000   4.453402   -8.555715
 0.190000   4.410403   -8.636857
 0.195000   4.367034   -8.708560
 0.200000   4.323318   -8.778616
 0.205000   4.279247   -8.848996
 0.210000   4.234828   -8.918120
 0.215000   4.190066   -8.985557
 0.220000   4.144972   -9.052329
 0.225000   4.099543   -9.121332
 0.230000   4.053759   -9.187067
 0.235000   4.007672   -9.244831
 0.240000   3.961311   -9.296385
 0.245000   3.914708   -9.340316
 0.250000   3.867908   -9.375970
 0.255000   3.820949   -9.403419
 0.260000   3.773873   -9.412279
 0.265000   3.726826   -9.396971
 0.270000   3.679904   -9.361790
 0.275000   3.633208   -9.305997
 0.280000   3.586844   -9.229032
 0.285000   3.540918   -9.127388
 0.290000   3.495570   -9.002116
 0.295000   3.450897   -8.858372
 0.300000   3.406986   -8.698911
 0.305000   3.363907   -8.527858
 0.310000   3.321708   -8.349956
 0.315000   3.280408   -8.167089
 0.320000   3.240037   -7.987983
 0.325000   3.200528   -7.817363
 0.330000   3.161863   -7.650746
 0.335000   3.124021   -7.488398
 0.340000   3.086979   -7.330443
 0.345000   3.050716   -7.180185
 0.350000   3.015177   -7.036140
 0.355000   2.980355   -6.893244
 0.360000   2.946245   -6.751041
 0.365000   2.912844   -6.608435
 0.370000   2.880160   -6.463232
 0.375000   2.848212   -6.313799
 0.380000   2.817022   -6.149446
 0.385000   2.786718   -5.963428
 0.390000   2.757388   -5.761432
 0.395000   2.729103   -5.546694
 0.400000   2.701921   -5.321582
 0.405000   2.675887   -5.083988
 0.410000   2.651081   -4.837838
 0.415000   2.627509   -4.594744
 0.420000   2.605134   -4.358693
 0.425000   2.583922   -4.130389
 0.430000   2.563830   -3.911606
 0.435000   2.544806   -3.700274
 0.440000   2.526827   -3.498951
 0.445000   2.509817   -3.314439
 0.450000   2.493683   -3.145629
 0.455000   2.478360   -2.989995
 0.460000   2.463783   -2.847537
 0.465000   2.449885   -2.717910
 0.470000   2.436604   -2.602343
 0.475000   2.423861   -2.500916
 0.480000   2.411595   -2.410092
 0.485000   2.399761   -2.326616
 0.490000   2.388328   -2.248372
 0.495000   2.377277   -2.173916
 0.500000   2.366589   -2.102426
 0.505000   2.356253   -2.034338
 0.510000   2.346246   -1.971084
 0.515000   2.336542   -1.913502
 0.520000   2.327111   -1.861831
 0.525000   2.317923   -1.816119
 0.530000   2.308950   -1.776265
 0.535000   2.300161   -1.742517
 0.540000   2.291525   -1.715030
 0.545000   2.283010   -1.693618
 0.550000   2.274588   -1.678218
 0.555000   2.266228   -1.668711
 0.560000   2.257901   -1.664867
 0.565000   2.249580   -1.666834
 0.570000   2.241233   -1.674612
 0.575000   2.232834   -1.687829
 0.580000   2.224355   -1.706297
 0.585000   2.215771   -1.729809
 0.590000   2.207057   -1.758353
 0.595000   2.198187   -1.792316
 0.600000   2.189133   -1.832085
 0.605000   2.179866   -1.877760
 0.610000   2.170356   -1.929305
 0.615000   2.160573   -1.986576
 0.620000   2.150490   -2.051038
 0.625000   2.140063   -2.121153
 0.630000   2.129278   -2.194530
 0.635000   2.118117   -2.271643
 0.640000   2.106562   -2.351891
 0.645000   2.094599   -2.434502
 0.650000   2.082217   -2.520656
 0.655000   2.069392   -2.609040
 0.660000   2.056127   -2.698013
 0.665000   2.042412   -2.788864
 0.670000   2.028238   -2.881191
 0.675000   2.013600   -2.973972
 0.680000   1.998498   -3.067983
 0.685000   1.982920   -3.158516
 0.690000   1.966913   -3.239430
 0.695000   1.950526   -3.311088
 0.700000   1.933802   -3.373559
 0.705000   1.916790   -3.426181
 0.710000   1.899540   -3.467918
 0.715000   1.882111   -3.497074
 0.720000   1.864570   -3.513524
 0.725000   1.846976   -3.518172
 0.730000   1.829388   -3.511231
 0.735000   1.811863   -3.493179
 0.740000   1.794456   -3.463554
 0.745000   1.777228   -3.426075
 0.750000   1.760195   -3.388164
 0.755000   1.743346   -3.351881
 0.760000   1.726677   -3.316643
 0.765000   1.710180   -3.282682
 0.770000   1.693850   -3.250562
 0.775000   1.677674   -3.218646
 0.780000   1.661663   -3.181224
 0.785000   1.645862   -3.135760
 0.790000   1.630306   -3.083370
 0.795000   1.615028   -3.024597
 0.800000   1.600060   -2.960489
 0.805000   1.585423   -2.893403
 0.810000   1.571126   -2.826400
 0.815000   1.557159   -2.761352
 0.820000   1.543512   -2.698997
 0.825000   1.530169   -2.639692
 0.830000   1.517115   -2.583972
 0.835000   1.504330   -2.532001
 0.840000   1.491795   -2.482429
 0.845000   1.479505   -2.437658
 0.850000   1.467419   -2.402676
 0.855000   1.455479   -2.380007
 0.860000   1.443619   -2.371922
 0.865000   1.431759   -2.383766
 0.870000   1.419781   -2.412100
 0.875000   1.407638   -2.454768
 0.880000   1.395233   -2.520361
 0.885000   1.382435   -2.615949
 0.890000   1.369074   -2.750650
 0.895000   1.354928   -2.952329
 0.900000   1.339550   -3.219883
 0.905000   1.322730   -3.548763
 0.910000   1.304063   -3.966299
 0.915000   1.283067   -4.488875
 0.920000   1.259174   -5.131971
 0.925000   1.231747   -5.951945
 0.930000   1.199655   -6.919120
 0.935000   1.162556   -7.971733
 0.940000   1.119937   -9.108508
 0.945000   1.071471   -10.277774
 0.950000   1.017160   -11.402713
 0.955000   0.957443   -12.429637
 0.960000   0.892863   -13.229664
 0.965000   0.825147   -13.672285
 0.970000   0.756140   -13.732582
 0.975000   0.687821   -13.398128
 0.980000   0.622159   -12.692708
 0.985000   0.560894   -11.676756
 0.990000   0.505392   -10.430276
 0.995000   0.456591   -9.065307
 1.000000   0.414738   -7.675746
201 psinorm nb(10^20/m^3) dnb/dpsiN
 0.000000   0.092986   0.087223
 0.005000   0.093197   -0.002962
 0.010000   0.092957   -0.075502
 0.015000   0.092442   -0.124533
 0.020000   0.091712   -0.165081
 0.025000   0.090791   -0.199581
 0.030000   0.089716   -0.227771
 0.035000   0.088514   -0.251088
 0.040000   0.087205   -0.270530
 0.045000   0.085808   -0.286848
 0.050000   0.084336   -0.300070
 0.055000   0.082808   -0.310102
 0.060000   0.081235   -0.317780
 0.065000   0.079630   -0.323262
 0.070000   0.078003   -0.326661
 0.075000   0.076363   -0.328496
 0.080000   0.074718   -0.328858
 0.085000   0.073075   -0.327867
 0.090000   0.071439   -0.325633
 0.095000   0.069818   -0.322267
 0.100000   0.068216   -0.318116
 0.105000   0.066637   -0.313284
 0.110000   0.065084   -0.307813
 0.115000   0.063559   -0.301772
 0.120000   0.062066   -0.295269
 0.125000   0.060606   -0.288320
 0.130000   0.059183   -0.281031
 0.135000   0.057796   -0.273399
 0.140000   0.056449   -0.265581
 0.145000   0.055140   -0.257767
 0.150000   0.053871   -0.249901
 0.155000   0.052641   -0.242029
 0.160000   0.051451   -0.234017
 0.165000   0.050301   -0.225979
 0.170000   0.049191   -0.218143
 0.175000   0.048120   -0.210446
 0.180000   0.047086   -0.202933
 0.185000   0.046090   -0.195604
 0.190000   0.045130   -0.188422
 0.195000   0.044206   -0.181437
 0.200000   0.043316   -0.174671
 0.205000   0.042459   -0.168123
 0.210000   0.041635   -0.161801
 0.215000   0.040841   -0.155534
 0.220000   0.040079   -0.149169
 0.225000   0.039350   -0.143222
 0.230000   0.038647   -0.137856
 0.235000   0.037971   -0.132736
 0.240000   0.037320   -0.127854
 0.245000   0.036693   -0.123198
 0.250000   0.036088   -0.118423
 0.255000   0.035508   -0.113721
 0.260000   0.034951   -0.109606
 0.265000   0.034412   -0.105879
 0.270000   0.033892   -0.102343
 0.275000   0.033389   -0.098957
 0.280000   0.032902   -0.095323
 0.285000   0.032436   -0.091948
 0.290000   0.031983   -0.089216
 0.295000   0.031543   -0.086637
 0.300000   0.031116   -0.084202
 0.305000   0.030701   -0.081580
 0.310000   0.030301   -0.079115
 0.315000   0.029910   -0.077151
 0.320000   0.029529   -0.075326
 0.325000   0.029157   -0.073561
 0.330000   0.028794   -0.071720
 0.335000   0.028440   -0.070067
 0.340000   0.028093   -0.068718
 0.345000   0.027753   -0.067443
 0.350000   0.027418   -0.066111
 0.355000   0.027091   -0.064788
 0.360000   0.026771   -0.063687
 0.365000   0.026455   -0.062730
 0.370000   0.026143   -0.061791
 0.375000   0.025837   -0.060775
 0.380000   0.025536   -0.059857
 0.385000   0.025238   -0.059123
 0.390000   0.024944   -0.058420
 0.395000   0.024654   -0.057637
 0.400000   0.024368   -0.056883
 0.405000   0.024085   -0.056288
 0.410000   0.023805   -0.055732
 0.415000   0.023528   -0.055121
 0.420000   0.023254   -0.054481
 0.425000   0.022983   -0.053923
 0.430000   0.022715   -0.053413
 0.435000   0.022449   -0.052857
 0.440000   0.022186   -0.052235
 0.445000   0.021926   -0.051666
 0.450000   0.021669   -0.051169
 0.455000   0.021415   -0.050642
 0.460000   0.021163   -0.050041
 0.465000   0.020914   -0.049483
 0.470000   0.020668   -0.049019
 0.475000   0.020424   -0.048559
 0.480000   0.020183   -0.048024
 0.485000   0.019944   -0.047518
 0.490000   0.019707   -0.047121
 0.495000   0.019473   -0.046738
 0.500000   0.019240   -0.046301
 0.505000   0.019010   -0.045876
 0.510000   0.018781   -0.045539
 0.515000   0.018554   -0.045221
 0.520000   0.018329   -0.044864
 0.525000   0.018106   -0.044499
 0.530000   0.017884   -0.044193
 0.535000   0.017664   -0.043910
 0.540000   0.017445   -0.043606
 0.545000   0.017228   -0.043278
 0.550000   0.017012   -0.042987
 0.555000   0.016798   -0.042733
 0.560000   0.016585   -0.042478
 0.565000   0.016373   -0.042191
 0.570000   0.016163   -0.041922
 0.575000   0.015954   -0.041707
 0.580000   0.015746   -0.041501
 0.585000   0.015539   -0.041278
 0.590000   0.015333   -0.041062
 0.595000   0.015128   -0.040889
 0.600000   0.014924   -0.040736
 0.605000   0.014721   -0.040587
 0.610000   0.014518   -0.040445
 0.615000   0.014316   -0.040333
 0.620000   0.014115   -0.040254
 0.625000   0.013914   -0.040187
 0.630000   0.013713   -0.040131
 0.635000   0.013513   -0.040094
 0.640000   0.013312   -0.040079
 0.645000   0.013112   -0.040080
 0.650000   0.012911   -0.040092
 0.655000   0.012711   -0.040124
 0.660000   0.012510   -0.040173
 0.665000   0.012309   -0.040226
 0.670000   0.012108   -0.040288
 0.675000   0.011906   -0.040356
 0.680000   0.011704   -0.040453
 0.685000   0.011502   -0.040562
 0.690000   0.011299   -0.040659
 0.695000   0.011095   -0.040760
 0.700000   0.010891   -0.040865
 0.705000   0.010686   -0.040989
 0.710000   0.010481   -0.041120
 0.715000   0.010275   -0.041240
 0.720000   0.010069   -0.041356
 0.725000   0.009862   -0.041472
 0.730000   0.009654   -0.041590
 0.735000   0.009446   -0.041717
 0.740000   0.009237   -0.041836
 0.745000   0.009027   -0.041938
 0.750000   0.008818   -0.042032
 0.755000   0.008607   -0.042116
 0.760000   0.008396   -0.042187
 0.765000   0.008185   -0.042246
 0.770000   0.007974   -0.042283
 0.775000   0.007762   -0.042302
 0.780000   0.007551   -0.042311
 0.785000   0.007339   -0.042308
 0.790000   0.007128   -0.042289
 0.795000   0.006916   -0.042251
 0.800000   0.006705   -0.042192
 0.805000   0.006495   -0.042110
 0.810000   0.006284   -0.042004
 0.815000   0.006074   -0.041871
 0.820000   0.005866   -0.041707
 0.825000   0.005657   -0.041510
 0.830000   0.005450   -0.041270
 0.835000   0.005245   -0.040970
 0.840000   0.005041   -0.040626
 0.845000   0.004838   -0.040253
 0.850000   0.004638   -0.039834
 0.855000   0.004440   -0.039367
 0.860000   0.004245   -0.038852
 0.865000   0.004052   -0.038307
 0.870000   0.003861   -0.037767
 0.875000   0.003674   -0.037263
 0.880000   0.003489   -0.036795
 0.885000   0.003306   -0.036355
 0.890000   0.003125   -0.035964
 0.895000   0.002946   -0.035634
 0.900000   0.002769   -0.035357
 0.905000   0.002593   -0.035147
 0.910000   0.002417   -0.035013
 0.915000   0.002243   -0.034942
 0.920000   0.002068   -0.034884
 0.925000   0.001894   -0.034776
 0.930000   0.001720   -0.034549
 0.935000   0.001548   -0.034105
 0.940000   0.001379   -0.033332
 0.945000   0.001215   -0.032160
 0.950000   0.001058   -0.030649
 0.955000   0.000908   -0.028927
 0.960000   0.000768   -0.027004
 0.965000   0.000638   -0.024630
 0.970000   0.000522   -0.021515
 0.975000   0.000423   -0.017813
 0.980000   0.000344   -0.014293
 0.985000   0.000280   -0.011863
 0.990000   0.000225   -0.010801
 0.995000   0.000172   -0.011604
 1.000000   0.000109   -0.013646
201 psinorm pb(KPa) dpb/dpsiN
 0.000000   37.805551   21.037960
 0.005000   37.824944   -13.280434
 0.010000   37.672746   -41.505180
 0.015000   37.409893   -60.942801
 0.020000   37.063318   -76.774446
 0.025000   36.642148   -90.279447
 0.030000   36.160524   -101.102533
 0.035000   35.631123   -109.914092
 0.040000   35.061383   -117.230671
 0.045000   34.458816   -123.281333
 0.050000   33.828570   -128.172805
 0.055000   33.177088   -131.804259
 0.060000   32.510527   -134.397400
 0.065000   31.833114   -136.110193
 0.070000   31.149425   -137.000528
 0.075000   30.463109   -137.253428
 0.080000   29.776891   -136.945173
 0.085000   29.093657   -136.153873
 0.090000   28.415352   -134.893869
 0.095000   27.744718   -133.189368
 0.100000   27.083458   -131.211363
 0.105000   26.432605   -129.027476
 0.110000   25.793184   -126.612606
 0.115000   25.166479   -123.957801
 0.120000   24.553606   -121.117583
 0.125000   23.955303   -118.124553
 0.130000   23.372360   -115.016880
 0.135000   22.805134   -111.787252
 0.140000   22.254488   -108.465176
 0.145000   21.720482   -105.158503
 0.150000   21.202903   -101.884987
 0.155000   20.701632   -98.629866
 0.160000   20.216604   -95.334055
 0.165000   19.748292   -92.041327
 0.170000   19.296191   -88.836589
 0.175000   18.859926   -85.699031
 0.180000   18.439200   -82.669042
 0.185000   18.033236   -79.723842
 0.190000   17.641962   -76.816367
 0.195000   17.265072   -73.986165
 0.200000   16.902100   -71.248866
 0.205000   16.552583   -68.603944
 0.210000   16.216061   -66.053645
 0.215000   15.892047   -63.531902
 0.220000   15.580742   -60.979391
 0.225000   15.282253   -58.572367
 0.230000   14.995018   -56.389033
 0.235000   14.718363   -54.328771
 0.240000   14.451730   -52.370903
 0.245000   14.194654   -50.503226
 0.250000   13.946698   -48.594704
 0.255000   13.708707   -46.718657
 0.260000   13.479512   -45.068520
 0.265000   13.258021   -43.568717
 0.270000   13.043824   -42.146073
 0.275000   12.836561   -40.782420
 0.280000   12.636000   -39.328355
 0.285000   12.443277   -37.974818
 0.290000   12.256252   -36.866107
 0.295000   12.074616   -35.817714
 0.300000   11.898075   -34.826754
 0.305000   11.726348   -33.767188
 0.310000   11.560403   -32.770118
 0.315000   11.398647   -31.964330
 0.320000   11.240760   -31.212427
 0.325000   11.086523   -30.485315
 0.330000   10.935907   -29.745765
 0.335000   10.789065   -29.079484
 0.340000   10.645112   -28.515642
 0.345000   10.503909   -27.979457
 0.350000   10.365317   -27.422819
 0.355000   10.229681   -26.871050
 0.360000   10.096607   -26.403653
 0.365000   9.965644   -25.991236
 0.370000   9.836694   -25.586477
 0.375000   9.709779   -25.154383
 0.380000   9.585150   -24.759960
 0.385000   9.462180   -24.433995
 0.390000   9.340810   -24.119298
 0.395000   9.220987   -23.776049
 0.400000   9.103050   -23.448461
 0.405000   8.986502   -23.182262
 0.410000   8.871227   -22.931669
 0.415000   8.757186   -22.661873
 0.420000   8.644609   -22.380949
 0.425000   8.533376   -22.127864
 0.430000   8.423330   -21.890642
 0.435000   8.314470   -21.635710
 0.440000   8.206973   -21.353996
 0.445000   8.100930   -21.091340
 0.450000   7.996059   -20.856017
 0.455000   7.892369   -20.606599
 0.460000   7.789994   -20.329613
 0.465000   7.689073   -20.074863
 0.470000   7.589245   -19.859688
 0.475000   7.490476   -19.648359
 0.480000   7.392761   -19.414835
 0.485000   7.296328   -19.196295
 0.490000   7.200798   -19.019917
 0.495000   7.106129   -18.852051
 0.500000   7.012278   -18.672277
 0.505000   6.919406   -18.501552
 0.510000   6.827262   -18.361186
 0.515000   6.735794   -18.228080
 0.520000   6.644981   -18.085614
 0.525000   6.554938   -17.945967
 0.530000   6.465522   -17.823928
 0.535000   6.376699   -17.704519
 0.540000   6.288477   -17.577458
 0.545000   6.200924   -17.443757
 0.550000   6.114039   -17.320381
 0.555000   6.027721   -17.207256
 0.560000   5.941967   -17.092420
 0.565000   5.856796   -16.965519
 0.570000   5.772311   -16.842266
 0.575000   5.688374   -16.733576
 0.580000   5.604976   -16.626489
 0.585000   5.522109   -16.513779
 0.590000   5.439838   -16.404117
 0.595000   5.358068   -16.306739
 0.600000   5.276770   -16.212692
 0.605000   5.195941   -16.118000
 0.610000   5.115590   -16.027080
 0.615000   5.035670   -15.948455
 0.620000   4.956106   -15.877714
 0.625000   4.876893   -15.808382
 0.630000   4.798022   -15.742762
 0.635000   4.719465   -15.683421
 0.640000   4.641188   -15.630429
 0.645000   4.563161   -15.581988
 0.650000   4.485368   -15.536515
 0.655000   4.407796   -15.497183
 0.660000   4.330396   -15.462226
 0.665000   4.253173   -15.427959
 0.670000   4.176117   -15.395662
 0.675000   4.099217   -15.364780
 0.680000   4.022469   -15.343044
 0.685000   3.945786   -15.324268
 0.690000   3.869226   -15.300708
 0.695000   3.792779   -15.278502
 0.700000   3.716441   -15.257050
 0.705000   3.640209   -15.241392
 0.710000   3.564027   -15.228013
 0.715000   3.487929   -15.211455
 0.720000   3.411913   -15.195021
 0.725000   3.335978   -15.178380
 0.730000   3.260129   -15.162826
 0.735000   3.184350   -15.150272
 0.740000   3.108626   -15.135229
 0.745000   3.032998   -15.115048
 0.750000   2.957476   -15.091961
 0.755000   2.882078   -15.064260
 0.760000   2.806833   -15.031151
 0.765000   2.731767   -14.991680
 0.770000   2.656916   -14.944824
 0.775000   2.582319   -14.893536
 0.780000   2.507981   -14.840541
 0.785000   2.433913   -14.784823
 0.790000   2.360133   -14.725079
 0.795000   2.286662   -14.659707
 0.800000   2.213535   -14.588756
 0.805000   2.140775   -14.512055
 0.810000   2.068415   -14.427945
 0.815000   1.996495   -14.335235
 0.820000   1.925063   -14.232451
 0.825000   1.854171   -14.118416
 0.830000   1.783878   -13.990052
 0.835000   1.714270   -13.840097
 0.840000   1.645477   -13.675548
 0.845000   1.577515   -13.501591
 0.850000   1.510462   -13.311722
 0.855000   1.444398   -13.105614
 0.860000   1.379405   -12.883527
 0.865000   1.315562   -12.648928
 0.870000   1.252916   -12.409901
 0.875000   1.191463   -12.173461
 0.880000   1.131182   -11.938822
 0.885000   1.072075   -11.700787
 0.890000   1.014174   -11.471859
 0.895000   0.957357   -11.260369
 0.900000   0.901570   -11.063304
 0.905000   0.846723   -10.887960
 0.910000   0.792690   -10.741418
 0.915000   0.739309   -10.626039
 0.920000   0.686430   -10.536376
 0.925000   0.633946   -10.462131
 0.930000   0.581809   -10.386379
 0.935000   0.530082   -10.277526
 0.940000   0.479033   -10.088413
 0.945000   0.429198   -9.774322
 0.950000   0.381290   -9.335081
 0.955000   0.335847   -8.855739
 0.960000   0.292733   -8.483705
 0.965000   0.251010   -8.272569
 0.970000   0.210007   -8.045283
 0.975000   0.170557   -7.537908
 0.980000   0.134628   -6.706813
 0.985000   0.103489   -5.744445
 0.990000   0.077184   -4.775991
 0.995000   0.055729   -4.197731
 1.000000   0.035206   -4.011309
201 psinorm ptot(KPa) dptot/dpsiN
 0.000000   99.738749   -78.082729
 0.005000   99.279924   -105.447442
 0.010000   98.684275   -128.237192
 0.015000   97.997552   -144.269985
 0.020000   97.241575   -157.442038
 0.025000   96.423132   -168.823070
 0.030000   95.553344   -178.077325
 0.035000   94.642358   -185.748469
 0.040000   93.695860   -192.261889
 0.045000   92.719739   -197.779254
 0.050000   91.718067   -202.402478
 0.055000   90.695715   -206.033514
 0.060000   89.657732   -208.818301
 0.065000   88.607532   -210.896333
 0.070000   87.548769   -212.306382
 0.075000   86.484468   -213.187875
 0.080000   85.416890   -213.613216
 0.085000   84.348336   -213.647725
 0.090000   83.280413   -213.294785
 0.095000   82.215388   -212.568017
 0.100000   81.154733   -211.607815
 0.105000   80.099310   -210.471047
 0.110000   79.050022   -209.124669
 0.115000   78.008063   -207.549346
 0.120000   76.974529   -205.789340
 0.125000   75.950170   -203.876026
 0.130000   74.935768   -201.843577
 0.135000   73.931734   -199.681833
 0.140000   72.938950   -197.393232
 0.145000   71.957802   -195.061405
 0.150000   70.988336   -192.704789
 0.155000   70.030754   -190.300413
 0.160000   69.085332   -187.793262
 0.165000   68.152821   -185.211089
 0.170000   67.233221   -182.620990
 0.175000   66.326611   -180.008210
 0.180000   65.433139   -177.408717
 0.185000   64.552524   -174.800495
 0.190000   63.685134   -172.140772
 0.195000   62.831116   -169.488699
 0.200000   61.990247   -166.898735
 0.205000   61.162129   -164.381047
 0.210000   60.346436   -161.929819
 0.215000   59.542831   -159.488615
 0.220000   58.751550   -157.013408
 0.225000   57.972697   -154.660691
 0.230000   57.204943   -152.471580
 0.235000   56.447981   -150.345363
 0.240000   55.701490   -148.271913
 0.245000   54.965262   -146.233780
 0.250000   54.239152   -144.118892
 0.255000   53.524073   -141.989632
 0.260000   52.819256   -139.958369
 0.265000   52.124489   -137.936796
 0.270000   51.439888   -135.886564
 0.275000   50.765623   -133.790047
 0.280000   50.101987   -131.519129
 0.285000   49.450432   -129.220261
 0.290000   48.809785   -127.023002
 0.295000   48.180202   -124.797710
 0.300000   47.561807   -122.556364
 0.305000   46.954639   -120.211414
 0.310000   46.359693   -117.898490
 0.315000   45.775654   -115.737892
 0.320000   45.202314   -113.653086
 0.325000   44.639123   -111.640771
 0.330000   44.085907   -109.648895
 0.335000   43.542634   -107.750938
 0.340000   43.008397   -105.970859
 0.345000   42.482925   -104.260768
 0.350000   41.965790   -102.571886
 0.355000   41.457206   -100.902819
 0.360000   40.956761   -99.320908
 0.365000   40.463997   -97.795649
 0.370000   39.978805   -96.275590
 0.375000   39.501241   -94.722402
 0.380000   39.031581   -93.144191
 0.385000   38.569799   -91.537536
 0.390000   38.116206   -89.878835
 0.395000   37.671011   -88.148271
 0.400000   37.234723   -86.396093
 0.405000   36.807050   -84.653076
 0.410000   36.388192   -82.896415
 0.415000   35.978086   -81.147570
 0.420000   35.576716   -79.430803
 0.425000   35.183778   -77.782897
 0.430000   34.798887   -76.200688
 0.435000   34.421771   -74.644517
 0.440000   34.052442   -73.117125
 0.445000   33.690600   -71.689450
 0.450000   33.335548   -70.363292
 0.455000   32.986967   -69.089264
 0.460000   32.644655   -67.854934
 0.465000   32.308418   -66.703140
 0.470000   31.977624   -65.653522
 0.475000   31.651882   -64.672789
 0.480000   31.330896   -63.721408
 0.485000   31.014668   -62.817824
 0.490000   30.702718   -61.976431
 0.495000   30.394904   -61.160501
 0.500000   30.091113   -60.348233
 0.505000   29.791422   -59.559513
 0.510000   29.495517   -58.818623
 0.515000   29.203235   -58.108415
 0.520000   28.914433   -57.415148
 0.525000   28.629084   -56.749732
 0.530000   28.346936   -56.123853
 0.535000   28.067845   -55.524896
 0.540000   27.791687   -54.944817
 0.545000   27.518397   -54.383565
 0.550000   27.247851   -53.855520
 0.555000   26.979842   -53.359862
 0.560000   26.714253   -52.884907
 0.565000   26.450993   -52.421880
 0.570000   26.190034   -51.984403
 0.575000   25.931149   -51.580385
 0.580000   25.674230   -51.197600
 0.585000   25.419173   -50.828932
 0.590000   25.165941   -50.482205
 0.595000   24.914351   -50.167149
 0.600000   24.664269   -49.877461
 0.605000   24.415576   -49.610243
 0.610000   24.168167   -49.369883
 0.615000   23.921877   -49.163554
 0.620000   23.676531   -48.992578
 0.625000   23.431952   -48.844820
 0.630000   23.188083   -48.713205
 0.635000   22.944820   -48.602200
 0.640000   22.702061   -48.509566
 0.645000   22.459724   -48.431071
 0.650000   22.217750   -48.369887
 0.655000   21.976025   -48.324593
 0.660000   21.734504   -48.288402
 0.665000   21.493141   -48.262911
 0.670000   21.251875   -48.246174
 0.675000   21.010679   -48.230371
 0.680000   20.769572   -48.215953
 0.685000   20.528520   -48.173761
 0.690000   20.287834   -48.077860
 0.695000   20.047741   -47.937980
 0.700000   19.808454   -47.755331
 0.705000   19.570188   -47.535354
 0.710000   19.333101   -47.267548
 0.715000   19.097512   -46.949283
 0.720000   18.863608   -46.601457
 0.725000   18.631498   -46.230425
 0.730000   18.401304   -45.840155
 0.735000   18.173096   -45.440009
 0.740000   17.946904   -45.027751
 0.745000   17.722819   -44.624615
 0.750000   17.500657   -44.265976
 0.755000   17.280159   -43.952224
 0.760000   17.061135   -43.674648
 0.765000   16.843413   -43.427527
 0.770000   16.626860   -43.209575
 0.775000   16.411317   -43.010765
 0.780000   16.196752   -42.792544
 0.785000   15.983391   -42.535239
 0.790000   15.771400   -42.242808
 0.795000   15.560963   -41.912394
 0.800000   15.352276   -41.546796
 0.805000   15.145495   -41.152034
 0.810000   14.940756   -40.734976
 0.815000   14.738146   -40.307589
 0.820000   14.537680   -39.878988
 0.825000   14.339356   -39.451580
 0.830000   14.143164   -39.025181
 0.835000   13.949104   -38.593058
 0.840000   13.757233   -38.153954
 0.845000   13.567564   -37.720693
 0.850000   13.380026   -37.307041
 0.855000   13.194494   -36.922118
 0.860000   13.010805   -36.574557
 0.865000   12.828748   -36.287241
 0.870000   12.647933   -36.053609
 0.875000   12.468212   -35.875186
 0.880000   12.289181   -35.791347
 0.885000   12.110299   -35.833592
 0.890000   11.930845   -36.063624
 0.895000   11.749663   -36.620388
 0.900000   11.564641   -37.537509
 0.905000   11.374287   -38.876315
 0.910000   11.175878   -40.872919
 0.915000   10.965558   -43.807734
 0.920000   10.737801   -48.115276
 0.925000   10.484405   -54.669840
 0.930000   10.191102   -64.539457
 0.935000   9.839011   -79.531523
 0.940000   9.395787   -102.770388
 0.945000   8.811307   -137.533680
 0.950000   8.020450   -183.660372
 0.955000   6.974703   -230.443730
 0.960000   5.716013   -255.125098
 0.965000   4.423452   -240.547642
 0.970000   3.310536   -195.227419
 0.975000   2.471178   -143.471871
 0.980000   1.875818   -101.385597
 0.985000   1.457322   -71.666898
 0.990000   1.159149   -51.424628
 0.995000   0.943076   -37.890906
 1.000000   0.780240   -27.243553
201 psinorm omeg(kRad/s) domeg/dpsiN
 0.000000   63.303177   0.015593
 0.005000   63.302648   -0.227351
 0.010000   63.300904   -0.494873
 0.015000   63.297699   -0.813411
 0.020000   63.292770   -1.185682
 0.025000   63.285842   -1.612654
 0.030000   63.276643   -2.093773
 0.035000   63.264905   -2.626920
 0.040000   63.250374   -3.205193
 0.045000   63.232853   -3.824064
 0.050000   63.212133   -4.481340
 0.055000   63.188039   -5.170946
 0.060000   63.160424   -5.886831
 0.065000   63.129171   -6.622086
 0.070000   63.094203   -7.357284
 0.075000   63.055598   -8.090420
 0.080000   63.013299   -8.834190
 0.085000   62.967256   -9.586541
 0.090000   62.917433   -10.348072
 0.095000   62.863776   -11.122327
 0.100000   62.806210   -11.904678
 0.105000   62.744729   -12.701657
 0.110000   62.679194   -13.523850
 0.115000   62.609490   -14.368152
 0.120000   62.535512   -15.239361
 0.125000   62.457097   -16.151008
 0.130000   62.374002   -17.126649
 0.135000   62.285830   -18.181116
 0.140000   62.192191   -19.296815
 0.145000   62.092862   -20.457086
 0.150000   61.987620   -21.660961
 0.155000   61.876252   -22.906205
 0.160000   61.758558   -24.195201
 0.165000   61.634300   -25.518747
 0.170000   61.503370   -26.853950
 0.175000   61.365761   -28.192847
 0.180000   61.221442   -29.533671
 0.185000   61.070424   -30.868841
 0.190000   60.912754   -32.189819
 0.195000   60.748526   -33.496835
 0.200000   60.577785   -34.804396
 0.205000   60.400482   -36.108382
 0.210000   60.216701   -37.386580
 0.215000   60.026616   -38.622222
 0.220000   59.830479   -39.793486
 0.225000   59.628681   -40.872288
 0.230000   59.421756   -41.886829
 0.235000   59.209813   -42.862232
 0.240000   58.993134   -43.783457
 0.245000   58.771979   -44.654558
 0.250000   58.546588   -45.469444
 0.255000   58.317284   -46.184138
 0.260000   58.084747   -46.824851
 0.265000   57.849036   -47.419345
 0.270000   57.610554   -47.937186
 0.275000   57.369664   -48.387936
 0.280000   57.126674   -48.779184
 0.285000   56.881872   -49.084100
 0.290000   56.635833   -49.390529
 0.295000   56.387967   -49.760542
 0.300000   56.138228   -50.134241
 0.305000   55.886624   -50.498165
 0.310000   55.633246   -50.833002
 0.315000   55.378294   -51.085787
 0.320000   55.122388   -51.293530
 0.325000   54.865359   -51.505994
 0.330000   54.607328   -51.697383
 0.335000   54.348385   -51.875485
 0.340000   54.088573   -52.049180
 0.345000   53.827893   -52.220171
 0.350000   53.566372   -52.420980
 0.355000   53.303683   -52.670195
 0.360000   53.039670   -52.950578
 0.365000   52.774178   -53.258662
 0.370000   52.507083   -53.583425
 0.375000   52.238343   -53.896324
 0.380000   51.968120   -54.109756
 0.385000   51.697246   -54.164374
 0.390000   51.426476   -54.071663
 0.395000   51.156529   -53.836069
 0.400000   50.888115   -53.460789
 0.405000   50.621921   -52.906649
 0.410000   50.359049   -52.287732
 0.415000   50.099044   -51.925793
 0.420000   49.839791   -52.054292
 0.425000   49.578501   -52.781616
 0.430000   49.311975   -54.156433
 0.435000   49.036937   -56.393810
 0.440000   48.748037   -59.486462
 0.445000   48.442072   -62.925403
 0.450000   48.118783   -66.499908
 0.455000   47.777073   -70.228514
 0.460000   47.416498   -73.975238
 0.465000   47.037321   -77.837209
 0.470000   46.638126   -81.638080
 0.475000   46.220940   -84.617397
 0.480000   45.791952   -86.580325
 0.485000   45.355137   -87.687325
 0.490000   44.915078   -87.837003
 0.495000   44.476767   -87.006100
 0.500000   44.045017   -85.113434
 0.505000   43.625632   -82.172948
 0.510000   43.223288   -78.518288
 0.515000   42.840449   -74.439111
 0.520000   42.478897   -70.064600
 0.525000   42.139803   -65.480283
 0.530000   41.824094   -60.721375
 0.535000   41.532590   -56.012837
 0.540000   41.263966   -51.541835
 0.545000   41.017171   -47.313943
 0.550000   40.790826   -43.386972
 0.555000   40.583302   -39.788040
 0.560000   40.392946   -36.497083
 0.565000   40.218331   -33.648051
 0.570000   40.056465   -31.300887
 0.575000   39.905322   -29.355481
 0.580000   39.762910   -27.804050
 0.585000   39.627281   -26.639436
 0.590000   39.496516   -25.857390
 0.595000   39.368707   -25.425418
 0.600000   39.242262   -25.285835
 0.605000   39.115849   -25.413344
 0.610000   38.988128   -25.810262
 0.615000   38.857746   -26.479010
 0.620000   38.723338   -27.406931
 0.625000   38.583677   -28.597766
 0.630000   38.437361   -30.059622
 0.635000   38.283081   -31.777521
 0.640000   38.119585   -33.740216
 0.645000   37.945679   -35.936270
 0.650000   37.760223   -38.353308
 0.655000   37.562146   -41.049130
 0.660000   37.349731   -44.101770
 0.665000   37.121128   -47.540808
 0.670000   36.874323   -51.399738
 0.675000   36.607131   -55.707797
 0.680000   36.317245   -60.566211
 0.685000   36.001469   -65.795981
 0.690000   35.659286   -71.054919
 0.695000   35.290919   -76.276761
 0.700000   34.896518   -81.445151
 0.705000   34.476468   -86.514560
 0.710000   34.031372   -91.449823
 0.715000   33.561970   -96.125259
 0.720000   33.070120   -100.401114
 0.725000   32.557958   -104.229324
 0.730000   32.027827   -107.554346
 0.735000   31.482415   -110.319983
 0.740000   30.924627   -112.513611
 0.745000   30.357279   -114.400385
 0.750000   29.780623   -116.358374
 0.755000   29.193695   -118.492694
 0.760000   28.595696   -120.752109
 0.765000   27.986174   -123.024338
 0.770000   27.365453   -125.324603
 0.775000   26.732928   -127.336606
 0.780000   26.092086   -128.027811
 0.785000   25.452650   -126.949255
 0.790000   24.822594   -124.239087
 0.795000   24.210259   -119.882651
 0.800000   23.623767   -114.026498
 0.805000   23.069994   -106.932275
 0.810000   22.554445   -98.846552
 0.815000   22.081529   -90.139008
 0.820000   21.653055   -81.223071
 0.825000   21.269298   -72.421732
 0.830000   20.928837   -64.096893
 0.835000   20.628329   -56.607788
 0.840000   20.362759   -50.327893
 0.845000   20.125050   -45.744656
 0.850000   19.905313   -43.321396
 0.855000   19.691836   -43.420419
 0.860000   19.471109   -46.445728
 0.865000   19.227379   -53.049362
 0.870000   18.940615   -63.619315
 0.875000   18.591186   -78.427454
 0.880000   18.156340   -97.878458
 0.885000   17.612401   -121.970816
 0.890000   16.936632   -150.275143
 0.895000   16.109650   -182.438171
 0.900000   15.112251   -216.071921
 0.905000   13.948930   -248.046460
 0.910000   12.631786   -276.078281
 0.915000   11.188148   -297.070258
 0.920000   9.661083   -308.041391
 0.925000   8.107734   -306.434137
 0.930000   6.596742   -290.317773
 0.935000   5.204556   -260.503595
 0.940000   3.991706   -220.513419
 0.945000   2.999422   -174.635931
 0.950000   2.245347   -127.594876
 0.955000   1.723473   -83.493683
 0.960000   1.410410   -46.082814
 0.965000   1.262645   -17.432909
 0.970000   1.236081   2.704787
 0.975000   1.289693   15.253799
 0.980000   1.388619   21.620129
 0.985000   1.505894   23.241212
 0.990000   1.621031   21.741093
 0.995000   1.723305   18.628410
 1.000000   1.807315   14.975642
201 psinorm omegp(kRad/s) domegp/dpsiN
 0.000000   0.004866   158.975672
 0.005000   0.648325   98.407794
 0.010000   0.988944   65.441927
 0.015000   1.302744   61.839989
 0.020000   1.607344   59.937998
 0.025000   1.902124   57.183310
 0.030000   2.179177   52.766025
 0.035000   2.429785   47.934660
 0.040000   2.658524   43.466294
 0.045000   2.864447   39.195295
 0.050000   3.050477   35.725791
 0.055000   3.221705   33.450670
 0.060000   3.384984   32.431944
 0.065000   3.546025   32.250306
 0.070000   3.707487   32.584279
 0.075000   3.871868   33.165012
 0.080000   4.039137   33.642722
 0.085000   4.208295   34.068561
 0.090000   4.379822   34.185622
 0.095000   4.550151   33.762659
 0.100000   4.717449   32.866921
 0.105000   4.878820   31.588970
 0.110000   5.033339   30.063044
 0.115000   5.179451   28.157320
 0.120000   5.314912   26.044654
 0.125000   5.439897   24.017537
 0.130000   5.555087   22.163502
 0.135000   5.661532   20.444583
 0.140000   5.759533   18.915157
 0.145000   5.850684   17.718812
 0.150000   5.936721   16.830569
 0.155000   6.018990   16.188373
 0.160000   6.098605   15.557712
 0.165000   6.174567   14.945740
 0.170000   6.248062   14.217751
 0.175000   6.316744   13.401398
 0.180000   6.382076   12.497675
 0.185000   6.441721   11.386693
 0.190000   6.495943   10.238120
 0.195000   6.544102   8.934612
 0.200000   6.585289   7.701345
 0.205000   6.621116   6.468829
 0.210000   6.649978   5.313174
 0.215000   6.674247   4.402684
 0.220000   6.694004   3.413195
 0.225000   6.708379   2.487655
 0.230000   6.718881   1.442709
 0.235000   6.722806   0.114260
 0.240000   6.720024   -1.370070
 0.245000   6.709106   -3.251443
 0.250000   6.687509   -5.312803
 0.255000   6.655978   -7.491615
 0.260000   6.612593   -9.961209
 0.265000   6.556366   -12.346683
 0.270000   6.489126   -14.748124
 0.275000   6.408884   -17.334227
 0.280000   6.315784   -19.770486
 0.285000   6.211179   -22.213325
 0.290000   6.093651   -24.720865
 0.295000   5.963971   -27.044657
 0.300000   5.823204   -29.374219
 0.305000   5.670229   -31.743534
 0.310000   5.505769   -33.990371
 0.315000   5.330325   -36.295319
 0.320000   5.142816   -38.627363
 0.325000   4.944051   -40.724935
 0.330000   4.735566   -42.548419
 0.335000   4.518567   -43.940967
 0.340000   4.296157   -44.742573
 0.345000   4.071141   -45.076216
 0.350000   3.845394   -44.838827
 0.355000   3.622753   -44.208418
 0.360000   3.403310   -43.704026
 0.365000   3.185713   -43.367909
 0.370000   2.969631   -43.153934
 0.375000   2.754173   -43.280418
 0.380000   2.536827   -43.924421
 0.385000   2.314929   -44.896408
 0.390000   2.087863   -45.932360
 0.395000   1.855606   -46.945553
 0.400000   1.618407   -47.972118
 0.405000   1.375884   -49.356395
 0.410000   1.124843   -52.176804
 0.415000   0.854116   -56.662267
 0.420000   0.558221   -62.290021
 0.425000   0.231216   -68.995773
 0.430000   -0.131737   -76.518084
 0.435000   -0.533965   -84.705466
 0.440000   -0.978792   -93.510362
 0.445000   -1.469068   -101.260041
 0.450000   -1.991392   -106.858147
 0.455000   -2.537650   -110.566333
 0.460000   -3.097055   -111.967455
 0.465000   -3.657324   -110.755925
 0.470000   -4.204615   -106.297529
 0.475000   -4.720300   -98.986004
 0.480000   -5.194475   -90.038227
 0.485000   -5.620682   -80.127876
 0.490000   -5.995754   -69.773082
 0.495000   -6.318413   -59.099109
 0.500000   -6.586745   -49.002889
 0.505000   -6.808442   -40.819344
 0.510000   -6.994938   -34.568563
 0.515000   -7.154127   -29.939059
 0.520000   -7.294329   -26.837874
 0.525000   -7.422506   -25.002530
 0.530000   -7.544354   -24.111906
 0.535000   -7.663625   -23.769775
 0.540000   -7.782052   -23.554622
 0.545000   -7.899171   -23.278494
 0.550000   -8.014837   -22.990509
 0.555000   -8.129076   -22.676913
 0.560000   -8.241606   -22.009875
 0.565000   -8.349175   -20.793001
 0.570000   -8.449536   -19.220619
 0.575000   -8.541381   -17.299321
 0.580000   -8.622529   -15.037644
 0.585000   -8.691758   -12.597738
 0.590000   -8.748506   -10.068216
 0.595000   -8.792440   -7.552488
 0.600000   -8.824031   -5.186297
 0.605000   -8.844303   -3.097155
 0.610000   -8.855003   -1.270774
 0.615000   -8.857011   0.336868
 0.620000   -8.851634   1.622022
 0.625000   -8.840790   2.610640
 0.630000   -8.825528   3.424728
 0.635000   -8.806543   4.107400
 0.640000   -8.784454   4.659202
 0.645000   -8.759951   5.139306
 0.650000   -8.733061   5.603886
 0.655000   -8.703912   6.019677
 0.660000   -8.672864   6.374552
 0.665000   -8.640167   6.697319
 0.670000   -8.605891   6.999636
 0.675000   -8.570170   7.297843
 0.680000   -8.532912   7.647652
 0.685000   -8.493694   8.077710
 0.690000   -8.452135   8.568868
 0.695000   -8.408005   9.098693
 0.700000   -8.361148   9.678565
 0.705000   -8.311219   10.259181
 0.710000   -8.258556   10.677501
 0.715000   -8.204444   10.860604
 0.720000   -8.149950   10.806072
 0.725000   -8.096384   10.475529
 0.730000   -8.045195   9.848011
 0.735000   -7.997904   8.954268
 0.740000   -7.955652   7.879965
 0.745000   -7.919104   6.729447
 0.750000   -7.888358   5.584622
 0.755000   -7.863258   4.531731
 0.760000   -7.843041   3.642158
 0.765000   -7.826836   2.905783
 0.770000   -7.813983   2.277196
 0.775000   -7.804064   1.707805
 0.780000   -7.796905   1.128363
 0.785000   -7.792781   0.439152
 0.790000   -7.792513   -0.438656
 0.795000   -7.797167   -1.447773
 0.800000   -7.806991   -2.487058
 0.805000   -7.822038   -3.521179
 0.810000   -7.842203   -4.390991
 0.815000   -7.865948   -4.941865
 0.820000   -7.891621   -5.128154
 0.825000   -7.917229   -4.887261
 0.830000   -7.940494   -4.202319
 0.835000   -7.959252   -3.183346
 0.840000   -7.972327   -2.032922
 0.845000   -7.979582   -0.846744
 0.850000   -7.980795   0.368945
 0.855000   -7.975892   1.529161
 0.860000   -7.965503   2.483409
 0.865000   -7.951058   3.324588
 0.870000   -7.932257   4.186497
 0.875000   -7.909193   5.031945
 0.880000   -7.881938   5.748477
 0.885000   -7.851708   6.497784
 0.890000   -7.816960   7.388582
 0.895000   -7.777822   8.214361
 0.900000   -7.734817   8.883168
 0.905000   -7.688991   9.524351
 0.910000   -7.639573   10.212154
 0.915000   -7.586869   11.059777
 0.920000   -7.528975   12.145189
 0.925000   -7.465417   12.910642
 0.930000   -7.399869   13.181811
 0.935000   -7.333599   14.621063
 0.940000   -7.253658   16.051167
 0.945000   -7.173088   14.688161
 0.950000   -7.106777   12.419891
 0.955000   -7.048889   14.793330
 0.960000   -6.958843   29.736064
 0.965000   -6.751528   68.795294
 0.970000   -6.270890   141.055237
 0.975000   -5.340976   240.679946
 0.980000   -3.864091   347.168807
 0.985000   -1.869288   426.671472
 0.990000   0.402624   444.947438
 0.995000   2.580187   388.907950
 1.000000   4.291703   295.698634
201 psinorm omgvb(kRad/s) domgvb/dpsiN
 0.000000   63.308044   158.991266
 0.005000   63.950973   98.180442
 0.010000   64.289848   64.947055
 0.015000   64.600443   61.026578
 0.020000   64.900114   58.752316
 0.025000   65.187967   55.570655
 0.030000   65.455820   50.672252
 0.035000   65.694689   45.307740
 0.040000   65.908898   40.261102
 0.045000   66.097300   35.371231
 0.050000   66.262610   31.244451
 0.055000   66.409745   28.279724
 0.060000   66.545407   26.545113
 0.065000   66.675196   25.628219
 0.070000   66.801690   25.226995
 0.075000   66.927466   25.074592
 0.080000   67.052436   24.808532
 0.085000   67.175551   24.482020
 0.090000   67.297256   23.837550
 0.095000   67.413927   22.640332
 0.100000   67.523659   20.962243
 0.105000   67.623549   18.887313
 0.110000   67.712532   16.539194
 0.115000   67.788941   13.789168
 0.120000   67.850424   10.805293
 0.125000   67.896994   7.866529
 0.130000   67.929089   5.036853
 0.135000   67.947362   2.263466
 0.140000   67.951724   -0.381658
 0.145000   67.943546   -2.738274
 0.150000   67.924341   -4.830392
 0.155000   67.895242   -6.717832
 0.160000   67.857163   -8.637488
 0.165000   67.808867   -10.573007
 0.170000   67.751433   -12.636199
 0.175000   67.682505   -14.791449
 0.180000   67.603518   -17.035997
 0.185000   67.512145   -19.482149
 0.190000   67.408697   -21.951699
 0.195000   67.292628   -24.562223
 0.200000   67.163074   -27.103051
 0.205000   67.021598   -29.639553
 0.210000   66.866679   -32.073406
 0.215000   66.700864   -34.219537
 0.220000   66.524484   -36.380291
 0.225000   66.337061   -38.384633
 0.230000   66.140637   -40.444120
 0.235000   65.932619   -42.747973
 0.240000   65.713157   -45.153527
 0.245000   65.481084   -47.906001
 0.250000   65.234097   -50.782247
 0.255000   64.973262   -53.675753
 0.260000   64.697340   -56.786060
 0.265000   64.405401   -59.766028
 0.270000   64.099680   -62.685310
 0.275000   63.778548   -65.722164
 0.280000   63.442458   -68.549670
 0.285000   63.093051   -71.297425
 0.290000   62.729484   -74.111394
 0.295000   62.351937   -76.805198
 0.300000   61.961432   -79.508461
 0.305000   61.556853   -82.241699
 0.310000   61.139015   -84.823373
 0.315000   60.708619   -87.381106
 0.320000   60.265204   -89.920893
 0.325000   59.809410   -92.230929
 0.330000   59.342894   -94.245802
 0.335000   58.866952   -95.816452
 0.340000   58.384730   -96.791752
 0.345000   57.899035   -97.296388
 0.350000   57.411766   -97.259807
 0.355000   56.926436   -96.878613
 0.360000   56.442980   -96.654603
 0.365000   55.959890   -96.626571
 0.370000   55.476714   -96.737359
 0.375000   54.992517   -97.176743
 0.380000   54.504947   -98.034178
 0.385000   54.012175   -99.060782
 0.390000   53.514339   -100.004023
 0.395000   53.012135   -100.781622
 0.400000   52.506523   -101.432908
 0.405000   51.997806   -102.263044
 0.410000   51.483892   -104.464536
 0.415000   50.953160   -108.588061
 0.420000   50.398012   -114.344314
 0.425000   49.809717   -121.777390
 0.430000   49.180238   -130.674517
 0.435000   48.502972   -141.099276
 0.440000   47.769245   -152.996824
 0.445000   46.973004   -164.185444
 0.450000   46.127391   -173.358055
 0.455000   45.239423   -180.794847
 0.460000   44.319442   -185.942693
 0.465000   43.379996   -188.593133
 0.470000   42.433511   -187.935609
 0.475000   41.500640   -183.603400
 0.480000   40.597477   -176.618553
 0.485000   39.734455   -167.815201
 0.490000   38.919325   -157.610084
 0.495000   38.158354   -146.105209
 0.500000   37.458273   -134.116322
 0.505000   36.817191   -122.992292
 0.510000   36.228350   -113.086851
 0.515000   35.686322   -104.378170
 0.520000   35.184568   -96.902474
 0.525000   34.717297   -90.482813
 0.530000   34.279740   -84.833281
 0.535000   33.868965   -79.782613
 0.540000   33.481914   -75.096457
 0.545000   33.118000   -70.592438
 0.550000   32.775989   -66.377481
 0.555000   32.454225   -62.464953
 0.560000   32.151340   -58.506958
 0.565000   31.869156   -54.441052
 0.570000   31.606929   -50.521505
 0.575000   31.363941   -46.654802
 0.580000   31.140381   -42.841694
 0.585000   30.935524   -39.237175
 0.590000   30.748010   -35.925606
 0.595000   30.576268   -32.977906
 0.600000   30.418231   -30.472132
 0.605000   30.271546   -28.510499
 0.610000   30.133126   -27.081035
 0.615000   30.000736   -26.142142
 0.620000   29.871704   -25.784908
 0.625000   29.742887   -25.987126
 0.630000   29.611833   -26.634894
 0.635000   29.476538   -27.670121
 0.640000   29.335132   -29.081014
 0.645000   29.185728   -30.796964
 0.650000   29.027162   -32.749422
 0.655000   28.858234   -35.029454
 0.660000   28.676868   -37.727218
 0.665000   28.480961   -40.843489
 0.670000   28.268433   -44.400101
 0.675000   28.036960   -48.409954
 0.680000   27.784333   -52.918559
 0.685000   27.507775   -57.718271
 0.690000   27.207150   -62.486052
 0.695000   26.882914   -67.178068
 0.700000   26.535370   -71.766585
 0.705000   26.165248   -76.255379
 0.710000   25.772816   -80.772322
 0.715000   25.357525   -85.264655
 0.720000   24.920169   -89.595042
 0.725000   24.461575   -93.753795
 0.730000   23.982631   -97.706335
 0.735000   23.484511   -101.365715
 0.740000   22.968974   -104.633646
 0.745000   22.438175   -107.670937
 0.750000   21.892265   -110.773752
 0.755000   21.330437   -113.960963
 0.760000   20.752655   -117.109951
 0.765000   20.159338   -120.118555
 0.770000   19.551470   -123.047407
 0.775000   18.928864   -125.628801
 0.780000   18.295182   -126.899447
 0.785000   17.659869   -126.510103
 0.790000   17.030081   -124.677743
 0.795000   16.413092   -121.330423
 0.800000   15.816776   -116.513556
 0.805000   15.247956   -110.453454
 0.810000   14.712242   -103.237542
 0.815000   14.215581   -95.080873
 0.820000   13.761433   -86.351225
 0.825000   13.352069   -77.308993
 0.830000   12.988343   -68.299212
 0.835000   12.669077   -59.791135
 0.840000   12.390432   -52.360815
 0.845000   12.145468   -46.591400
 0.850000   11.924518   -42.952451
 0.855000   11.715944   -41.891258
 0.860000   11.505605   -43.962318
 0.865000   11.276321   -49.724774
 0.870000   11.008358   -59.432818
 0.875000   10.681993   -73.395509
 0.880000   10.274402   -92.129980
 0.885000   9.760693   -115.473032
 0.890000   9.119672   -142.886562
 0.895000   8.331827   -174.223810
 0.900000   7.377434   -207.188753
 0.905000   6.259940   -238.522109
 0.910000   4.992213   -265.866127
 0.915000   3.601278   -286.010481
 0.920000   2.132108   -295.896202
 0.925000   0.642316   -293.523495
 0.930000   -0.803127   -277.135963
 0.935000   -2.129043   -245.882532
 0.940000   -3.261952   -204.462252
 0.945000   -4.173666   -159.947770
 0.950000   -4.861430   -115.174985
 0.955000   -5.325416   -68.700353
 0.960000   -5.548433   -16.346750
 0.965000   -5.488883   51.362385
 0.970000   -5.034810   143.760024
 0.975000   -4.051283   255.933746
 0.980000   -2.475472   368.788936
 0.985000   -0.363394   449.912684
 0.990000   2.023655   466.688532
 0.995000   4.303492   407.536360
 1.000000   6.099018   310.674276
201 psinorm omgpp(kRad/s) domgpp/dpsiN
 0.000000   -0.035866   -17.893734
 0.005000   -0.145112   -25.804326
 0.010000   -0.293910   -30.117312
 0.015000   -0.446285   -30.797061
 0.020000   -0.601880   -31.388878
 0.025000   -0.760173   -31.869471
 0.030000   -0.920575   -32.254273
 0.035000   -1.082716   -32.544668
 0.040000   -1.246022   -32.725239
 0.045000   -1.409969   -32.806994
 0.050000   -1.574092   -32.774911
 0.055000   -1.737718   -32.633421
 0.060000   -1.900426   -32.472806
 0.065000   -2.062446   -32.244738
 0.070000   -2.222873   -31.897066
 0.075000   -2.381416   -31.508290
 0.080000   -2.537956   -31.099776
 0.085000   -2.692414   -30.719740
 0.090000   -2.845153   -30.455998
 0.095000   -2.996974   -30.183634
 0.100000   -3.146990   -29.797122
 0.105000   -3.294945   -29.354215
 0.110000   -3.440532   -28.847864
 0.115000   -3.583424   -28.315482
 0.120000   -3.723687   -27.801569
 0.125000   -3.861440   -27.310038
 0.130000   -3.996787   -26.778289
 0.135000   -4.129223   -26.122907
 0.140000   -4.258016   -25.294616
 0.145000   -4.382169   -24.291317
 0.150000   -4.500929   -23.048356
 0.155000   -4.612652   -21.670657
 0.160000   -4.717636   -20.276163
 0.165000   -4.815414   -18.792812
 0.170000   -4.905564   -17.230935
 0.175000   -4.987723   -15.397960
 0.180000   -5.059544   -13.638536
 0.185000   -5.124109   -12.185009
 0.190000   -5.181394   -10.920561
 0.195000   -5.233314   -10.049836
 0.200000   -5.281892   -9.569691
 0.205000   -5.329011   -9.603942
 0.210000   -5.377932   -9.636089
 0.215000   -5.425372   -9.247733
 0.220000   -5.470409   -8.777033
 0.225000   -5.513142   -8.280717
 0.230000   -5.553216   -7.696036
 0.235000   -5.590103   -7.557763
 0.240000   -5.628794   -6.900160
 0.245000   -5.659104   -5.159317
 0.250000   -5.680387   -3.397936
 0.255000   -5.693084   -1.533278
 0.260000   -5.695720   0.609857
 0.265000   -5.686985   2.867693
 0.270000   -5.667043   5.662301
 0.275000   -5.630362   8.823466
 0.280000   -5.578808   11.645770
 0.285000   -5.513904   14.278695
 0.290000   -5.436021   16.813382
 0.295000   -5.345771   19.551830
 0.300000   -5.240503   21.929973
 0.305000   -5.126471   22.847026
 0.310000   -5.012033   23.011368
 0.315000   -4.896357   23.122094
 0.320000   -4.780812   23.001025
 0.325000   -4.666347   22.717545
 0.330000   -4.553636   22.074594
 0.335000   -4.445601   21.291643
 0.340000   -4.340720   20.787330
 0.345000   -4.237728   20.449182
 0.350000   -4.136228   20.199164
 0.355000   -4.035736   19.850526
 0.360000   -3.937723   19.333991
 0.365000   -3.842396   19.749514
 0.370000   -3.740228   21.026105
 0.375000   -3.632135   22.404757
 0.380000   -3.516180   24.076193
 0.385000   -3.391373   25.879536
 0.390000   -3.257385   27.951549
 0.395000   -3.111858   29.631061
 0.400000   -2.961074   30.489208
 0.405000   -2.806966   30.949554
 0.410000   -2.651578   30.994555
 0.415000   -2.497020   30.703302
 0.420000   -2.344545   30.550907
 0.425000   -2.191511   29.171429
 0.430000   -2.052831   26.993358
 0.435000   -1.921577   25.484993
 0.440000   -1.797981   23.933021
 0.445000   -1.682247   22.349493
 0.450000   -1.574486   21.029806
 0.455000   -1.471949   19.152605
 0.460000   -1.382960   16.960097
 0.465000   -1.302348   15.293825
 0.470000   -1.230022   13.661397
 0.475000   -1.165734   12.093763
 0.480000   -1.109084   10.569193
 0.485000   -1.060042   9.467639
 0.490000   -1.014408   8.787555
 0.495000   -0.972167   8.069246
 0.500000   -0.933715   7.267786
 0.505000   -0.899489   6.372791
 0.510000   -0.869988   5.388714
 0.515000   -0.845602   4.339991
 0.520000   -0.826588   3.268843
 0.525000   -0.812913   2.205455
 0.530000   -0.804533   1.151409
 0.535000   -0.801399   0.108143
 0.540000   -0.803452   -0.904667
 0.545000   -0.810446   -1.906888
 0.550000   -0.822521   -2.917004
 0.555000   -0.839616   -3.906931
 0.560000   -0.861590   -4.874096
 0.565000   -0.888357   -5.824699
 0.570000   -0.919837   -6.748595
 0.575000   -0.955843   -7.664495
 0.580000   -0.996482   -8.566234
 0.585000   -1.041505   -9.421787
 0.590000   -1.090700   -10.250593
 0.595000   -1.144011   -11.075842
 0.600000   -1.201458   -11.958963
 0.605000   -1.263601   -12.900272
 0.610000   -1.330461   -13.740969
 0.615000   -1.401010   -14.489686
 0.620000   -1.475358   -15.226063
 0.625000   -1.553271   -15.912769
 0.630000   -1.634485   -16.645025
 0.635000   -1.719721   -17.369251
 0.640000   -1.808178   -17.702441
 0.645000   -1.896746   -17.834975
 0.650000   -1.986528   -18.059569
 0.655000   -2.077341   -18.254359
 0.660000   -2.169071   -18.543480
 0.665000   -2.262776   -19.087603
 0.670000   -2.359947   -19.519403
 0.675000   -2.457970   -20.069045
 0.680000   -2.560638   -20.995148
 0.685000   -2.667922   -21.859123
 0.690000   -2.779229   -22.753929
 0.695000   -2.895461   -24.135812
 0.700000   -3.020587   -24.019465
 0.705000   -3.135656   -22.642927
 0.710000   -3.247016   -21.685521
 0.715000   -3.352511   -20.264606
 0.720000   -3.449662   -18.381765
 0.725000   -3.536328   -16.154986
 0.730000   -3.611212   -12.215455
 0.735000   -3.658483   -7.359024
 0.740000   -3.684803   -3.122393
 0.745000   -3.689707   1.146969
 0.750000   -3.673333   5.315478
 0.755000   -3.636552   10.054178
 0.760000   -3.572791   13.808355
 0.765000   -3.498469   16.065930
 0.770000   -3.412132   18.296050
 0.775000   -3.315508   20.163856
 0.780000   -3.210493   21.642508
 0.785000   -3.099083   23.300247
 0.790000   -2.977491   23.661331
 0.795000   -2.862470   22.687054
 0.800000   -2.750620   21.930996
 0.805000   -2.643160   20.946071
 0.810000   -2.541159   19.838291
 0.815000   -2.444777   18.828798
 0.820000   -2.352871   18.240120
 0.825000   -2.262376   17.999966
 0.830000   -2.172872   17.743705
 0.835000   -2.084939   17.325655
 0.840000   -1.999615   16.653774
 0.845000   -1.918401   15.386951
 0.850000   -1.845746   13.460645
 0.855000   -1.783794   11.355759
 0.860000   -1.732188   9.130769
 0.865000   -1.692487   6.667480
 0.870000   -1.665513   4.039118
 0.875000   -1.652096   0.595242
 0.880000   -1.659561   -3.613012
 0.885000   -1.688226   -7.980840
 0.890000   -1.739369   -13.345243
 0.895000   -1.821678   -20.190830
 0.900000   -1.941278   -28.477483
 0.905000   -2.106453   -40.773243
 0.910000   -2.349010   -57.915444
 0.915000   -2.685607   -77.196952
 0.920000   -3.120980   -104.025060
 0.925000   -3.725858   -146.088580
 0.930000   -4.581865   -207.548059
 0.935000   -5.801339   -298.964138
 0.940000   -7.571507   -424.907646
 0.945000   -10.050415   -556.463244
 0.950000   -13.136139   -671.521847
 0.955000   -16.765634   -744.274547
 0.960000   -20.578885   -720.324679
 0.965000   -23.968880   -567.833664
 0.970000   -26.257221   -283.084280
 0.975000   -26.799723   95.589287
 0.980000   -25.301328   447.879690
 0.985000   -22.320926   673.513971
 0.990000   -18.566189   751.287601
 0.995000   -14.808050   695.973405
 1.000000   -11.606455   584.664806
201 psinorm omgeb(kRad/s) domgeb/dpsiN
 0.000000   63.272177   141.097532
 0.005000   63.805861   72.376116
 0.010000   63.995938   34.829742
 0.015000   64.154159   30.229518
 0.020000   64.298234   27.363438
 0.025000   64.427793   23.701184
 0.030000   64.535245   18.417979
 0.035000   64.611973   12.763073
 0.040000   64.662876   7.535862
 0.045000   64.687332   2.564236
 0.050000   64.688519   -1.530460
 0.055000   64.672027   -4.353696
 0.060000   64.644982   -5.927693
 0.065000   64.612750   -6.616518
 0.070000   64.578816   -6.670070
 0.075000   64.546049   -6.433698
 0.080000   64.514479   -6.291245
 0.085000   64.483137   -6.237720
 0.090000   64.452102   -6.618448
 0.095000   64.416952   -7.543302
 0.100000   64.376669   -8.834879
 0.105000   64.328604   -10.466902
 0.110000   64.272000   -12.308670
 0.115000   64.205517   -14.526314
 0.120000   64.126737   -16.996275
 0.125000   64.035554   -19.443509
 0.130000   63.932302   -21.741436
 0.135000   63.818140   -23.859441
 0.140000   63.693708   -25.676274
 0.145000   63.561377   -27.029590
 0.150000   63.423412   -27.878748
 0.155000   63.282590   -28.388490
 0.160000   63.139527   -28.913651
 0.165000   62.993453   -29.365819
 0.170000   62.845869   -29.867134
 0.175000   62.694782   -30.189409
 0.180000   62.543974   -30.674532
 0.185000   62.388036   -31.667157
 0.190000   62.227303   -32.872260
 0.195000   62.059314   -34.612060
 0.200000   61.881182   -36.672742
 0.205000   61.692586   -39.243495
 0.210000   61.488747   -41.709495
 0.215000   61.275492   -43.467270
 0.220000   61.054075   -45.157324
 0.225000   60.823918   -46.665350
 0.230000   60.587421   -48.140156
 0.235000   60.342517   -50.305735
 0.240000   60.084364   -52.053687
 0.245000   59.821980   -53.065318
 0.250000   59.553711   -54.180183
 0.255000   59.280178   -55.209031
 0.260000   59.001620   -56.176204
 0.265000   58.718416   -56.898335
 0.270000   58.432637   -57.023009
 0.275000   58.148186   -56.898698
 0.280000   57.863650   -56.903900
 0.285000   57.579147   -57.018730
 0.290000   57.293463   -57.298012
 0.295000   57.006167   -57.253368
 0.300000   56.720929   -57.578488
 0.305000   56.430382   -59.394674
 0.310000   56.126982   -61.812005
 0.315000   55.812262   -64.259013
 0.320000   55.484392   -66.919868
 0.325000   55.143063   -69.513384
 0.330000   54.789258   -72.171207
 0.335000   54.421351   -74.524809
 0.340000   54.044010   -76.004422
 0.345000   53.661307   -76.847206
 0.350000   53.275538   -77.060642
 0.355000   52.890700   -77.028088
 0.360000   52.505257   -77.320612
 0.365000   52.117494   -76.877057
 0.370000   51.736487   -75.711254
 0.375000   51.360382   -74.771985
 0.380000   50.988767   -73.957985
 0.385000   50.620802   -73.181246
 0.390000   50.256954   -72.052474
 0.395000   49.900277   -71.150561
 0.400000   49.545449   -70.943699
 0.405000   49.190840   -71.313490
 0.410000   48.832314   -73.469981
 0.415000   48.456140   -77.884759
 0.420000   48.053466   -83.793407
 0.425000   47.618206   -92.605961
 0.430000   47.127407   -103.681159
 0.435000   46.581395   -115.614282
 0.440000   45.971264   -129.063803
 0.445000   45.290757   -141.835951
 0.450000   44.552904   -152.328249
 0.455000   43.767474   -161.642242
 0.460000   42.936482   -168.982596
 0.465000   42.077648   -173.299308
 0.470000   41.203489   -174.274212
 0.475000   40.334906   -171.509637
 0.480000   39.488392   -166.049360
 0.485000   38.674413   -158.347561
 0.490000   37.904917   -148.822530
 0.495000   37.186187   -138.035963
 0.500000   36.524557   -126.848536
 0.505000   35.917702   -116.619501
 0.510000   35.358362   -107.698137
 0.515000   34.840720   -100.038179
 0.520000   34.357980   -93.633631
 0.525000   33.904384   -88.277358
 0.530000   33.475207   -83.681871
 0.535000   33.067565   -79.674469
 0.540000   32.678462   -76.001124
 0.545000   32.307554   -72.499326
 0.550000   31.953469   -69.294485
 0.555000   31.614609   -66.371884
 0.560000   31.289750   -63.381054
 0.565000   30.980799   -60.265752
 0.570000   30.687093   -57.270101
 0.575000   30.408098   -54.319298
 0.580000   30.143900   -51.407928
 0.585000   29.894019   -48.658962
 0.590000   29.657310   -46.176199
 0.595000   29.432257   -44.053748
 0.600000   29.216772   -42.431095
 0.605000   29.007946   -41.410771
 0.610000   28.802665   -40.822004
 0.615000   28.599726   -40.631828
 0.620000   28.396346   -41.010971
 0.625000   28.189616   -41.899895
 0.630000   27.977348   -43.279919
 0.635000   27.756817   -45.039372
 0.640000   27.526954   -46.783455
 0.645000   27.288982   -48.631939
 0.650000   27.040634   -50.808991
 0.655000   26.780892   -53.283813
 0.660000   26.507796   -56.270698
 0.665000   26.218185   -59.931092
 0.670000   25.908485   -63.919505
 0.675000   25.578990   -68.479000
 0.680000   25.223695   -73.913706
 0.685000   24.839853   -79.577394
 0.690000   24.427921   -85.239981
 0.695000   23.987453   -91.313881
 0.700000   23.514783   -95.786050
 0.705000   23.029593   -98.898306
 0.710000   22.525800   -102.457843
 0.715000   22.005014   -105.529261
 0.720000   21.470507   -107.976807
 0.725000   20.925246   -109.908781
 0.730000   20.371419   -109.921789
 0.735000   19.826028   -108.724739
 0.740000   19.284172   -107.756039
 0.745000   18.748468   -106.523968
 0.750000   18.218932   -105.458275
 0.755000   17.693885   -103.906785
 0.760000   17.179864   -103.301596
 0.765000   16.660869   -104.052624
 0.770000   16.139338   -104.751357
 0.775000   15.613356   -105.464944
 0.780000   15.084688   -105.256940
 0.785000   14.560786   -103.209856
 0.790000   14.052590   -101.016412
 0.795000   13.550622   -98.643369
 0.800000   13.066156   -94.582561
 0.805000   12.604797   -89.507384
 0.810000   12.171082   -83.399251
 0.815000   11.770804   -76.252075
 0.820000   11.408562   -68.111105
 0.825000   11.089693   -59.309027
 0.830000   10.815471   -50.555507
 0.835000   10.584138   -42.465479
 0.840000   10.390817   -35.707041
 0.845000   10.227068   -31.204449
 0.850000   10.078772   -29.491806
 0.855000   9.932150   -30.535499
 0.860000   9.773417   -34.831550
 0.865000   9.583834   -43.057294
 0.870000   9.342844   -55.393700
 0.875000   9.029897   -72.800267
 0.880000   8.614842   -95.742993
 0.885000   8.072467   -123.453873
 0.890000   7.380303   -156.231805
 0.895000   6.510149   -194.414640
 0.900000   5.436156   -235.666236
 0.905000   4.153487   -279.295352
 0.910000   2.643203   -323.781571
 0.915000   0.915671   -363.207433
 0.920000   -0.988871   -399.921262
 0.925000   -3.083542   -439.612075
 0.930000   -5.384992   -484.684022
 0.935000   -7.930382   -544.846670
 0.940000   -10.833459   -629.369898
 0.945000   -14.224081   -716.411014
 0.950000   -17.997569   -786.696833
 0.955000   -22.091049   -812.974900
 0.960000   -26.127318   -736.671428
 0.965000   -29.457763   -516.471279
 0.970000   -31.292031   -139.324256
 0.975000   -30.851006   351.523033
 0.980000   -27.776801   816.668626
 0.985000   -22.684320   1123.426655
 0.990000   -16.542534   1217.976132
 0.995000   -10.504558   1103.509765
 1.000000   -5.507436   895.339083
201 psinorm er(kV/m) der/dpsiN
 0.000000   1.072359   1093.973386
 0.005000   5.506664   679.748619
 0.010000   7.869845   420.619811
 0.015000   9.712862   339.466281
 0.020000   11.264508   292.942641
 0.025000   12.642289   262.883812
 0.030000   13.893346   240.125603
 0.035000   15.043545   221.549480
 0.040000   16.108841   206.288433
 0.045000   17.106429   193.822935
 0.050000   18.047070   182.542370
 0.055000   18.931853   172.024456
 0.060000   19.767315   162.579816
 0.065000   20.557651   156.836706
 0.070000   21.335682   151.301766
 0.075000   22.070668   142.811576
 0.080000   22.763798   139.186221
 0.085000   23.462531   135.105571
 0.090000   24.114853   128.907831
 0.095000   24.751609   126.027355
 0.100000   25.375127   119.718383
 0.105000   25.948793   116.653473
 0.110000   26.541662   111.736542
 0.115000   27.066158   107.698112
 0.120000   27.618643   103.470071
 0.125000   28.100859   99.328321
 0.130000   28.611926   95.037897
 0.135000   29.051238   91.597018
 0.140000   29.527896   87.317672
 0.145000   29.924415   84.335955
 0.150000   30.371256   81.253760
 0.155000   30.736952   77.705529
 0.160000   31.148311   76.787560
 0.165000   31.504828   72.158358
 0.170000   31.869895   71.905664
 0.175000   32.223884   67.060395
 0.180000   32.540499   66.937749
 0.185000   32.893262   61.935547
 0.190000   33.159854   59.184496
 0.195000   33.485107   59.289833
 0.200000   33.752752   52.704435
 0.205000   34.012151   52.940228
 0.210000   34.282155   46.113576
 0.215000   34.473287   43.643136
 0.220000   34.718586   43.955482
 0.225000   34.912842   37.284320
 0.230000   35.091429   38.486643
 0.235000   35.297708   32.268608
 0.240000   35.414115   28.417372
 0.245000   35.581882   31.658934
 0.250000   35.730705   24.001468
 0.255000   35.821897   22.940586
 0.260000   35.960110   23.520479
 0.265000   36.057101   17.204954
 0.270000   36.132160   18.524065
 0.275000   36.242342   16.696519
 0.280000   36.299125   12.438116
 0.285000   36.366723   15.315032
 0.290000   36.452275   10.933090
 0.295000   36.476054   7.843770
 0.300000   36.530713   11.390954
 0.305000   36.589964   4.868089
 0.310000   36.579394   0.846936
 0.315000   36.598433   3.138272
 0.320000   36.610777   -4.193384
 0.325000   36.556499   -8.085866
 0.330000   36.529918   -6.291652
 0.335000   36.493583   -12.997285
 0.340000   36.399945   -16.149055
 0.345000   36.332092   -13.757156
 0.350000   36.262374   -18.107510
 0.355000   36.151017   -20.368409
 0.360000   36.058690   -18.356921
 0.365000   35.967448   -21.029658
 0.370000   35.848393   -22.719131
 0.375000   35.740256   -20.704237
 0.380000   35.641351   -21.732747
 0.385000   35.522929   -23.910392
 0.390000   35.402247   -22.667147
 0.395000   35.296258   -22.348305
 0.400000   35.178764   -24.993976
 0.405000   35.046318   -25.614360
 0.410000   34.922620   -26.604880
 0.415000   34.780269   -32.431935
 0.420000   34.598301   -37.652577
 0.425000   34.403743   -43.197183
 0.430000   34.166329   -53.446274
 0.435000   33.869280   -63.592222
 0.440000   33.530407   -73.102056
 0.445000   33.138260   -83.733085
 0.450000   32.693076   -93.250127
 0.455000   32.205759   -100.737910
 0.460000   31.685697   -106.671781
 0.465000   31.139041   -111.698623
 0.470000   30.568710   -113.522364
 0.475000   30.003817   -111.675835
 0.480000   29.451952   -109.113829
 0.485000   28.912679   -104.588717
 0.490000   28.406065   -97.728782
 0.495000   27.935391   -90.387588
 0.500000   27.502189   -83.189580
 0.505000   27.103495   -76.081827
 0.510000   26.741371   -69.495416
 0.515000   26.408541   -64.703806
 0.520000   26.094333   -60.522176
 0.525000   25.803319   -56.475763
 0.530000   25.529575   -53.560265
 0.535000   25.267717   -51.241924
 0.540000   25.017156   -48.678952
 0.545000   24.780927   -46.125103
 0.550000   24.555905   -44.392871
 0.555000   24.336998   -42.551575
 0.560000   24.130389   -40.167586
 0.565000   23.935323   -38.252961
 0.570000   23.747859   -36.457837
 0.575000   23.570744   -34.203846
 0.580000   23.405821   -32.009831
 0.585000   23.250646   -30.498992
 0.590000   23.100831   -28.783195
 0.595000   22.962814   -26.892111
 0.600000   22.831910   -26.074871
 0.605000   22.702065   -25.699839
 0.610000   22.574912   -25.094469
 0.615000   22.451121   -24.888716
 0.620000   22.326024   -25.880738
 0.625000   22.192313   -26.710446
 0.630000   22.058920   -27.355873
 0.635000   21.918754   -29.202093
 0.640000   21.766899   -31.088968
 0.645000   21.607865   -32.328290
 0.650000   21.443616   -33.786397
 0.655000   21.270001   -36.683122
 0.660000   21.076785   -39.262422
 0.665000   20.877377   -41.491349
 0.670000   20.661871   -45.072858
 0.675000   20.426648   -49.507455
 0.680000   20.166797   -53.694512
 0.685000   19.889703   -57.728851
 0.690000   19.589508   -63.243148
 0.695000   19.257271   -68.631363
 0.700000   18.903195   -71.595243
 0.705000   18.541319   -74.080805
 0.710000   18.162387   -78.323797
 0.715000   17.758081   -80.932100
 0.720000   17.353066   -81.963201
 0.725000   16.938449   -84.335471
 0.730000   16.509711   -85.383823
 0.735000   16.084611   -84.058160
 0.740000   15.669129   -82.705616
 0.745000   15.257555   -83.030994
 0.750000   14.838819   -82.748820
 0.755000   14.430066   -80.642035
 0.760000   14.032399   -80.167736
 0.765000   13.628389   -82.253642
 0.770000   13.209863   -82.986465
 0.775000   12.798524   -82.607767
 0.780000   12.383785   -83.110150
 0.785000   11.967423   -82.425242
 0.790000   11.559533   -80.471090
 0.795000   11.162712   -78.038049
 0.800000   10.779152   -75.540536
 0.805000   10.407307   -71.942346
 0.810000   10.059729   -66.511565
 0.815000   9.742191   -60.447189
 0.820000   9.455257   -54.607293
 0.825000   9.196118   -47.593614
 0.830000   8.979321   -39.782882
 0.835000   8.798289   -33.188495
 0.840000   8.647436   -28.246802
 0.845000   8.515821   -24.575277
 0.850000   8.401683   -22.720658
 0.855000   8.288615   -23.833555
 0.860000   8.163347   -27.892848
 0.865000   8.009686   -34.776190
 0.870000   7.815585   -44.878375
 0.875000   7.560902   -59.775805
 0.880000   7.217827   -79.399539
 0.885000   6.766907   -102.647146
 0.890000   6.191356   -130.112872
 0.895000   5.465778   -162.606396
 0.900000   4.565292   -197.605471
 0.905000   3.489724   -234.264707
 0.910000   2.222645   -271.769746
 0.915000   0.772026   -305.386497
 0.920000   -0.831220   -336.495149
 0.925000   -2.592925   -370.007647
 0.930000   -4.531297   -409.136572
 0.935000   -6.684291   -464.783129
 0.940000   -9.179128   -538.015649
 0.945000   -12.064448   -609.547171
 0.950000   -15.274600   -682.029888
 0.955000   -18.884746   -738.872291
 0.960000   -22.663322   -672.357351
 0.965000   -25.608320   -459.557854
 0.970000   -27.258901   -144.802251
 0.975000   -27.056342   268.737092
 0.980000   -24.571530   695.777565
 0.985000   -20.098567   989.030491
 0.990000   -14.681225   1077.956207
 0.995000   -9.319005   979.900092
 1.000000   -4.882224   794.812110
201 psinorm ommvb() dommvb/dpsiN
 0.000000   13.980588   22734.579603
 0.005000   107.411424   14637.754829
 0.010000   160.358137   9781.524585
 0.015000   205.226670   8248.854675
 0.020000   242.846683   7140.141810
 0.025000   276.628088   6176.135260
 0.030000   304.608036   5234.406613
 0.035000   328.972154   4631.433073
 0.040000   350.922367   4129.914432
 0.045000   370.271299   3728.512320
 0.050000   388.207490   3286.676123
 0.055000   403.138060   2862.761892
 0.060000   416.835109   2479.595348
 0.065000   427.934014   2146.046745
 0.070000   438.295576   1886.668309
 0.075000   446.800697   1604.751463
 0.080000   454.343091   1367.485187
 0.085000   460.475548   1147.724575
 0.090000   465.820337   970.628920
 0.095000   470.181838   786.415221
 0.100000   473.684489   600.822147
 0.105000   476.190059   388.367568
 0.110000   477.568165   225.637961
 0.115000   478.446439   103.713957
 0.120000   478.605304   -41.984212
 0.125000   478.026597   -184.918449
 0.130000   476.756120   -314.186826
 0.135000   474.884728   -457.122293
 0.140000   472.184897   -596.135995
 0.145000   468.923368   -684.610068
 0.150000   465.338796   -756.461032
 0.155000   461.358758   -839.067198
 0.160000   456.948124   -920.846444
 0.165000   452.150294   -989.444049
 0.170000   447.053684   -1047.218877
 0.175000   441.678105   -1087.140071
 0.180000   436.182283   -1098.455094
 0.185000   430.693554   -1152.154212
 0.190000   424.660741   -1240.961169
 0.195000   418.283942   -1408.561750
 0.200000   410.575123   -1414.135553
 0.205000   404.142587   -1288.448938
 0.210000   397.690634   -1290.735337
 0.215000   391.235233   -1289.336244
 0.220000   384.797271   -1294.535368
 0.225000   378.289880   -1308.574005
 0.230000   371.711531   -1351.733736
 0.235000   364.772542   -1461.913261
 0.240000   357.092399   -1361.984227
 0.245000   351.152700   -1173.841216
 0.250000   345.353987   -1145.807241
 0.255000   339.694628   -1116.043251
 0.260000   334.193554   -1144.275887
 0.265000   328.251869   -1268.173354
 0.270000   321.511821   -1163.098869
 0.275000   316.620880   -955.281223
 0.280000   311.959008   -912.255710
 0.285000   307.498323   -870.248652
 0.290000   303.256522   -1015.546792
 0.295000   297.342855   -967.703755
 0.300000   293.579484   -719.985496
 0.305000   290.143000   -671.798113
 0.310000   286.861503   -640.974462
 0.315000   283.733256   -767.018294
 0.320000   279.191320   -706.502329
 0.325000   276.668232   -470.150708
 0.330000   274.489813   -417.998580
 0.335000   272.488246   -457.015165
 0.340000   269.919661   -527.205956
 0.345000   267.216187   -432.636281
 0.350000   265.593299   -313.037656
 0.355000   264.085810   -289.694809
 0.360000   262.696351   -362.398752
 0.365000   260.461823   -339.285216
 0.370000   259.303498   -206.808157
 0.375000   258.393741   -173.356660
 0.380000   257.569932   -203.929302
 0.385000   256.354448   -227.534315
 0.390000   255.294589   -153.069041
 0.395000   254.823758   -86.085481
 0.400000   254.433734   -86.753737
 0.405000   253.956220   -124.612080
 0.410000   253.187613   -91.683166
 0.415000   253.039389   -32.155414
 0.420000   252.866059   -38.980208
 0.425000   252.649587   -129.597089
 0.430000   251.570088   -145.174419
 0.435000   251.197842   -84.239444
 0.440000   250.727694   -104.003256
 0.445000   250.157810   -185.993773
 0.450000   248.867756   -219.844765
 0.455000   247.959362   -164.729045
 0.460000   247.220465   -146.160738
 0.465000   246.497755   -193.074344
 0.470000   245.289722   -204.333798
 0.475000   244.454417   -130.757215
 0.480000   243.982150   -86.076060
 0.485000   243.593656   -97.124170
 0.490000   243.010908   -93.469331
 0.495000   242.658963   -23.322825
 0.500000   242.777680   35.227127
 0.505000   243.011234   45.051222
 0.510000   243.228192   41.702877
 0.515000   243.428263   79.395042
 0.520000   244.022142   128.366987
 0.525000   244.711933   146.946004
 0.530000   245.491603   120.042479
 0.535000   245.912358   124.612491
 0.540000   246.737727   169.814333
 0.545000   247.610501   179.415293
 0.550000   248.531880   163.261911
 0.555000   249.243120   166.284846
 0.560000   250.194729   200.704703
 0.565000   251.250167   214.862639
 0.570000   252.343355   210.613911
 0.575000   253.356306   207.754882
 0.580000   254.420904   238.998800
 0.585000   255.746294   273.633533
 0.590000   257.157239   291.762279
 0.595000   258.663917   283.049875
 0.600000   259.987738   298.261691
 0.605000   261.646534   348.001601
 0.610000   263.467754   379.280797
 0.615000   265.439342   402.591784
 0.620000   267.493672   417.812308
 0.625000   269.617465   448.740129
 0.630000   271.981073   485.132701
 0.635000   274.468792   509.747932
 0.640000   277.078553   540.810874
 0.645000   279.876901   574.716533
 0.650000   282.825718   605.506183
 0.655000   285.931963   635.631173
 0.660000   289.182030   663.240299
 0.665000   292.564366   704.185699
 0.670000   296.223887   736.633873
 0.675000   299.930704   763.890327
 0.680000   303.862790   803.343380
 0.685000   307.964138   831.575289
 0.690000   312.178543   878.353212
 0.695000   316.747670   917.669393
 0.700000   321.355237   945.530445
 0.705000   326.202975   991.852713
 0.710000   331.273764   1035.962919
 0.715000   336.562604   1098.325737
 0.720000   342.257021   1160.182218
 0.725000   348.164426   1202.525945
 0.730000   354.282281   1255.479012
 0.735000   360.719216   1319.791023
 0.740000   367.480191   1385.080586
 0.745000   374.570022   1463.406618
 0.750000   382.114257   1520.578474
 0.755000   389.775807   1559.610276
 0.760000   397.710360   1617.957470
 0.765000   405.955381   1682.277078
 0.770000   414.533131   1750.831032
 0.775000   423.463692   1832.444486
 0.780000   432.857575   1926.285920
 0.785000   442.726551   2024.047043
 0.790000   453.098046   2132.112221
 0.795000   464.047673   2249.276352
 0.800000   475.590809   2366.173042
 0.805000   487.709404   2480.367420
 0.810000   500.394484   2571.655844
 0.815000   513.425962   2663.582227
 0.820000   527.030306   2788.193900
 0.825000   541.307901   2912.434488
 0.830000   556.154651   3024.818172
 0.835000   571.556083   3132.600255
 0.840000   587.480653   3235.725914
 0.845000   603.913342   3332.990864
 0.850000   620.810562   3392.462811
 0.855000   637.837970   3368.191341
 0.860000   654.492475   3466.109779
 0.865000   672.499068   3723.393018
 0.870000   691.726406   4008.289317
 0.875000   712.581961   4360.924723
 0.880000   735.335653   4774.108798
 0.885000   760.323049   5272.557410
 0.890000   788.061227   5894.892765
 0.895000   819.271977   6695.049352
 0.900000   855.011720   7763.724804
 0.905000   896.909225   9204.937346
 0.910000   947.061094   11118.479958
 0.915000   1008.094024   13517.269304
 0.920000   1082.233787   16372.399233
 0.925000   1171.818017   19725.093835
 0.930000   1279.484725   23444.882962
 0.935000   1406.266846   26971.187158
 0.940000   1549.196597   29552.575460
 0.945000   1701.792601   31115.885819
 0.950000   1860.355455   34167.137265
 0.955000   2043.463973   44536.073322
 0.960000   2305.716188   67695.060190
 0.965000   2720.414575   95782.570385
 0.970000   3263.541892   106319.217688
 0.975000   3783.606752   86166.614209
 0.980000   4125.208034   54306.586181
 0.985000   4326.672614   37093.212217
 0.990000   4496.140156   42714.827915
 0.995000   4753.820893   440070.077730
 1.000000   8896.840934   1217137.938466
201 psinorm ommpp() dommpp/dpsiN
 0.000000   49.291589   -22593.482072
 0.005000   -43.605563   -14565.378713
 0.010000   -96.362198   -9746.694842
 0.015000   -141.072511   -8218.625157
 0.020000   -178.548450   -7112.778371
 0.025000   -212.200295   -6152.434076
 0.030000   -240.072791   -5215.988635
 0.035000   -264.360181   -4618.670000
 0.040000   -286.259491   -4122.378570
 0.045000   -305.583967   -3725.948084
 0.050000   -323.518971   -3288.206583
 0.055000   -338.466033   -2867.115588
 0.060000   -352.190127   -2485.523041
 0.065000   -363.321263   -2152.663264
 0.070000   -373.716760   -1893.338379
 0.075000   -382.254647   -1611.185161
 0.080000   -389.828611   -1373.776432
 0.085000   -395.992412   -1153.962295
 0.090000   -401.368234   -977.247368
 0.095000   -405.764885   -793.958522
 0.100000   -409.307820   -609.657026
 0.105000   -411.861455   -398.834470
 0.110000   -413.296164   -237.946631
 0.115000   -414.240922   -118.240270
 0.120000   -414.478567   24.987936
 0.125000   -413.991042   165.474940
 0.130000   -412.823818   292.445390
 0.135000   -411.066589   433.262852
 0.140000   -408.491189   570.459721
 0.145000   -405.361991   657.580477
 0.150000   -401.915384   728.582285
 0.155000   -398.076168   810.678708
 0.160000   -393.808597   891.932793
 0.165000   -389.156841   960.078229
 0.170000   -384.207815   1017.351743
 0.175000   -378.983323   1056.950663
 0.180000   -373.638308   1067.780561
 0.185000   -368.305517   1120.487055
 0.190000   -362.433438   1208.088908
 0.195000   -356.224628   1373.949690
 0.200000   -348.693941   1377.462811
 0.205000   -342.450000   1249.205443
 0.210000   -336.201886   1249.025842
 0.215000   -329.959742   1245.868974
 0.220000   -323.743197   1249.378044
 0.225000   -317.465961   1261.908655
 0.230000   -311.124110   1303.593580
 0.235000   -304.430026   1411.607526
 0.240000   -297.008035   1309.930541
 0.245000   -291.330720   1120.775897
 0.250000   -285.800276   1091.627058
 0.255000   -280.414450   1060.834220
 0.260000   -275.191934   1088.099684
 0.265000   -269.533453   1211.275018
 0.270000   -263.079184   1106.075860
 0.275000   -258.472694   898.382525
 0.280000   -254.095358   855.351810
 0.285000   -249.919176   813.229922
 0.290000   -245.963059   958.248780
 0.295000   -240.336688   910.450386
 0.300000   -236.858555   662.407007
 0.305000   -233.712618   612.403439
 0.310000   -230.734521   579.162456
 0.315000   -227.920994   702.759281
 0.320000   -223.706928   639.582461
 0.325000   -221.525169   400.637324
 0.330000   -219.700555   345.827373
 0.335000   -218.066895   382.490356
 0.340000   -215.875651   451.201534
 0.345000   -213.554880   355.789076
 0.350000   -212.317760   235.977014
 0.355000   -211.195110   212.666721
 0.360000   -210.191093   285.078140
 0.365000   -208.344328   262.408158
 0.370000   -207.567012   131.096903
 0.375000   -207.033359   98.584674
 0.380000   -206.581165   129.971317
 0.385000   -205.733646   154.353069
 0.390000   -205.037634   81.016566
 0.395000   -204.923481   14.934920
 0.400000   -204.888285   15.810038
 0.405000   -204.765380   53.298590
 0.410000   -204.355299   18.213186
 0.415000   -204.583248   -45.729345
 0.420000   -204.812593   -44.813199
 0.425000   -205.031380   36.991128
 0.430000   -204.442681   41.493259
 0.435000   -204.616448   -31.374839
 0.440000   -204.756430   -25.060547
 0.445000   -204.867053   44.157822
 0.450000   -204.314852   67.516516
 0.455000   -204.191888   3.086803
 0.460000   -204.283983   -22.821858
 0.465000   -204.420107   19.775035
 0.470000   -204.086233   30.059586
 0.475000   -204.119511   -40.752422
 0.480000   -204.493757   -79.973299
 0.485000   -204.919244   -61.223391
 0.490000   -205.105991   -55.353198
 0.495000   -205.472776   -114.713139
 0.500000   -206.253123   -162.075663
 0.505000   -207.093532   -161.670723
 0.510000   -207.869830   -149.401014
 0.515000   -208.587543   -179.433222
 0.520000   -209.664162   -222.000617
 0.525000   -210.807549   -235.223361
 0.530000   -212.016396   -203.724350
 0.535000   -212.844792   -204.286960
 0.540000   -214.059265   -245.815457
 0.545000   -215.302947   -251.914619
 0.550000   -216.578411   -232.556397
 0.555000   -217.628511   -232.656730
 0.560000   -218.904979   -264.085757
 0.565000   -220.269368   -275.128391
 0.570000   -221.656263   -267.884012
 0.575000   -222.948208   -262.074179
 0.580000   -224.277004   -290.406728
 0.585000   -225.852276   -322.292495
 0.590000   -227.499929   -337.938478
 0.595000   -229.231661   -327.103624
 0.600000   -230.770966   -340.692786
 0.605000   -232.638588   -389.412371
 0.610000   -234.665089   -420.102801
 0.615000   -236.839616   -443.223612
 0.620000   -239.097326   -458.823279
 0.625000   -241.427849   -490.640025
 0.630000   -244.003726   -528.412621
 0.635000   -246.711975   -554.787304
 0.640000   -249.551599   -587.594329
 0.645000   -252.587919   -623.348472
 0.650000   -255.785084   -656.315174
 0.655000   -259.151070   -688.914986
 0.660000   -262.674233   -719.510997
 0.665000   -266.346180   -764.116791
 0.670000   -270.315401   -800.553377
 0.675000   -274.351714   -832.369327
 0.680000   -278.639095   -877.257086
 0.685000   -283.124285   -911.152683
 0.690000   -287.750621   -963.593193
 0.695000   -292.760217   -1008.983274
 0.700000   -297.840454   -1041.316495
 0.705000   -303.173382   -1090.751019
 0.710000   -308.747964   -1138.420762
 0.715000   -314.557590   -1203.854998
 0.720000   -320.786514   -1268.159025
 0.725000   -327.239180   -1312.434726
 0.730000   -333.910862   -1365.400801
 0.735000   -340.893188   -1428.515761
 0.740000   -348.196019   -1492.836625
 0.745000   -355.821554   -1569.930586
 0.750000   -363.895325   -1626.036748
 0.755000   -372.081922   -1663.517061
 0.760000   -380.530496   -1721.259065
 0.765000   -389.294512   -1786.329703
 0.770000   -398.393793   -1855.582388
 0.775000   -407.850336   -1937.909431
 0.780000   -417.772887   -2031.542860
 0.785000   -428.165765   -2127.256899
 0.790000   -439.045456   -2233.128633
 0.795000   -450.497051   -2347.919721
 0.800000   -462.524653   -2460.755602
 0.805000   -475.104607   -2569.874803
 0.810000   -488.223401   -2655.055095
 0.815000   -501.655158   -2739.834302
 0.820000   -515.621744   -2856.305005
 0.825000   -530.218208   -2971.743514
 0.830000   -545.339179   -3075.373679
 0.835000   -560.971945   -3175.065734
 0.840000   -577.089837   -3271.432955
 0.845000   -593.686274   -3364.195314
 0.850000   -610.731790   -3421.954617
 0.855000   -627.905821   -3398.726840
 0.860000   -644.719058   -3500.941328
 0.865000   -662.915234   -3766.450312
 0.870000   -682.383561   -4063.683017
 0.875000   -703.552064   -4433.724991
 0.880000   -726.720811   -4869.851791
 0.885000   -752.250582   -5396.011282
 0.890000   -780.680924   -6051.124570
 0.895000   -812.761828   -6889.463992
 0.900000   -849.575564   -7999.391040
 0.905000   -892.755738   -9484.232697
 0.910000   -944.417891   -11442.261529
 0.915000   -1007.178353   -13880.476737
 0.920000   -1083.222658   -16772.320495
 0.925000   -1174.901558   -20164.705910
 0.930000   -1284.869717   -23929.566984
 0.935000   -1414.197228   -27516.033828
 0.940000   -1560.030056   -30181.945358
 0.945000   -1716.016682   -31832.296833
 0.950000   -1878.353024   -34953.834097
 0.955000   -2065.555023   -45349.048222
 0.960000   -2331.843506   -68431.731618
 0.965000   -2749.872339   -96299.041664
 0.970000   -3294.833923   -106458.541944
 0.975000   -3814.457758   -85815.091177
 0.980000   -4152.984835   -53489.917555
 0.985000   -4349.356934   -35969.785563
 0.990000   -4512.682690   -41496.851783
 0.995000   -4764.325452   -438966.567964
 1.000000   -8902.348370   -1216242.599383
201 psinorm omevb() domevb/dpsiN
 0.000000   40.761430   145.465809
 0.005000   41.322312   78.887153
 0.010000   41.550301   42.499366
 0.015000   41.747306   38.073022
 0.020000   41.931031   35.379744
 0.025000   42.101103   31.889194
 0.030000   42.249923   26.776578
 0.035000   42.368869   21.291129
 0.040000   42.462835   16.232225
 0.045000   42.531191   11.427738
 0.050000   42.577112   7.498997
 0.055000   42.606181   4.840514
 0.060000   42.625517   3.430053
 0.065000   42.640482   2.903530
 0.070000   42.654552   3.011029
 0.075000   42.670592   3.407187
 0.080000   42.688624   3.708144
 0.085000   42.707673   3.918876
 0.090000   42.727813   3.694043
 0.095000   42.744614   2.923757
 0.100000   42.757051   1.785408
 0.105000   42.762468   0.305256
 0.110000   42.760103   -1.386009
 0.115000   42.748608   -3.454534
 0.120000   42.725558   -5.776772
 0.125000   42.690840   -8.077693
 0.130000   42.644781   -10.230729
 0.135000   42.588533   -12.205279
 0.140000   42.522728   -13.880104
 0.145000   42.449732   -15.092872
 0.150000   42.371799   -15.802952
 0.155000   42.291702   -16.175100
 0.160000   42.210048   -16.564162
 0.165000   42.126061   -16.881735
 0.170000   42.041231   -17.249971
 0.175000   41.953561   -17.440692
 0.180000   41.866824   -17.795799
 0.185000   41.775603   -18.659952
 0.190000   41.680225   -19.738140
 0.195000   41.578221   -21.352588
 0.200000   41.466699   -23.289493
 0.205000   41.345327   -25.738050
 0.210000   41.209318   -28.083446
 0.215000   41.064492   -29.722215
 0.220000   40.912096   -31.294869
 0.225000   40.751543   -32.687109
 0.230000   40.585225   -34.047751
 0.235000   40.411066   -36.100793
 0.240000   40.224217   -37.737842
 0.245000   40.033687   -38.640213
 0.250000   39.837815   -39.647463
 0.255000   39.637213   -40.570349
 0.260000   39.432111   -41.433218
 0.265000   39.222881   -42.052709
 0.270000   39.011584   -42.076411
 0.275000   38.802117   -41.852800
 0.280000   38.593056   -41.760379
 0.285000   38.384513   -41.779268
 0.290000   38.175264   -41.964292
 0.295000   37.964870   -41.827080
 0.300000   37.756993   -42.061322
 0.305000   37.544257   -43.788324
 0.310000   37.319110   -46.118168
 0.315000   37.083075   -48.479388
 0.320000   36.834316   -51.056156
 0.325000   36.572513   -53.567288
 0.330000   36.298643   -56.144431
 0.335000   36.011069   -58.419057
 0.340000   35.714452   -59.821401
 0.345000   35.412855   -60.588623
 0.350000   35.108566   -60.728204
 0.355000   34.805573   -60.623501
 0.360000   34.502331   -60.845585
 0.365000   34.197117   -60.333296
 0.370000   33.898998   -59.100463
 0.375000   33.606113   -58.095870
 0.380000   33.318039   -57.218249
 0.385000   33.033930   -56.379591
 0.390000   32.754243   -55.190600
 0.395000   32.482024   -54.230166
 0.400000   32.211942   -53.966478
 0.405000   31.942359   -54.281136
 0.410000   31.669130   -56.384185
 0.415000   31.378517   -60.747208
 0.420000   31.061658   -66.605784
 0.425000   30.712460   -75.369946
 0.430000   30.307959   -86.398430
 0.435000   29.848475   -98.286509
 0.440000   29.325094   -111.692655
 0.445000   28.731549   -124.423091
 0.450000   28.080863   -134.875336
 0.455000   27.382795   -144.150929
 0.460000   26.639354   -151.454531
 0.465000   25.868250   -155.736134
 0.470000   25.081992   -156.677565
 0.475000   24.301474   -153.881150
 0.480000   23.543181   -148.390656
 0.485000   22.817568   -140.660260
 0.490000   22.136578   -131.108242
 0.495000   21.506485   -120.296295
 0.500000   20.933615   -109.085085
 0.505000   20.415635   -98.833857
 0.510000   19.945277   -89.891884
 0.515000   19.516716   -82.212893
 0.520000   19.123148   -75.790879
 0.525000   18.758807   -70.418701
 0.530000   18.418961   -65.808860
 0.535000   18.100718   -61.788647
 0.540000   17.801074   -58.104025
 0.545000   17.519678   -54.592475
 0.550000   17.255149   -51.379400
 0.555000   17.005884   -48.450072
 0.560000   16.770649   -45.454013
 0.565000   16.551344   -42.334971
 0.570000   16.347299   -39.337059
 0.575000   16.157973   -36.385463
 0.580000   15.983444   -33.474761
 0.585000   15.823226   -30.727910
 0.590000   15.676165   -28.248702
 0.595000   15.540739   -26.131233
 0.600000   15.414853   -24.514980
 0.605000   15.295589   -23.502462
 0.610000   15.179828   -22.922897
 0.615000   15.066360   -22.743308
 0.620000   14.952395   -23.134411
 0.625000   14.835016   -24.036657
 0.630000   14.712029   -25.431352
 0.635000   14.580702   -27.206816
 0.640000   14.439961   -28.968236
 0.645000   14.291020   -30.835372
 0.650000   14.131607   -33.032378
 0.655000   13.960696   -35.528445
 0.660000   13.776322   -38.537851
 0.665000   13.575318   -42.222032
 0.670000   13.354102   -46.235482
 0.675000   13.112963   -50.821253
 0.680000   12.845890   -56.283458
 0.685000   12.550128   -61.975853
 0.690000   12.226131   -67.668340
 0.695000   11.873445   -73.773317
 0.700000   11.488398   -78.277722
 0.705000   11.090668   -81.423351
 0.710000   10.674164   -85.017379
 0.715000   10.240494   -88.124377
 0.720000   9.792921   -90.608564
 0.725000   9.334408   -92.578203
 0.730000   8.867139   -92.629858
 0.735000   8.408110   -91.472380
 0.740000   7.952415   -90.544112
 0.745000   7.502669   -89.353246
 0.750000   7.058882   -88.329419
 0.755000   6.619374   -86.820316
 0.760000   6.190679   -86.257848
 0.765000   5.756796   -87.051693
 0.770000   5.320162   -87.793027
 0.775000   4.878866   -88.548595
 0.780000   4.434676   -88.381426
 0.785000   3.995051   -86.373361
 0.790000   3.570943   -84.216248
 0.795000   3.152889   -81.875749
 0.800000   2.752185   -77.842308
 0.805000   2.374466   -72.787592
 0.810000   2.024309   -66.690897
 0.815000   1.707557   -59.543610
 0.820000   1.428873   -51.388056
 0.825000   1.193676   -42.553707
 0.830000   1.003336   -33.746992
 0.835000   0.856206   -25.580112
 0.840000   0.747535   -18.719939
 0.845000   0.669007   -14.092751
 0.850000   0.606607   -12.240899
 0.855000   0.546598   -13.150197
 0.860000   0.475105   -17.355382
 0.865000   0.373044   -25.604988
 0.870000   0.219056   -38.204982
 0.875000   -0.009006   -56.328146
 0.880000   -0.344226   -80.797966
 0.885000   -0.816985   -111.439542
 0.890000   -1.458621   -149.531473
 0.895000   -2.312300   -197.030705
 0.900000   -3.428928   -254.289304
 0.905000   -4.855193   -325.114645
 0.910000   -6.680075   -415.588707
 0.915000   -9.011080   -532.763478
 0.920000   -12.007710   -701.226299
 0.925000   -16.023343   -964.553774
 0.930000   -21.653247   -1387.614796
 0.935000   -29.899491   -2073.840626
 0.940000   -42.391654   -3139.466671
 0.945000   -61.294158   -4577.081439
 0.950000   -88.162468   -6015.885847
 0.955000   -121.453016   -6440.350070
 0.960000   -152.565969   -4670.353739
 0.965000   -168.156554   -918.575770
 0.970000   -161.751726   2889.100799
 0.975000   -139.265546   5149.909668
 0.980000   -110.252630   5788.305874
 0.985000   -81.382487   5398.643655
 0.990000   -56.266193   4478.319825
 0.995000   -36.599289   3372.755179
 1.000000   -22.538641   2251.503770
201 psinorm omepp() domepp/dpsiN
 0.000000   22.510748   -4.368277
 0.005000   22.483549   -6.511037
 0.010000   22.445637   -7.669624
 0.015000   22.406853   -7.843504
 0.020000   22.367202   -8.016305
 0.025000   22.326690   -8.188010
 0.030000   22.285322   -8.358599
 0.035000   22.243104   -8.528056
 0.040000   22.200042   -8.696363
 0.045000   22.156141   -8.863502
 0.050000   22.111407   -9.029457
 0.055000   22.065846   -9.194211
 0.060000   22.019465   -9.357746
 0.065000   21.972268   -9.520048
 0.070000   21.924264   -9.681099
 0.075000   21.875457   -9.840885
 0.080000   21.825855   -9.999388
 0.085000   21.775464   -10.156595
 0.090000   21.724289   -10.312491
 0.095000   21.672339   -10.467059
 0.100000   21.619619   -10.620286
 0.105000   21.566136   -10.772158
 0.110000   21.511897   -10.922661
 0.115000   21.456909   -11.071780
 0.120000   21.401179   -11.219503
 0.125000   21.344714   -11.365816
 0.130000   21.287521   -11.510707
 0.135000   21.229607   -11.654162
 0.140000   21.170979   -11.796170
 0.145000   21.111645   -11.936718
 0.150000   21.051612   -12.075795
 0.155000   20.990887   -12.213389
 0.160000   20.929478   -12.349489
 0.165000   20.867393   -12.484084
 0.170000   20.804638   -12.617163
 0.175000   20.741221   -12.748717
 0.180000   20.677150   -12.878734
 0.185000   20.612434   -13.007205
 0.190000   20.547078   -13.134121
 0.195000   20.481092   -13.259472
 0.200000   20.414484   -13.383249
 0.205000   20.347260   -13.505444
 0.210000   20.279429   -13.626049
 0.215000   20.210999   -13.745055
 0.220000   20.141979   -13.862455
 0.225000   20.072375   -13.978241
 0.230000   20.002196   -14.092405
 0.235000   19.931451   -14.204942
 0.240000   19.860147   -14.315844
 0.245000   19.788292   -14.425106
 0.250000   19.715896   -14.532720
 0.255000   19.642965   -14.638682
 0.260000   19.569509   -14.742986
 0.265000   19.495535   -14.845626
 0.270000   19.421053   -14.946598
 0.275000   19.346069   -15.045898
 0.280000   19.270594   -15.143521
 0.285000   19.194634   -15.239462
 0.290000   19.118199   -15.333720
 0.295000   19.041297   -15.426288
 0.300000   18.963936   -15.517166
 0.305000   18.886125   -15.606350
 0.310000   18.807873   -15.693837
 0.315000   18.729187   -15.779625
 0.320000   18.650076   -15.863712
 0.325000   18.570550   -15.946096
 0.330000   18.490615   -16.026777
 0.335000   18.410282   -16.105752
 0.340000   18.329558   -16.183021
 0.345000   18.248452   -16.258583
 0.350000   18.166972   -16.332438
 0.355000   18.085127   -16.404586
 0.360000   18.002926   -16.475027
 0.365000   17.920377   -16.543762
 0.370000   17.837489   -16.610791
 0.375000   17.754269   -16.676115
 0.380000   17.670727   -16.739736
 0.385000   17.586872   -16.801655
 0.390000   17.502711   -16.861874
 0.395000   17.418253   -16.920395
 0.400000   17.333507   -16.977221
 0.405000   17.248481   -17.032354
 0.410000   17.163183   -17.085796
 0.415000   17.077623   -17.137551
 0.420000   16.991808   -17.187623
 0.425000   16.905747   -17.236015
 0.430000   16.819448   -17.282730
 0.435000   16.732919   -17.327773
 0.440000   16.646170   -17.371148
 0.445000   16.559208   -17.412860
 0.450000   16.472041   -17.452913
 0.455000   16.384679   -17.491313
 0.460000   16.297128   -17.528065
 0.465000   16.209398   -17.563174
 0.470000   16.121497   -17.596646
 0.475000   16.033432   -17.628487
 0.480000   15.945212   -17.658704
 0.485000   15.856845   -17.687302
 0.490000   15.768339   -17.714288
 0.495000   15.679702   -17.739669
 0.500000   15.590942   -17.763452
 0.505000   15.502067   -17.785644
 0.510000   15.413086   -17.806253
 0.515000   15.324005   -17.825286
 0.520000   15.234833   -17.842752
 0.525000   15.145577   -17.858657
 0.530000   15.056246   -17.873012
 0.535000   14.966847   -17.885823
 0.540000   14.877388   -17.897099
 0.545000   14.787876   -17.906851
 0.550000   14.698319   -17.915085
 0.555000   14.608725   -17.921812
 0.560000   14.519101   -17.927041
 0.565000   14.429455   -17.930781
 0.570000   14.339793   -17.933042
 0.575000   14.250124   -17.933834
 0.580000   14.160455   -17.933167
 0.585000   14.070793   -17.931052
 0.590000   13.981145   -17.927497
 0.595000   13.891518   -17.922515
 0.600000   13.801919   -17.916115
 0.605000   13.712357   -17.908309
 0.610000   13.622836   -17.899107
 0.615000   13.533366   -17.888520
 0.620000   13.443951   -17.876561
 0.625000   13.354600   -17.863239
 0.630000   13.265319   -17.848567
 0.635000   13.176114   -17.832556
 0.640000   13.086993   -17.815219
 0.645000   12.997962   -17.796567
 0.650000   12.909028   -17.776613
 0.655000   12.820196   -17.755368
 0.660000   12.731474   -17.732846
 0.665000   12.642868   -17.709060
 0.670000   12.554383   -17.684022
 0.675000   12.466027   -17.657747
 0.680000   12.377806   -17.630249
 0.685000   12.289725   -17.601541
 0.690000   12.201790   -17.571641
 0.695000   12.114008   -17.540564
 0.700000   12.026385   -17.508328
 0.705000   11.938925   -17.474954
 0.710000   11.851635   -17.440464
 0.715000   11.764520   -17.404884
 0.720000   11.677586   -17.368243
 0.725000   11.590838   -17.330578
 0.730000   11.504281   -17.291932
 0.735000   11.417919   -17.252359
 0.740000   11.331757   -17.211927
 0.745000   11.245799   -17.170722
 0.750000   11.160050   -17.128856
 0.755000   11.074511   -17.086469
 0.760000   10.989185   -17.043748
 0.765000   10.904073   -17.000931
 0.770000   10.819176   -16.958330
 0.775000   10.734490   -16.916350
 0.780000   10.650012   -16.875513
 0.785000   10.565735   -16.836496
 0.790000   10.481647   -16.800164
 0.795000   10.397733   -16.767619
 0.800000   10.313971   -16.740252
 0.805000   10.230331   -16.719792
 0.810000   10.146773   -16.708353
 0.815000   10.063247   -16.708465
 0.820000   9.979689   -16.723050
 0.825000   9.896017   -16.755320
 0.830000   9.812135   -16.808515
 0.835000   9.727932   -16.885367
 0.840000   9.643282   -16.987102
 0.845000   9.558061   -17.111698
 0.850000   9.472165   -17.250907
 0.855000   9.385552   -17.385302
 0.860000   9.298312   -17.476168
 0.865000   9.210790   -17.452306
 0.870000   9.123789   -17.188717
 0.875000   9.038903   -16.472121
 0.880000   8.959067   -14.945027
 0.885000   8.889452   -12.014330
 0.890000   8.838924   -6.700332
 0.895000   8.822449   2.616065
 0.900000   8.865085   18.623068
 0.905000   9.008680   45.819293
 0.910000   9.323278   91.807136
 0.915000   9.926751   169.556045
 0.920000   11.018838   301.305037
 0.925000   12.939802   524.941700
 0.930000   16.268255   902.930774
 0.935000   21.969109   1528.993956
 0.940000   31.558195   2510.096773
 0.945000   47.070077   3860.670424
 0.950000   70.164899   5229.189015
 0.955000   99.361967   5627.375170
 0.960000   126.438651   3933.682311
 0.965000   138.698790   402.104491
 0.970000   130.459696   -3028.425054
 0.975000   108.414540   -4798.386635
 0.980000   82.475829   -4971.637249
 0.985000   58.698167   -4275.217000
 0.990000   39.723659   -3260.343693
 0.995000   26.094730   -2269.245414
 1.000000   17.031205   -1356.164687
201 psinorm kpol(km/s/T) dkpol/dpsiN
 0.000000   0.004778   160.565731
 0.005000   0.661146   101.981350
 0.010000   1.024592   70.486058
 0.015000   1.366007   67.762809
 0.020000   1.702220   66.585598
 0.025000   2.031862   64.382682
 0.030000   2.346047   60.277040
 0.035000   2.634633   55.566745
 0.040000   2.901714   51.119476
 0.045000   3.145828   46.801454
 0.050000   3.369729   43.277862
 0.055000   3.578606   41.002909
 0.060000   3.779758   40.094106
 0.065000   3.979547   40.116971
 0.070000   4.180927   40.707544
 0.075000   4.386623   41.575350
 0.080000   4.596681   42.342087
 0.085000   4.810044   43.052643
 0.090000   5.027207   43.402702
 0.095000   5.244071   43.129626
 0.100000   5.458504   42.306508
 0.105000   5.667136   41.020041
 0.110000   5.868704   39.420344
 0.115000   6.061339   37.359689
 0.120000   6.242301   35.032439
 0.125000   6.411664   32.774179
 0.130000   6.570043   30.692677
 0.135000   6.718590   28.757070
 0.140000   6.857613   27.028086
 0.145000   6.988871   25.673102
 0.150000   7.114344   24.677202
 0.155000   7.235643   23.972322
 0.160000   7.354068   23.272079
 0.165000   7.468364   22.585768
 0.170000   7.579925   21.757563
 0.175000   7.685940   20.812326
 0.180000   7.788049   19.747232
 0.185000   7.883412   18.425451
 0.190000   7.972303   17.047213
 0.195000   8.053884   15.467004
 0.200000   8.126973   13.957152
 0.205000   8.193456   12.439910
 0.210000   8.251372   11.010337
 0.215000   8.303559   9.869112
 0.220000   8.350063   8.625948
 0.225000   8.389818   7.453780
 0.230000   8.424601   6.121421
 0.235000   8.451033   4.426477
 0.240000   8.468866   2.520814
 0.245000   8.476241   0.104100
 0.250000   8.469907   -2.560828
 0.255000   8.450633   -5.396041
 0.260000   8.415947   -8.612313
 0.265000   8.364509   -11.746994
 0.270000   8.298477   -14.924595
 0.275000   8.215263   -18.352633
 0.280000   8.114950   -21.613291
 0.285000   7.999131   -24.903900
 0.290000   7.865911   -28.295292
 0.295000   7.716178   -31.472382
 0.300000   7.551187   -34.674019
 0.305000   7.369437   -37.944233
 0.310000   7.171745   -41.076510
 0.315000   6.958672   -44.299573
 0.320000   6.728749   -47.576878
 0.325000   6.482904   -50.568048
 0.330000   6.223069   -53.210948
 0.335000   5.950794   -55.297826
 0.340000   5.670091   -56.617684
 0.345000   5.384617   -57.322045
 0.350000   5.096870   -57.267665
 0.355000   4.811941   -56.689739
 0.360000   4.529973   -56.272127
 0.365000   4.249219   -56.072043
 0.370000   3.969252   -56.033520
 0.375000   3.688884   -56.448012
 0.380000   3.404772   -57.555525
 0.385000   3.113329   -59.110440
 0.390000   2.813668   -60.758585
 0.395000   2.505743   -62.381281
 0.400000   2.189855   -64.030519
 0.405000   1.865438   -66.173183
 0.410000   1.528123   -70.279147
 0.415000   1.162646   -76.675230
 0.420000   0.761371   -84.666275
 0.425000   0.315984   -94.175871
 0.430000   -0.180388   -104.857341
 0.435000   -0.732590   -116.511223
 0.440000   -1.345500   -129.079135
 0.445000   -2.023381   -140.259692
 0.450000   -2.748097   -148.528271
 0.455000   -3.508664   -154.224014
 0.460000   -4.290337   -156.750352
 0.465000   -5.076167   -155.654836
 0.470000   -5.846885   -150.027447
 0.475000   -6.576442   -140.388114
 0.480000   -7.250767   -128.404180
 0.485000   -7.860484   -114.998870
 0.490000   -8.400755   -100.892716
 0.495000   -8.869411   -86.259762
 0.500000   -9.263353   -72.351861
 0.505000   -9.592929   -61.060990
 0.510000   -9.873963   -52.442315
 0.515000   -10.117353   -46.067186
 0.520000   -10.334635   -41.818680
 0.525000   -10.535539   -39.347885
 0.530000   -10.728114   -38.210410
 0.535000   -10.917643   -37.840671
 0.540000   -11.106520   -37.650231
 0.545000   -11.294146   -37.377539
 0.550000   -11.480296   -37.080756
 0.555000   -11.664953   -36.742597
 0.560000   -11.847722   -35.897524
 0.565000   -12.023929   -34.256036
 0.570000   -12.190282   -32.086356
 0.575000   -12.344792   -29.400473
 0.580000   -12.484287   -26.212294
 0.585000   -12.606915   -22.744444
 0.590000   -12.711731   -19.123958
 0.595000   -12.798155   -15.508478
 0.600000   -12.866816   -12.095156
 0.605000   -12.919106   -9.061344
 0.610000   -12.957429   -6.396865
 0.615000   -12.983075   -4.046517
 0.620000   -12.997895   -2.153476
 0.625000   -13.004610   -0.683930
 0.630000   -13.004734   0.531832
 0.635000   -12.999291   1.556563
 0.640000   -12.989168   2.399251
 0.645000   -12.975299   3.140735
 0.650000   -12.957761   3.855795
 0.655000   -12.936741   4.503561
 0.660000   -12.912725   5.068912
 0.665000   -12.886052   5.585925
 0.670000   -12.856866   6.070307
 0.675000   -12.825349   6.556775
 0.680000   -12.791298   7.123943
 0.685000   -12.754109   7.809246
 0.690000   -12.713206   8.589331
 0.695000   -12.668216   9.436787
 0.700000   -12.618838   10.363337
 0.705000   -12.564583   11.289136
 0.710000   -12.505947   11.976979
 0.715000   -12.444813   12.314329
 0.720000   -12.382803   12.287572
 0.725000   -12.321937   11.837258
 0.730000   -12.264431   10.936673
 0.735000   -12.212570   9.625446
 0.740000   -12.168176   8.025579
 0.745000   -12.132315   6.300682
 0.750000   -12.105169   4.581523
 0.755000   -12.086499   2.993606
 0.760000   -12.075233   1.644114
 0.765000   -12.070058   0.527807
 0.770000   -12.069955   -0.424866
 0.775000   -12.074307   -1.293418
 0.780000   -12.082889   -2.185414
 0.785000   -12.096161   -3.247157
 0.790000   -12.115361   -4.606250
 0.795000   -12.142223   -6.182132
 0.800000   -12.177182   -7.812918
 0.805000   -12.220353   -9.438135
 0.810000   -12.271564   -10.814117
 0.815000   -12.328494   -11.702088
 0.820000   -12.388585   -12.019333
 0.825000   -12.448687   -11.661464
 0.830000   -12.505199   -10.604555
 0.835000   -12.554733   -9.019158
 0.840000   -12.595391   -7.214822
 0.845000   -12.626881   -5.342896
 0.850000   -12.648820   -3.418891
 0.855000   -12.661070   -1.576652
 0.860000   -12.664586   -0.048419
 0.865000   -12.661554   1.307679
 0.870000   -12.651509   2.698132
 0.875000   -12.634573   4.067898
 0.880000   -12.610830   5.242889
 0.885000   -12.582144   6.475847
 0.890000   -12.546072   7.935506
 0.895000   -12.502789   9.298661
 0.900000   -12.453085   10.419149
 0.905000   -12.398597   11.498679
 0.910000   -12.338099   12.653823
 0.915000   -12.272059   14.075354
 0.920000   -12.197345   15.891842
 0.925000   -12.113141   17.194160
 0.930000   -12.025403   17.696286
 0.935000   -11.936178   20.108935
 0.940000   -11.824314   22.519560
 0.945000   -11.710982   20.379815
 0.950000   -11.620516   16.756177
 0.955000   -11.543420   20.736374
 0.960000   -11.413152   45.371219
 0.965000   -11.089708   109.761071
 0.970000   -10.315542   229.086655
 0.975000   -8.798842   394.039267
 0.980000   -6.375149   571.028518
 0.985000   -3.088556   704.136377
 0.990000   0.666215   736.420055
 0.995000   4.275644   645.598243
 1.000000   7.122197   493.023060
201 psinorm omghb() domghb/dpsiN
 0.000000   -0.000056   -0.030062
 0.005000   -0.000375   -0.097341
 0.010000   -0.001030   -0.102088
 0.015000   -0.001396   -0.061774
 0.020000   -0.001647   -0.037719
 0.025000   -0.001773   -0.009825
 0.030000   -0.001746   0.031983
 0.035000   -0.001453   0.076988
 0.040000   -0.000976   0.114832
 0.045000   -0.000305   0.126760
 0.050000   0.000292   0.109824
 0.055000   0.000794   0.088635
 0.060000   0.001178   0.057639
 0.065000   0.001370   0.031381
 0.070000   0.001492   0.016356
 0.075000   0.001534   0.007508
 0.080000   0.001567   0.017392
 0.085000   0.001707   0.035181
 0.090000   0.001919   0.057228
 0.095000   0.002280   0.086998
 0.100000   0.002789   0.124770
 0.105000   0.003527   0.166888
 0.110000   0.004458   0.185767
 0.115000   0.005385   0.207369
 0.120000   0.006531   0.233829
 0.125000   0.007723   0.265841
 0.130000   0.009190   0.274867
 0.135000   0.010472   0.246545
 0.140000   0.011655   0.208229
 0.145000   0.012554   0.186736
 0.150000   0.013523   0.164237
 0.155000   0.014197   0.140024
 0.160000   0.014923   0.125816
 0.165000   0.015455   0.131692
 0.170000   0.016240   0.156005
 0.175000   0.017015   0.155674
 0.180000   0.017797   0.181017
 0.185000   0.018825   0.184530
 0.190000   0.019642   0.258296
 0.195000   0.021408   0.394620
 0.200000   0.023588   0.420568
 0.205000   0.025614   0.406061
 0.210000   0.027649   0.376192
 0.215000   0.029376   0.383790
 0.220000   0.031487   0.436270
 0.225000   0.033738   0.348945
 0.230000   0.034976   0.316615
 0.235000   0.036904   0.355074
 0.240000   0.038527   0.358317
 0.245000   0.040488   0.407825
 0.250000   0.042605   0.421220
 0.255000   0.044700   0.257099
 0.260000   0.045176   0.167832
 0.265000   0.046378   0.214394
 0.270000   0.047320   0.202198
 0.275000   0.048400   0.185269
 0.280000   0.049173   0.095450
 0.285000   0.049355   0.129444
 0.290000   0.050467   0.210888
 0.295000   0.051464   0.252758
 0.300000   0.052995   0.360077
 0.305000   0.055064   0.442443
 0.310000   0.057419   0.479214
 0.315000   0.059856   0.708944
 0.320000   0.064509   0.795498
 0.325000   0.067811   0.660788
 0.330000   0.071116   0.622466
 0.335000   0.074036   0.482345
 0.340000   0.075940   0.446691
 0.345000   0.078503   0.361287
 0.350000   0.079553   0.163238
 0.355000   0.080135   0.109156
 0.360000   0.080644   0.081166
 0.365000   0.080947   0.046201
 0.370000   0.081106   0.091231
 0.375000   0.081859   -0.069269
 0.380000   0.080414   -0.189020
 0.385000   0.079969   -0.037868
 0.390000   0.080035   0.019699
 0.395000   0.080166   0.045059
 0.400000   0.080486   0.025622
 0.405000   0.080422   0.303844
 0.410000   0.083524   0.900420
 0.415000   0.089427   1.377899
 0.420000   0.097303   2.014615
 0.425000   0.109573   2.661688
 0.430000   0.123920   2.849592
 0.435000   0.138069   3.022440
 0.440000   0.154144   3.243738
 0.445000   0.170506   3.123930
 0.450000   0.185384   2.988641
 0.455000   0.200392   2.448298
 0.460000   0.209866   1.513533
 0.465000   0.215528   0.825189
 0.470000   0.218118   0.111843
 0.475000   0.216646   -0.679248
 0.480000   0.211326   -1.508695
 0.485000   0.201559   -2.131276
 0.490000   0.190013   -2.406252
 0.495000   0.177497   -2.525034
 0.500000   0.164763   -2.494092
 0.505000   0.152556   -2.360203
 0.510000   0.141161   -2.180666
 0.515000   0.130749   -1.755404
 0.520000   0.123607   -1.345165
 0.525000   0.117297   -1.186845
 0.530000   0.111738   -1.036008
 0.535000   0.106937   -0.922363
 0.540000   0.102515   -0.849058
 0.545000   0.098447   -0.809010
 0.550000   0.094425   -0.769312
 0.555000   0.090754   -0.753348
 0.560000   0.086891   -0.760397
 0.565000   0.083150   -0.734956
 0.570000   0.079542   -0.745706
 0.575000   0.075693   -0.777284
 0.580000   0.071769   -0.752607
 0.585000   0.068167   -0.667635
 0.590000   0.065092   -0.576792
 0.595000   0.062399   -0.485080
 0.600000   0.060242   -0.356414
 0.605000   0.058834   -0.207482
 0.610000   0.058167   -0.062121
 0.615000   0.058213   0.143794
 0.620000   0.059605   0.261183
 0.625000   0.060825   0.321065
 0.630000   0.062815   0.450643
 0.635000   0.065332   0.540947
 0.640000   0.068225   0.611045
 0.645000   0.071442   0.744410
 0.650000   0.075669   0.766086
 0.655000   0.079103   0.786563
 0.660000   0.083535   0.961528
 0.665000   0.088718   1.148810
 0.670000   0.095023   1.370069
 0.675000   0.102419   1.812304
 0.680000   0.113146   1.914807
 0.685000   0.121567   1.621815
 0.690000   0.129364   1.595096
 0.695000   0.137518   1.589472
 0.700000   0.145259   1.468619
 0.705000   0.152204   1.523241
 0.710000   0.160491   1.212722
 0.715000   0.164331   0.646333
 0.720000   0.166954   0.554835
 0.725000   0.169880   0.450154
 0.730000   0.171456   0.171325
 0.735000   0.171593   -0.133140
 0.740000   0.170124   -0.420419
 0.745000   0.167389   -0.394173
 0.750000   0.166183   -0.207817
 0.755000   0.165311   0.001263
 0.760000   0.166195   0.198798
 0.765000   0.167298   0.145668
 0.770000   0.167652   0.083871
 0.775000   0.168137   0.192284
 0.780000   0.169575   0.022126
 0.785000   0.168358   -0.324037
 0.790000   0.166334   -0.708856
 0.795000   0.161270   -1.236696
 0.800000   0.153967   -1.464006
 0.805000   0.146630   -1.575972
 0.810000   0.138208   -2.043573
 0.815000   0.126194   -2.532740
 0.820000   0.112880   -2.752581
 0.825000   0.098668   -2.851148
 0.830000   0.084369   -2.785505
 0.835000   0.070813   -2.505234
 0.840000   0.059317   -1.886236
 0.845000   0.051951   -1.060207
 0.850000   0.048714   -0.140839
 0.855000   0.050542   0.948544
 0.860000   0.058200   2.356374
 0.865000   0.074106   3.531672
 0.870000   0.093517   4.798622
 0.875000   0.122092   6.744844
 0.880000   0.160965   8.754345
 0.885000   0.209636   10.620690
 0.890000   0.267172   13.083077
 0.895000   0.340467   13.972169
 0.900000   0.406894   14.020183
 0.905000   0.480669   14.795446
 0.910000   0.554848   14.542355
 0.915000   0.626092   13.659193
 0.920000   0.691440   15.760907
 0.925000   0.783701   16.098025
 0.930000   0.852420   17.068485
 0.935000   0.954386   23.322904
 0.940000   1.085649   29.829387
 0.945000   1.252680   33.111652
 0.950000   1.416766   32.551436
 0.955000   1.578194   -1.214304
 0.960000   1.404623   -61.351875
 0.965000   0.964675   -116.037422
 0.970000   0.244249   -163.194251
 0.975000   -0.667267   -180.920385
 0.980000   -1.564955   -153.552223
 0.985000   -2.202789   -84.266852
 0.990000   -2.407624   4.033299
 0.995000   -2.162456   75.073887
 1.000000   -1.656885   127.154670
201 psinorm nz1(10^20/m^3) dnz1/dpsiN
 0.000000   0.015867   0.000000
 0.005000   0.015867   -0.000003
 0.010000   0.015867   -0.000006
 0.015000   0.015867   -0.000010
 0.020000   0.015867   -0.000014
 0.025000   0.015867   -0.000020
 0.030000   0.015867   -0.000027
 0.035000   0.015867   -0.000036
 0.040000   0.015867   -0.000047
 0.045000   0.015866   -0.000060
 0.050000   0.015866   -0.000076
 0.055000   0.015866   -0.000094
 0.060000   0.015865   -0.000115
 0.065000   0.015864   -0.000140
 0.070000   0.015864   -0.000167
 0.075000   0.015863   -0.000198
 0.080000   0.015862   -0.000232
 0.085000   0.015860   -0.000270
 0.090000   0.015859   -0.000312
 0.095000   0.015857   -0.000357
 0.100000   0.015855   -0.000406
 0.105000   0.015853   -0.000459
 0.110000   0.015851   -0.000516
 0.115000   0.015848   -0.000576
 0.120000   0.015845   -0.000640
 0.125000   0.015842   -0.000707
 0.130000   0.015838   -0.000777
 0.135000   0.015834   -0.000850
 0.140000   0.015829   -0.000926
 0.145000   0.015825   -0.001004
 0.150000   0.015819   -0.001084
 0.155000   0.015814   -0.001166
 0.160000   0.015808   -0.001249
 0.165000   0.015801   -0.001333
 0.170000   0.015794   -0.001418
 0.175000   0.015787   -0.001504
 0.180000   0.015779   -0.001589
 0.185000   0.015771   -0.001674
 0.190000   0.015763   -0.001758
 0.195000   0.015754   -0.001839
 0.200000   0.015744   -0.001918
 0.205000   0.015734   -0.001994
 0.210000   0.015724   -0.002067
 0.215000   0.015714   -0.002137
 0.220000   0.015703   -0.002203
 0.225000   0.015692   -0.002267
 0.230000   0.015680   -0.002328
 0.235000   0.015668   -0.002385
 0.240000   0.015656   -0.002438
 0.245000   0.015644   -0.002485
 0.250000   0.015632   -0.002527
 0.255000   0.015619   -0.002561
 0.260000   0.015606   -0.002588
 0.265000   0.015593   -0.002605
 0.270000   0.015580   -0.002613
 0.275000   0.015567   -0.002610
 0.280000   0.015554   -0.002596
 0.285000   0.015541   -0.002570
 0.290000   0.015528   -0.002532
 0.295000   0.015516   -0.002482
 0.300000   0.015503   -0.002420
 0.305000   0.015491   -0.002345
 0.310000   0.015480   -0.002260
 0.315000   0.015469   -0.002163
 0.320000   0.015458   -0.002058
 0.325000   0.015448   -0.001946
 0.330000   0.015439   -0.001828
 0.335000   0.015430   -0.001704
 0.340000   0.015422   -0.001575
 0.345000   0.015414   -0.001440
 0.350000   0.015407   -0.001298
 0.355000   0.015401   -0.001148
 0.360000   0.015396   -0.000989
 0.365000   0.015391   -0.000820
 0.370000   0.015388   -0.000641
 0.375000   0.015385   -0.000453
 0.380000   0.015383   -0.000257
 0.385000   0.015382   -0.000054
 0.390000   0.015383   0.000153
 0.395000   0.015384   0.000363
 0.400000   0.015386   0.000573
 0.405000   0.015390   0.000782
 0.410000   0.015394   0.000985
 0.415000   0.015399   0.001183
 0.420000   0.015406   0.001373
 0.425000   0.015413   0.001554
 0.430000   0.015421   0.001725
 0.435000   0.015430   0.001885
 0.440000   0.015440   0.002035
 0.445000   0.015451   0.002177
 0.450000   0.015462   0.002311
 0.455000   0.015474   0.002438
 0.460000   0.015486   0.002556
 0.465000   0.015499   0.002666
 0.470000   0.015513   0.002766
 0.475000   0.015527   0.002853
 0.480000   0.015542   0.002922
 0.485000   0.015556   0.002974
 0.490000   0.015571   0.003006
 0.495000   0.015586   0.003018
 0.500000   0.015601   0.003007
 0.505000   0.015616   0.002972
 0.510000   0.015631   0.002913
 0.515000   0.015646   0.002829
 0.520000   0.015659   0.002720
 0.525000   0.015673   0.002587
 0.530000   0.015685   0.002429
 0.535000   0.015697   0.002249
 0.540000   0.015708   0.002046
 0.545000   0.015718   0.001821
 0.550000   0.015726   0.001574
 0.555000   0.015733   0.001306
 0.560000   0.015739   0.001016
 0.565000   0.015743   0.000705
 0.570000   0.015746   0.000373
 0.575000   0.015747   0.000019
 0.580000   0.015746   -0.000357
 0.585000   0.015744   -0.000754
 0.590000   0.015739   -0.001171
 0.595000   0.015732   -0.001605
 0.600000   0.015723   -0.002056
 0.605000   0.015711   -0.002522
 0.610000   0.015698   -0.003001
 0.615000   0.015681   -0.003493
 0.620000   0.015663   -0.003997
 0.625000   0.015641   -0.004516
 0.630000   0.015617   -0.005047
 0.635000   0.015591   -0.005591
 0.640000   0.015562   -0.006146
 0.645000   0.015529   -0.006710
 0.650000   0.015494   -0.007286
 0.655000   0.015457   -0.007868
 0.660000   0.015416   -0.008450
 0.665000   0.015372   -0.009033
 0.670000   0.015325   -0.009628
 0.675000   0.015276   -0.010257
 0.680000   0.015223   -0.010982
 0.685000   0.015166   -0.011840
 0.690000   0.015104   -0.012802
 0.695000   0.015038   -0.013857
 0.700000   0.014966   -0.015000
 0.705000   0.014888   -0.016214
 0.710000   0.014804   -0.017524
 0.715000   0.014713   -0.018874
 0.720000   0.014615   -0.020144
 0.725000   0.014511   -0.021309
 0.730000   0.014402   -0.022351
 0.735000   0.014288   -0.023225
 0.740000   0.014170   -0.023890
 0.745000   0.014049   -0.024274
 0.750000   0.013927   -0.024336
 0.755000   0.013805   -0.024106
 0.760000   0.013686   -0.023615
 0.765000   0.013569   -0.022893
 0.770000   0.013457   -0.021952
 0.775000   0.013350   -0.020833
 0.780000   0.013249   -0.019666
 0.785000   0.013153   -0.018515
 0.790000   0.013063   -0.017375
 0.795000   0.012979   -0.016275
 0.800000   0.012901   -0.015226
 0.805000   0.012827   -0.014257
 0.810000   0.012758   -0.013401
 0.815000   0.012693   -0.012615
 0.820000   0.012632   -0.011840
 0.825000   0.012575   -0.011060
 0.830000   0.012521   -0.010268
 0.835000   0.012472   -0.009469
 0.840000   0.012427   -0.008679
 0.845000   0.012385   -0.007913
 0.850000   0.012348   -0.007170
 0.855000   0.012314   -0.006453
 0.860000   0.012283   -0.005771
 0.865000   0.012256   -0.005140
 0.870000   0.012232   -0.004572
 0.875000   0.012210   -0.004055
 0.880000   0.012191   -0.003574
 0.885000   0.012174   -0.003125
 0.890000   0.012160   -0.002708
 0.895000   0.012147   -0.002353
 0.900000   0.012136   -0.002071
 0.905000   0.012127   -0.001875
 0.910000   0.012118   -0.001856
 0.915000   0.012108   -0.002218
 0.920000   0.012095   -0.003406
 0.925000   0.012074   -0.006451
 0.930000   0.012031   -0.012985
 0.935000   0.011944   -0.025360
 0.940000   0.011777   -0.046696
 0.945000   0.011477   -0.079882
 0.950000   0.010978   -0.125719
 0.955000   0.010220   -0.181685
 0.960000   0.009162   -0.235496
 0.965000   0.007865   -0.269574
 0.970000   0.006466   -0.273605
 0.975000   0.005129   -0.247974
 0.980000   0.003986   -0.203316
 0.985000   0.003096   -0.153608
 0.990000   0.002450   -0.109403
 0.995000   0.002002   -0.075745
 1.000000   0.001693   -0.047939
201 psinorm vtor1(km/s) dvtor1/dpsiN
 0.000000   110.814696   545.545957
 0.005000   112.931270   301.083857
 0.010000   113.825534   157.377137
 0.015000   114.505042   124.065445
 0.020000   115.066189   104.621201
 0.025000   115.551254   91.988593
 0.030000   115.986075   82.902916
 0.035000   116.380283   75.145142
 0.040000   116.737526   68.552319
 0.045000   117.065806   63.163184
 0.050000   117.369158   58.336758
 0.055000   117.649174   53.769681
 0.060000   117.906855   49.608887
 0.065000   118.145263   45.879338
 0.070000   118.365648   42.309819
 0.075000   118.568361   38.892939
 0.080000   118.754578   35.743477
 0.085000   118.925796   32.752358
 0.090000   119.082101   29.766804
 0.095000   119.223464   26.889389
 0.100000   119.350995   24.183500
 0.105000   119.465299   21.469475
 0.110000   119.565690   18.748976
 0.115000   119.652788   16.103362
 0.120000   119.726724   13.486151
 0.125000   119.787650   10.790130
 0.130000   119.834625   7.988288
 0.135000   119.867533   5.147101
 0.140000   119.886096   2.221592
 0.145000   119.889749   -0.815945
 0.150000   119.877936   -3.897614
 0.155000   119.850773   -6.989529
 0.160000   119.808041   -10.179030
 0.165000   119.748982   -13.426154
 0.170000   119.673780   -16.645049
 0.175000   119.582532   -19.874900
 0.180000   119.475031   -23.122963
 0.185000   119.351302   -26.326386
 0.190000   119.211767   -29.465475
 0.195000   119.056647   -32.592415
 0.200000   118.885843   -35.721141
 0.205000   118.699436   -38.813146
 0.210000   118.497711   -41.844149
 0.215000   118.280995   -44.808517
 0.220000   118.049626   -47.635702
 0.225000   117.804637   -50.252010
 0.230000   117.547106   -52.749532
 0.235000   117.277142   -55.173343
 0.240000   116.995372   -57.470782
 0.245000   116.702434   -59.654270
 0.250000   116.398830   -61.743300
 0.255000   116.085001   -63.632258
 0.260000   115.762507   -65.346428
 0.265000   115.431537   -66.965847
 0.270000   115.092849   -68.436066
 0.275000   114.747176   -69.758626
 0.280000   114.395262   -70.946843
 0.285000   114.037708   -71.969025
 0.290000   113.675572   -72.994192
 0.295000   113.307766   -74.134772
 0.300000   112.934224   -75.275725
 0.305000   112.555009   -76.395177
 0.310000   112.170273   -77.447393
 0.315000   111.780535   -78.320514
 0.320000   111.387068   -79.114349
 0.325000   110.989391   -79.918821
 0.330000   110.587879   -80.659671
 0.335000   110.182795   -81.364636
 0.340000   109.774233   -82.066528
 0.345000   109.362129   -82.764294
 0.350000   108.946590   -83.511094
 0.355000   108.527018   -84.350765
 0.360000   108.103082   -85.252380
 0.365000   107.674495   -86.209177
 0.370000   107.240991   -87.198155
 0.375000   106.802513   -88.161731
 0.380000   106.359373   -88.914965
 0.385000   105.913363   -89.339693
 0.390000   105.465976   -89.465227
 0.395000   105.018711   -89.289633
 0.400000   104.573080   -88.816463
 0.405000   104.130547   -87.972979
 0.410000   103.693350   -86.995285
 0.415000   103.260594   -86.534323
 0.420000   102.828007   -87.077645
 0.425000   102.389817   -88.862189
 0.430000   101.939385   -91.987600
 0.435000   101.469941   -96.899023
 0.440000   100.970395   -103.595563
 0.445000   100.433986   -111.029951
 0.450000   99.860095   -118.759147
 0.455000   99.246394   -126.827587
 0.460000   98.591819   -134.956078
 0.465000   97.896833   -143.342666
 0.470000   97.158393   -151.621580
 0.475000   96.380618   -158.207321
 0.480000   95.576320   -162.684867
 0.485000   94.753769   -165.382039
 0.490000   93.922499   -166.083196
 0.495000   93.092937   -164.726264
 0.500000   92.275237   -161.136558
 0.505000   91.481571   -155.340532
 0.510000   90.721831   -148.021593
 0.515000   90.001355   -139.784580
 0.520000   89.323985   -130.907499
 0.525000   88.692280   -121.559272
 0.530000   88.108393   -111.810076
 0.535000   87.574180   -102.144881
 0.540000   87.086944   -92.951609
 0.545000   86.644664   -84.241202
 0.550000   86.244532   -76.145342
 0.555000   85.883210   -68.720051
 0.560000   85.557331   -61.924700
 0.565000   85.263963   -56.048145
 0.570000   84.996850   -51.218981
 0.575000   84.751773   -47.229887
 0.580000   84.524551   -44.067387
 0.585000   84.311099   -41.715933
 0.590000   84.107392   -40.175543
 0.595000   83.909344   -39.377158
 0.600000   83.713620   -39.195107
 0.605000   83.517393   -39.586084
 0.610000   83.317759   -40.553598
 0.615000   83.111857   -42.101702
 0.620000   82.896742   -44.209686
 0.625000   82.669760   -46.886176
 0.630000   82.427881   -50.150193
 0.635000   82.168258   -53.971672
 0.640000   81.888164   -58.326962
 0.645000   81.584989   -63.197112
 0.650000   81.256193   -68.554427
 0.655000   80.899444   -74.522450
 0.660000   80.510968   -81.278069
 0.665000   80.086664   -88.883105
 0.670000   79.622137   -97.412320
 0.675000   79.112540   -106.935064
 0.680000   78.552787   -117.671034
 0.685000   77.935830   -129.238060
 0.690000   77.260406   -140.895391
 0.695000   76.526876   -152.500500
 0.700000   75.735401   -164.019538
 0.705000   74.886681   -175.348588
 0.710000   73.981915   -186.413642
 0.715000   73.022544   -196.940755
 0.720000   72.012507   -206.620286
 0.725000   70.956342   -215.346893
 0.730000   69.859039   -222.995116
 0.735000   68.726390   -229.439635
 0.740000   67.564642   -234.648043
 0.745000   66.379910   -239.194658
 0.750000   65.172696   -243.909157
 0.755000   63.940818   -249.018955
 0.760000   62.682506   -254.412403
 0.765000   61.396694   -259.846330
 0.770000   60.084043   -265.352585
 0.775000   58.743168   -270.237104
 0.780000   57.381672   -272.223670
 0.785000   56.020932   -270.317417
 0.790000   54.678498   -264.809458
 0.795000   53.372837   -255.653512
 0.800000   52.121962   -243.164395
 0.805000   50.941193   -227.908228
 0.810000   49.842880   -210.421611
 0.815000   48.836977   -191.515148
 0.820000   47.927729   -172.100526
 0.825000   47.115972   -152.892715
 0.830000   46.398802   -134.693486
 0.835000   45.769037   -118.305044
 0.840000   45.215751   -104.563052
 0.845000   44.723407   -94.559287
 0.850000   44.270158   -89.336652
 0.855000   43.830040   -89.717106
 0.860000   43.372987   -96.619538
 0.865000   42.863845   -111.517598
 0.870000   42.257811   -135.302414
 0.875000   41.510820   -168.609886
 0.880000   40.571712   -212.373374
 0.885000   39.387087   -266.621984
 0.890000   37.905493   -330.426367
 0.895000   36.082823   -403.025106
 0.900000   33.875241   -479.087494
 0.905000   31.291948   -551.600948
 0.910000   28.359232   -615.424926
 0.915000   25.137699   -663.570134
 0.920000   21.723531   -689.282258
 0.925000   18.244876   -686.734131
 0.930000   14.856189   -651.488811
 0.935000   11.729988   -585.276087
 0.940000   9.003428   -495.948008
 0.945000   6.770508   -393.118753
 0.950000   5.072241   -287.421888
 0.955000   3.896289   -188.129379
 0.960000   3.190947   -103.751160
 0.965000   2.858778   -39.023579
 0.970000   2.800711   6.556630
 0.975000   2.924344   35.026060
 0.980000   3.150972   49.524782
 0.985000   3.419592   53.276675
 0.990000   3.683739   49.942457
 0.995000   3.919016   42.933045
 1.000000   4.113069   34.688096
201 psinorm vpol1(km/s) dvpol1/dpsiN
 0.000000   0.000027   5.719922
 0.005000   0.031828   7.000391
 0.010000   0.070031   8.255469
 0.015000   0.114383   9.418359
 0.020000   0.164215   10.410938
 0.025000   0.218492   11.148633
 0.030000   0.275701   11.519727
 0.035000   0.333689   11.615820
 0.040000   0.391859   11.577148
 0.045000   0.449461   11.444727
 0.050000   0.506307   11.313672
 0.055000   0.562598   11.275977
 0.060000   0.619066   11.415430
 0.065000   0.676752   11.705664
 0.070000   0.736123   12.068359
 0.075000   0.797436   12.475977
 0.080000   0.860883   12.891211
 0.085000   0.926348   13.286328
 0.090000   0.993746   13.605078
 0.095000   1.062398   13.793555
 0.100000   1.131682   13.858203
 0.105000   1.200980   13.805078
 0.110000   1.269732   13.647070
 0.115000   1.337451   13.370312
 0.120000   1.403436   12.999609
 0.125000   1.467447   12.608398
 0.130000   1.529520   12.222852
 0.135000   1.589676   11.852930
 0.140000   1.648049   11.511719
 0.145000   1.704793   11.229102
 0.150000   1.760340   11.029297
 0.155000   1.815086   10.886719
 0.160000   1.869207   10.745703
 0.165000   1.922543   10.583398
 0.170000   1.975041   10.392773
 0.175000   2.026471   10.152930
 0.180000   2.076570   9.860156
 0.185000   2.125072   9.515039
 0.190000   2.171721   9.119727
 0.195000   2.216270   8.684375
 0.200000   2.258564   8.221875
 0.205000   2.298488   7.755273
 0.210000   2.336117   7.324609
 0.215000   2.371734   6.932422
 0.220000   2.405441   6.546484
 0.225000   2.437199   6.131836
 0.230000   2.466760   5.663086
 0.235000   2.493830   5.120898
 0.240000   2.517969   4.460547
 0.245000   2.538436   3.668555
 0.250000   2.554654   2.775000
 0.255000   2.566186   1.791797
 0.260000   2.572572   0.735742
 0.265000   2.573543   -0.365234
 0.270000   2.568920   -1.498828
 0.275000   2.558555   -2.662109
 0.280000   2.542299   -3.848242
 0.285000   2.520072   -5.047266
 0.290000   2.491826   -6.251563
 0.295000   2.457557   -7.450195
 0.300000   2.417324   -8.646875
 0.305000   2.371088   -9.853711
 0.310000   2.318787   -11.067187
 0.315000   2.260416   -12.293945
 0.320000   2.195848   -13.534961
 0.325000   2.125066   -14.726172
 0.330000   2.048586   -15.783984
 0.335000   1.967227   -16.650781
 0.340000   1.882078   -17.297070
 0.345000   1.794256   -17.717383
 0.350000   1.704904   -17.865820
 0.355000   1.615598   -17.861523
 0.360000   1.526289   -17.889648
 0.365000   1.436701   -17.966406
 0.370000   1.346625   -18.119727
 0.375000   1.255504   -18.414453
 0.380000   1.162480   -18.919922
 0.385000   1.066305   -19.602734
 0.390000   0.966453   -20.315234
 0.395000   0.863152   -20.996680
 0.400000   0.756486   -21.704102
 0.405000   0.646111   -22.583984
 0.410000   0.530646   -24.134180
 0.415000   0.404770   -26.493945
 0.420000   0.265707   -29.424023
 0.425000   0.110529   -32.895117
 0.430000   -0.063244   -36.794531
 0.435000   -0.257416   -41.051562
 0.440000   -0.473760   -45.650000
 0.445000   -0.713916   -49.783789
 0.450000   -0.971598   -52.887305
 0.455000   -1.242789   -55.085742
 0.460000   -1.522455   -56.181836
 0.465000   -1.804607   -55.965430
 0.470000   -2.082109   -54.111914
 0.475000   -2.345727   -50.833789
 0.480000   -2.590447   -46.691797
 0.485000   -2.812645   -41.984766
 0.490000   -3.010295   -37.014648
 0.495000   -3.182791   -31.861523
 0.500000   -3.328910   -26.894531
 0.505000   -3.451736   -22.843750
 0.510000   -3.557348   -19.789062
 0.515000   -3.649627   -17.505078
 0.520000   -3.732398   -15.955469
 0.525000   -3.809182   -15.070508
 0.530000   -3.883104   -14.683398
 0.535000   -3.956016   -14.527930
 0.540000   -4.028383   -14.440723
 0.545000   -4.100423   -14.366895
 0.550000   -4.172052   -14.254687
 0.555000   -4.242970   -14.109570
 0.560000   -4.313147   -13.807227
 0.565000   -4.381042   -13.223926
 0.570000   -4.445387   -12.412207
 0.575000   -4.505164   -11.415039
 0.580000   -4.559537   -10.265332
 0.585000   -4.607817   -8.989844
 0.590000   -4.649436   -7.643359
 0.595000   -4.684251   -6.316406
 0.600000   -4.712600   -5.069922
 0.605000   -4.734950   -3.937305
 0.610000   -4.751973   -2.940625
 0.615000   -4.764356   -2.079980
 0.620000   -4.772772   -1.375195
 0.625000   -4.778108   -0.816602
 0.630000   -4.780938   -0.360840
 0.635000   -4.781717   0.017236
 0.640000   -4.780766   0.341846
 0.645000   -4.778298   0.629834
 0.650000   -4.774468   0.895508
 0.655000   -4.769343   1.140186
 0.660000   -4.763066   1.360156
 0.665000   -4.755742   1.558936
 0.670000   -4.747477   1.740674
 0.675000   -4.738335   1.928271
 0.680000   -4.728194   2.147070
 0.685000   -4.716864   2.405127
 0.690000   -4.704143   2.698242
 0.695000   -4.689882   3.020312
 0.700000   -4.673939   3.371387
 0.705000   -4.656168   3.718970
 0.710000   -4.636750   3.981116
 0.715000   -4.616357   4.115540
 0.720000   -4.595594   4.112561
 0.725000   -4.575231   3.950323
 0.730000   -4.556091   3.625269
 0.735000   -4.538979   3.147662
 0.740000   -4.524615   2.557190
 0.745000   -4.513407   1.920325
 0.750000   -4.505411   1.291003
 0.755000   -4.500497   0.707947
 0.760000   -4.498332   0.206616
 0.765000   -4.498430   -0.202319
 0.770000   -4.500355   -0.545142
 0.775000   -4.503882   -0.863135
 0.780000   -4.508986   -1.196045
 0.785000   -4.515842   -1.578760
 0.790000   -4.524774   -2.069678
 0.795000   -4.536539   -2.656201
 0.800000   -4.551336   -3.265137
 0.805000   -4.569190   -3.849707
 0.810000   -4.589833   -4.343555
 0.815000   -4.612626   -4.678125
 0.820000   -4.636614   -4.787305
 0.825000   -4.660499   -4.620117
 0.830000   -4.682815   -4.202832
 0.835000   -4.702527   -3.610645
 0.840000   -4.718922   -2.907520
 0.845000   -4.731603   -2.158008
 0.850000   -4.740502   -1.416895
 0.855000   -4.745771   -0.726562
 0.860000   -4.747768   -0.101367
 0.865000   -4.746785   0.471680
 0.870000   -4.743051   1.005273
 0.875000   -4.736732   1.520898
 0.880000   -4.727842   2.043555
 0.885000   -4.716297   2.585352
 0.890000   -4.701988   3.131445
 0.895000   -4.684982   3.658008
 0.900000   -4.665408   4.149414
 0.905000   -4.643488   4.607617
 0.910000   -4.619332   5.037109
 0.915000   -4.593117   5.417187
 0.920000   -4.565160   5.749805
 0.925000   -4.535619   6.043359
 0.930000   -4.504727   6.237305
 0.935000   -4.473246   6.262109
 0.940000   -4.442105   5.771484
 0.945000   -4.415531   4.487109
 0.950000   -4.397234   3.186719
 0.955000   -4.383664   4.478906
 0.960000   -4.352445   13.616406
 0.965000   -4.247500   38.446875
 0.970000   -3.967977   84.850391
 0.975000   -3.398996   150.214062
 0.980000   -2.465836   220.352734
 0.985000   -1.195469   272.388672
 0.990000   0.258051   285.276562
 0.995000   1.657297   249.802734
 1.000000   2.756078   189.709766
3 N Z A of ION SPECIES
 6.000000   6.000000   12.010700
 1.000000   1.000000   2.000000
 1.000000   1.000000   2.000000
