201 psinorm ne(10^20/m^3) dne/dpsiN
 0.000000   0.793878   -0.561064
 0.005000   0.791080   -0.558026
 0.010000   0.788297   -0.554996
 0.015000   0.785530   -0.551985
 0.020000   0.782778   -0.548991
 0.025000   0.780040   -0.546016
 0.030000   0.777317   -0.543058
 0.035000   0.774609   -0.540118
 0.040000   0.771916   -0.537195
 0.045000   0.769238   -0.534290
 0.050000   0.766573   -0.531402
 0.055000   0.763924   -0.528532
 0.060000   0.761288   -0.525678
 0.065000   0.758667   -0.522841
 0.070000   0.756060   -0.520021
 0.075000   0.753467   -0.517218
 0.080000   0.750887   -0.514432
 0.085000   0.748322   -0.511662
 0.090000   0.745771   -0.508908
 0.095000   0.743233   -0.506170
 0.100000   0.740709   -0.503449
 0.105000   0.738199   -0.500744
 0.110000   0.735702   -0.498054
 0.115000   0.733218   -0.495381
 0.120000   0.730748   -0.492723
 0.125000   0.728291   -0.490081
 0.130000   0.725847   -0.487454
 0.135000   0.723416   -0.484843
 0.140000   0.720999   -0.482246
 0.145000   0.718594   -0.479666
 0.150000   0.716202   -0.477100
 0.155000   0.713823   -0.474549
 0.160000   0.711456   -0.472013
 0.165000   0.709103   -0.469492
 0.170000   0.706762   -0.466985
 0.175000   0.704433   -0.464493
 0.180000   0.702117   -0.462016
 0.185000   0.699813   -0.459553
 0.190000   0.697521   -0.457104
 0.195000   0.695242   -0.454669
 0.200000   0.692974   -0.452249
 0.205000   0.690719   -0.449842
 0.210000   0.688476   -0.447450
 0.215000   0.686245   -0.445071
 0.220000   0.684025   -0.442706
 0.225000   0.681818   -0.440354
 0.230000   0.679622   -0.438016
 0.235000   0.677437   -0.435692
 0.240000   0.675265   -0.433381
 0.245000   0.673104   -0.431083
 0.250000   0.670954   -0.428798
 0.255000   0.668816   -0.426526
 0.260000   0.666689   -0.424268
 0.265000   0.664573   -0.422022
 0.270000   0.662469   -0.419789
 0.275000   0.660375   -0.417569
 0.280000   0.658293   -0.415361
 0.285000   0.656222   -0.413166
 0.290000   0.654161   -0.410984
 0.295000   0.652112   -0.408814
 0.300000   0.650073   -0.406656
 0.305000   0.648045   -0.404511
 0.310000   0.646028   -0.402377
 0.315000   0.644021   -0.400256
 0.320000   0.642025   -0.398146
 0.325000   0.640040   -0.396049
 0.330000   0.638065   -0.393963
 0.335000   0.636100   -0.391890
 0.340000   0.634146   -0.389827
 0.345000   0.632202   -0.387777
 0.350000   0.630268   -0.385738
 0.355000   0.628345   -0.383710
 0.360000   0.626431   -0.381694
 0.365000   0.624528   -0.379689
 0.370000   0.622634   -0.377695
 0.375000   0.620751   -0.375713
 0.380000   0.618877   -0.373741
 0.385000   0.617013   -0.371781
 0.390000   0.615159   -0.369831
 0.395000   0.613315   -0.367892
 0.400000   0.611480   -0.365964
 0.405000   0.609655   -0.364047
 0.410000   0.607840   -0.362140
 0.415000   0.606034   -0.360244
 0.420000   0.604237   -0.358359
 0.425000   0.602450   -0.356484
 0.430000   0.600673   -0.354619
 0.435000   0.598904   -0.352764
 0.440000   0.597145   -0.350920
 0.445000   0.595395   -0.349086
 0.450000   0.593654   -0.347262
 0.455000   0.591922   -0.345448
 0.460000   0.590200   -0.343644
 0.465000   0.588486   -0.341849
 0.470000   0.586781   -0.340065
 0.475000   0.585085   -0.338290
 0.480000   0.583398   -0.336526
 0.485000   0.581720   -0.334770
 0.490000   0.580051   -0.333025
 0.495000   0.578390   -0.331288
 0.500000   0.576738   -0.329562
 0.505000   0.575094   -0.327844
 0.510000   0.573459   -0.326136
 0.515000   0.571833   -0.324437
 0.520000   0.570215   -0.322748
 0.525000   0.568605   -0.321067
 0.530000   0.567004   -0.319396
 0.535000   0.565411   -0.317733
 0.540000   0.563827   -0.316080
 0.545000   0.562251   -0.314435
 0.550000   0.560682   -0.312800
 0.555000   0.559123   -0.311173
 0.560000   0.557571   -0.309554
 0.565000   0.556027   -0.307945
 0.570000   0.554491   -0.306344
 0.575000   0.552964   -0.304751
 0.580000   0.551444   -0.303167
 0.585000   0.549932   -0.301591
 0.590000   0.548428   -0.300024
 0.595000   0.546932   -0.298465
 0.600000   0.545443   -0.296914
 0.605000   0.543963   -0.295371
 0.610000   0.542489   -0.293837
 0.615000   0.541024   -0.292310
 0.620000   0.539566   -0.290791
 0.625000   0.538116   -0.289279
 0.630000   0.536674   -0.287775
 0.635000   0.535238   -0.286279
 0.640000   0.533811   -0.284789
 0.645000   0.532391   -0.283307
 0.650000   0.530978   -0.281831
 0.655000   0.529572   -0.280362
 0.660000   0.528174   -0.278898
 0.665000   0.526783   -0.277440
 0.670000   0.525400   -0.275987
 0.675000   0.524023   -0.274537
 0.680000   0.522654   -0.273091
 0.685000   0.521293   -0.271646
 0.690000   0.519938   -0.270202
 0.695000   0.518590   -0.268756
 0.700000   0.517250   -0.267306
 0.705000   0.515917   -0.265849
 0.710000   0.514592   -0.264381
 0.715000   0.513274   -0.262898
 0.720000   0.511963   -0.261394
 0.725000   0.510660   -0.259861
 0.730000   0.509364   -0.258290
 0.735000   0.508077   -0.256670
 0.740000   0.506798   -0.254986
 0.745000   0.505527   -0.253220
 0.750000   0.504265   -0.251349
 0.755000   0.503013   -0.249347
 0.760000   0.501772   -0.247176
 0.765000   0.500542   -0.244794
 0.770000   0.499324   -0.242146
 0.775000   0.498120   -0.239165
 0.780000   0.496932   -0.235767
 0.785000   0.495763   -0.231849
 0.790000   0.494614   -0.227282
 0.795000   0.493490   -0.221909
 0.800000   0.492395   -0.215538
 0.805000   0.491334   -0.207931
 0.810000   0.490315   -0.198801
 0.815000   0.489346   -0.187795
 0.820000   0.488437   -0.174492
 0.825000   0.487601   -0.158382
 0.830000   0.486854   -0.138856
 0.835000   0.486213   -0.115195
 0.840000   0.485702   -0.086557
 0.845000   0.485347   -0.051967
 0.850000   0.485182   -0.010323
 0.855000   0.485244   0.039599
 0.860000   0.485578   0.099099
 0.865000   0.486235   0.169482
 0.870000   0.487273   0.251918
 0.875000   0.488754   0.347209
 0.880000   0.490745   0.455397
 0.885000   0.493308   0.575158
 0.890000   0.496497   0.702854
 0.895000   0.500337   0.831123
 0.900000   0.504808   0.946861
 0.905000   0.509805   1.028514
 0.910000   0.515093   1.042830
 0.915000   0.520234   0.941734
 0.920000   0.524510   0.661101
 0.925000   0.526845   0.124781
 0.930000   0.525758   -0.741195
 0.935000   0.519433   -1.979873
 0.940000   0.505959   -3.562102
 0.945000   0.483812   -5.348759
 0.950000   0.452472   -7.087351
 0.955000   0.412938   -8.470083
 0.960000   0.367771   -9.243262
 0.965000   0.320506   -9.308944
 0.970000   0.274681   -8.752347
 0.975000   0.232982   -7.782006
 0.980000   0.196861   -6.632210
 0.985000   0.166660   -5.488500
 0.990000   0.141976   -4.461160
 0.995000   0.122048   -3.594973
 1.000000   0.106027   -2.813739
201 psinorm te(KeV) dte/dpsiN
 0.000000   3.879441   -2.406393
 0.005000   3.867348   -2.430684
 0.010000   3.855134   -2.454836
 0.015000   3.842799   -2.478709
 0.020000   3.830347   -2.502301
 0.025000   3.817776   -2.525610
 0.030000   3.805090   -2.548634
 0.035000   3.792290   -2.571370
 0.040000   3.779377   -2.593818
 0.045000   3.766352   -2.615975
 0.050000   3.753217   -2.637840
 0.055000   3.739974   -2.659410
 0.060000   3.726623   -2.680685
 0.065000   3.713167   -2.701663
 0.070000   3.699606   -2.722341
 0.075000   3.685943   -2.742720
 0.080000   3.672179   -2.762796
 0.085000   3.658315   -2.782570
 0.090000   3.644353   -2.802039
 0.095000   3.630295   -2.821203
 0.100000   3.616141   -2.840060
 0.105000   3.601894   -2.858608
 0.110000   3.587555   -2.876848
 0.115000   3.573126   -2.894778
 0.120000   3.558608   -2.912397
 0.125000   3.544002   -2.929704
 0.130000   3.529310   -2.946698
 0.135000   3.514535   -2.963379
 0.140000   3.499677   -2.979745
 0.145000   3.484737   -2.995797
 0.150000   3.469719   -3.011532
 0.155000   3.454622   -3.026952
 0.160000   3.439449   -3.042054
 0.165000   3.424202   -3.056840
 0.170000   3.408881   -3.071307
 0.175000   3.393488   -3.085457
 0.180000   3.378026   -3.099288
 0.185000   3.362496   -3.112801
 0.190000   3.346898   -3.125995
 0.195000   3.331236   -3.138870
 0.200000   3.315510   -3.151426
 0.205000   3.299721   -3.163663
 0.210000   3.283873   -3.175581
 0.215000   3.267966   -3.187179
 0.220000   3.252001   -3.198459
 0.225000   3.235981   -3.209420
 0.230000   3.219907   -3.220063
 0.235000   3.203780   -3.230387
 0.240000   3.187603   -3.240393
 0.245000   3.171376   -3.250082
 0.250000   3.155102   -3.259453
 0.255000   3.138782   -3.268508
 0.260000   3.122417   -3.277247
 0.265000   3.106009   -3.285670
 0.270000   3.089560   -3.293778
 0.275000   3.073072   -3.301572
 0.280000   3.056545   -3.309052
 0.285000   3.039981   -3.316219
 0.290000   3.023383   -3.323074
 0.295000   3.006750   -3.329618
 0.300000   2.990086   -3.335852
 0.305000   2.973392   -3.341776
 0.310000   2.956669   -3.347393
 0.315000   2.939918   -3.352701
 0.320000   2.923142   -3.357704
 0.325000   2.906341   -3.362402
 0.330000   2.889518   -3.366795
 0.335000   2.872673   -3.370886
 0.340000   2.855809   -3.374676
 0.345000   2.838926   -3.378165
 0.350000   2.822027   -3.381356
 0.355000   2.805113   -3.384249
 0.360000   2.788185   -3.386847
 0.365000   2.771244   -3.389149
 0.370000   2.754293   -3.391159
 0.375000   2.737333   -3.392877
 0.380000   2.720364   -3.394306
 0.385000   2.703390   -3.395446
 0.390000   2.686410   -3.396300
 0.395000   2.669427   -3.396868
 0.400000   2.652441   -3.397154
 0.405000   2.635455   -3.397158
 0.410000   2.618470   -3.396883
 0.415000   2.601486   -3.396330
 0.420000   2.584506   -3.395500
 0.425000   2.567531   -3.394397
 0.430000   2.550562   -3.393022
 0.435000   2.533601   -3.391377
 0.440000   2.516648   -3.389464
 0.445000   2.499706   -3.387284
 0.450000   2.482776   -3.384841
 0.455000   2.465858   -3.382136
 0.460000   2.448954   -3.379170
 0.465000   2.432066   -3.375948
 0.470000   2.415195   -3.372469
 0.475000   2.398341   -3.368738
 0.480000   2.381507   -3.364755
 0.485000   2.364694   -3.360524
 0.490000   2.347902   -3.356046
 0.495000   2.331133   -3.351324
 0.500000   2.314389   -3.346360
 0.505000   2.297670   -3.341157
 0.510000   2.280977   -3.335716
 0.515000   2.264313   -3.330041
 0.520000   2.247677   -3.324133
 0.525000   2.231071   -3.317996
 0.530000   2.214497   -3.311631
 0.535000   2.197955   -3.305040
 0.540000   2.181447   -3.298228
 0.545000   2.164973   -3.291195
 0.550000   2.148535   -3.283945
 0.555000   2.132133   -3.276480
 0.560000   2.115770   -3.268803
 0.565000   2.099445   -3.260916
 0.570000   2.083161   -3.252821
 0.575000   2.066917   -3.244522
 0.580000   2.050715   -3.236021
 0.585000   2.034557   -3.227321
 0.590000   2.018442   -3.218424
 0.595000   2.002373   -3.209333
 0.600000   1.986349   -3.200050
 0.605000   1.970372   -3.190578
 0.610000   1.954443   -3.180921
 0.615000   1.938563   -3.171079
 0.620000   1.922732   -3.161057
 0.625000   1.906952   -3.150857
 0.630000   1.891224   -3.140481
 0.635000   1.875548   -3.129932
 0.640000   1.859924   -3.119213
 0.645000   1.844355   -3.108326
 0.650000   1.828841   -3.097274
 0.655000   1.813383   -3.086060
 0.660000   1.797981   -3.074685
 0.665000   1.782636   -3.063154
 0.670000   1.767349   -3.051467
 0.675000   1.752121   -3.039628
 0.680000   1.736953   -3.027638
 0.685000   1.721845   -3.015501
 0.690000   1.706798   -3.003218
 0.695000   1.691813   -2.990791
 0.700000   1.676890   -2.978222
 0.705000   1.662030   -2.965514
 0.710000   1.647235   -2.952668
 0.715000   1.632504   -2.939686
 0.720000   1.617838   -2.926568
 0.725000   1.603238   -2.913317
 0.730000   1.588705   -2.899933
 0.735000   1.574239   -2.886417
 0.740000   1.559841   -2.872770
 0.745000   1.545511   -2.858993
 0.750000   1.531251   -2.845085
 0.755000   1.517060   -2.831049
 0.760000   1.502940   -2.816885
 0.765000   1.488891   -2.802595
 0.770000   1.474914   -2.788181
 0.775000   1.461009   -2.773650
 0.780000   1.447178   -2.759007
 0.785000   1.433419   -2.744264
 0.790000   1.419735   -2.729440
 0.795000   1.406125   -2.714558
 0.800000   1.392589   -2.699657
 0.805000   1.379128   -2.684791
 0.810000   1.365742   -2.670036
 0.815000   1.352428   -2.655500
 0.820000   1.339187   -2.641335
 0.825000   1.326015   -2.627751
 0.830000   1.312909   -2.615040
 0.835000   1.299864   -2.603599
 0.840000   1.286873   -2.593976
 0.845000   1.273925   -2.586912
 0.850000   1.261004   -2.583416
 0.855000   1.248090   -2.584849
 0.860000   1.235155   -2.593043
 0.865000   1.222160   -2.610456
 0.870000   1.209051   -2.640371
 0.875000   1.195756   -2.687157
 0.880000   1.182179   -2.756598
 0.885000   1.168190   -2.856302
 0.890000   1.153616   -2.996202
 0.895000   1.138228   -3.189137
 0.900000   1.121725   -3.451479
 0.905000   1.103713   -3.803716
 0.910000   1.083688   -4.270825
 0.915000   1.061005   -4.882085
 0.920000   1.034867   -5.669798
 0.925000   1.004307   -6.666045
 0.930000   0.968206   -7.896349
 0.935000   0.925344   -9.368993
 0.940000   0.874517   -11.059342
 0.945000   0.814750   -12.890448
 0.950000   0.745612   -14.715266
 0.955000   0.667598   -16.311518
 0.960000   0.582497   -17.404423
 0.965000   0.493553   -17.728179
 0.970000   0.405215   -17.117621
 0.975000   0.322377   -15.591790
 0.980000   0.249297   -13.375530
 0.985000   0.188622   -10.831150
 0.990000   0.140986   -8.331525
 0.995000   0.105307   -6.147107
 1.000000   0.079515   -4.169730
201 psinorm ni(10^20/m^3) dni/dpsiN
 0.000000   0.458006   -0.669841
 0.005000   0.454769   -0.624865
 0.010000   0.451757   -0.580322
 0.015000   0.448966   -0.537299
 0.020000   0.446384   -0.497275
 0.025000   0.443993   -0.461008
 0.030000   0.441774   -0.428243
 0.035000   0.439711   -0.398168
 0.040000   0.437793   -0.370071
 0.045000   0.436010   -0.343785
 0.050000   0.434355   -0.319911
 0.055000   0.432811   -0.297847
 0.060000   0.431376   -0.277848
 0.065000   0.430033   -0.259925
 0.070000   0.428777   -0.243394
 0.075000   0.427599   -0.228836
 0.080000   0.426489   -0.215609
 0.085000   0.425443   -0.203472
 0.090000   0.424454   -0.192633
 0.095000   0.423516   -0.183019
 0.100000   0.422624   -0.174454
 0.105000   0.421772   -0.166845
 0.110000   0.420955   -0.160265
 0.115000   0.420169   -0.154838
 0.120000   0.419407   -0.150409
 0.125000   0.418665   -0.146846
 0.130000   0.417939   -0.144157
 0.135000   0.417223   -0.142301
 0.140000   0.416516   -0.141174
 0.145000   0.415812   -0.140766
 0.150000   0.415108   -0.141117
 0.155000   0.414401   -0.142159
 0.160000   0.413686   -0.143820
 0.165000   0.412962   -0.146128
 0.170000   0.412225   -0.149023
 0.175000   0.411472   -0.152311
 0.180000   0.410702   -0.156091
 0.185000   0.409911   -0.160269
 0.190000   0.409099   -0.164593
 0.195000   0.408265   -0.169015
 0.200000   0.407409   -0.173466
 0.205000   0.406531   -0.177952
 0.210000   0.405630   -0.182500
 0.215000   0.404706   -0.187461
 0.220000   0.403755   -0.192516
 0.225000   0.402780   -0.197256
 0.230000   0.401782   -0.202213
 0.235000   0.400758   -0.207597
 0.240000   0.399706   -0.213315
 0.245000   0.398625   -0.219530
 0.250000   0.397511   -0.226219
 0.255000   0.396363   -0.233032
 0.260000   0.395181   -0.240049
 0.265000   0.393963   -0.247418
 0.270000   0.392707   -0.255036
 0.275000   0.391412   -0.263167
 0.280000   0.390075   -0.271401
 0.285000   0.388698   -0.279398
 0.290000   0.387281   -0.287367
 0.295000   0.385824   -0.295168
 0.300000   0.384329   -0.302987
 0.305000   0.382795   -0.310519
 0.310000   0.381224   -0.317509
 0.315000   0.379620   -0.324194
 0.320000   0.377982   -0.330622
 0.325000   0.376313   -0.336898
 0.330000   0.374613   -0.342899
 0.335000   0.372884   -0.348602
 0.340000   0.371127   -0.354190
 0.345000   0.369342   -0.359730
 0.350000   0.367530   -0.365117
 0.355000   0.365691   -0.370188
 0.360000   0.363828   -0.374958
 0.365000   0.361942   -0.379426
 0.370000   0.360034   -0.383546
 0.375000   0.358106   -0.387183
 0.380000   0.356162   -0.390265
 0.385000   0.354204   -0.392813
 0.390000   0.352234   -0.394826
 0.395000   0.350255   -0.396246
 0.400000   0.348271   -0.397050
 0.405000   0.346285   -0.397277
 0.410000   0.344299   -0.397039
 0.415000   0.342314   -0.396434
 0.420000   0.340334   -0.395447
 0.425000   0.338360   -0.394083
 0.430000   0.336393   -0.392344
 0.435000   0.334436   -0.390249
 0.440000   0.332491   -0.387768
 0.445000   0.330559   -0.384756
 0.450000   0.328643   -0.381101
 0.455000   0.326748   -0.376760
 0.460000   0.324876   -0.371682
 0.465000   0.323031   -0.365835
 0.470000   0.321217   -0.359202
 0.475000   0.319439   -0.351797
 0.480000   0.317699   -0.343699
 0.485000   0.316002   -0.334989
 0.490000   0.314350   -0.325743
 0.495000   0.312745   -0.316047
 0.500000   0.311189   -0.306001
 0.505000   0.309685   -0.295709
 0.510000   0.308232   -0.285232
 0.515000   0.306832   -0.274607
 0.520000   0.305486   -0.263865
 0.525000   0.304194   -0.253023
 0.530000   0.302956   -0.242077
 0.535000   0.301773   -0.230961
 0.540000   0.300646   -0.219632
 0.545000   0.299576   -0.208105
 0.550000   0.298565   -0.196405
 0.555000   0.297612   -0.184590
 0.560000   0.296719   -0.172733
 0.565000   0.295885   -0.160897
 0.570000   0.295110   -0.149127
 0.575000   0.294394   -0.137463
 0.580000   0.293735   -0.125939
 0.585000   0.293134   -0.114568
 0.590000   0.292590   -0.103348
 0.595000   0.292101   -0.092265
 0.600000   0.291667   -0.081331
 0.605000   0.291288   -0.070580
 0.610000   0.290961   -0.060013
 0.615000   0.290687   -0.049666
 0.620000   0.290465   -0.039530
 0.625000   0.290292   -0.029672
 0.630000   0.290168   -0.020203
 0.635000   0.290090   -0.011132
 0.640000   0.290057   -0.002527
 0.645000   0.290065   0.005595
 0.650000   0.290113   0.013720
 0.655000   0.290202   0.022833
 0.660000   0.290341   0.033645
 0.665000   0.290539   0.046305
 0.670000   0.290804   0.060725
 0.675000   0.291146   0.076684
 0.680000   0.291571   0.095029
 0.685000   0.292096   0.114430
 0.690000   0.292715   0.132379
 0.695000   0.293420   0.148798
 0.700000   0.294203   0.163468
 0.705000   0.295055   0.175747
 0.710000   0.295961   0.185462
 0.715000   0.296909   0.191139
 0.720000   0.297872   0.191357
 0.725000   0.298823   0.186727
 0.730000   0.299739   0.177783
 0.735000   0.300601   0.164872
 0.740000   0.301388   0.147907
 0.745000   0.302080   0.127412
 0.750000   0.302662   0.105581
 0.755000   0.303135   0.083816
 0.760000   0.303500   0.062529
 0.765000   0.303761   0.042384
 0.770000   0.303924   0.023559
 0.775000   0.303996   0.006686
 0.780000   0.303991   -0.007033
 0.785000   0.303926   -0.017710
 0.790000   0.303814   -0.026022
 0.795000   0.303666   -0.032205
 0.800000   0.303492   -0.036519
 0.805000   0.303301   -0.039109
 0.810000   0.303101   -0.039838
 0.815000   0.302902   -0.038358
 0.820000   0.302717   -0.034226
 0.825000   0.302560   -0.026906
 0.830000   0.302448   -0.015766
 0.835000   0.302402   -0.000067
 0.840000   0.302447   0.021010
 0.845000   0.302612   0.048503
 0.850000   0.302932   0.083702
 0.855000   0.303449   0.127971
 0.860000   0.304212   0.182728
 0.865000   0.305277   0.249452
 0.870000   0.306707   0.329431
 0.875000   0.308571   0.423619
 0.880000   0.310943   0.532355
 0.885000   0.313895   0.654720
 0.890000   0.317490   0.787800
 0.895000   0.321773   0.926498
 0.900000   0.326755   1.060015
 0.905000   0.332373   1.170032
 0.910000   0.338455   1.230025
 0.915000   0.344673   1.202176
 0.920000   0.350477   1.037974
 0.925000   0.355053   0.694114
 0.930000   0.357418   0.122248
 0.935000   0.356275   -0.703964
 0.940000   0.350379   -1.742284
 0.945000   0.338852   -2.883201
 0.950000   0.321547   -3.963900
 0.955000   0.299213   -4.802188
 0.960000   0.273525   -5.326541
 0.965000   0.245948   -5.545688
 0.970000   0.218068   -5.468647
 0.975000   0.191261   -5.151219
 0.980000   0.166556   -4.666963
 0.985000   0.144592   -4.094574
 0.990000   0.125610   -3.502823
 0.995000   0.109564   -2.940521
 1.000000   0.096205   -2.403037
201 psinorm ti(KeV) dti/dpsiN
 0.000000   4.710402   0.003312
 0.005000   4.709904   -0.202522
 0.010000   4.708376   -0.413238
 0.015000   4.705771   -0.633423
 0.020000   4.702042   -0.862349
 0.025000   4.697148   -1.098988
 0.030000   4.691052   -1.342016
 0.035000   4.683728   -1.589861
 0.040000   4.675154   -1.840022
 0.045000   4.665327   -2.090972
 0.050000   4.654244   -2.341909
 0.055000   4.641908   -2.591157
 0.060000   4.628332   -2.837420
 0.065000   4.613534   -3.079707
 0.070000   4.597535   -3.316195
 0.075000   4.580372   -3.547774
 0.080000   4.562058   -3.775875
 0.085000   4.542613   -3.998941
 0.090000   4.522068   -4.215975
 0.095000   4.500454   -4.426486
 0.100000   4.477803   -4.629820
 0.105000   4.454155   -4.827320
 0.110000   4.429530   -5.019931
 0.115000   4.403956   -5.205628
 0.120000   4.377474   -5.382470
 0.125000   4.350131   -5.548935
 0.130000   4.321984   -5.702729
 0.135000   4.293104   -5.843007
 0.140000   4.263554   -5.971132
 0.145000   4.233393   -6.086957
 0.150000   4.202685   -6.189623
 0.155000   4.171497   -6.279119
 0.160000   4.139894   -6.354210
 0.165000   4.107954   -6.415693
 0.170000   4.075737   -6.468783
 0.175000   4.043267   -6.516577
 0.180000   4.010571   -6.560021
 0.185000   3.977666   -6.600699
 0.190000   3.944564   -6.639685
 0.195000   3.911270   -6.678327
 0.200000   3.877781   -6.715740
 0.205000   3.844112   -6.750517
 0.210000   3.810276   -6.782941
 0.215000   3.776283   -6.812757
 0.220000   3.742148   -6.840724
 0.225000   3.707876   -6.867643
 0.230000   3.673472   -6.886720
 0.235000   3.639008   -6.893953
 0.240000   3.604532   -6.891502
 0.245000   3.570093   -6.878461
 0.250000   3.535747   -6.854337
 0.255000   3.501550   -6.818413
 0.260000   3.467563   -6.767401
 0.265000   3.433876   -6.700806
 0.270000   3.400555   -6.620567
 0.275000   3.367670   -6.526563
 0.280000   3.335290   -6.418972
 0.285000   3.303481   -6.297548
 0.290000   3.272314   -6.171314
 0.295000   3.241767   -6.047719
 0.300000   3.211837   -5.925250
 0.305000   3.182515   -5.804645
 0.310000   3.153790   -5.686476
 0.315000   3.125650   -5.572571
 0.320000   3.098065   -5.463315
 0.325000   3.071017   -5.357053
 0.330000   3.044494   -5.253165
 0.335000   3.018485   -5.151293
 0.340000   2.992981   -5.050988
 0.345000   2.967975   -4.954869
 0.350000   2.943433   -4.858210
 0.355000   2.919393   -4.753743
 0.360000   2.895895   -4.641554
 0.365000   2.872978   -4.521245
 0.370000   2.850683   -4.392909
 0.375000   2.829049   -4.255132
 0.380000   2.808131   -4.109319
 0.385000   2.787956   -3.961281
 0.390000   2.768519   -3.814493
 0.395000   2.749811   -3.670454
 0.400000   2.731814   -3.530440
 0.405000   2.714506   -3.392967
 0.410000   2.697884   -3.259937
 0.415000   2.681907   -3.135496
 0.420000   2.666529   -3.019010
 0.425000   2.651717   -2.909785
 0.430000   2.637432   -2.808183
 0.435000   2.623635   -2.713838
 0.440000   2.610293   -2.628055
 0.445000   2.597354   -2.552380
 0.450000   2.584769   -2.485705
 0.455000   2.572497   -2.426915
 0.460000   2.560500   -2.375223
 0.465000   2.548745   -2.329318
 0.470000   2.537207   -2.286601
 0.475000   2.525879   -2.245640
 0.480000   2.514751   -2.207521
 0.485000   2.503804   -2.173127
 0.490000   2.493019   -2.142665
 0.495000   2.482377   -2.116066
 0.500000   2.471859   -2.093162
 0.505000   2.461446   -2.074219
 0.510000   2.451117   -2.059334
 0.515000   2.440852   -2.048260
 0.520000   2.430634   -2.040907
 0.525000   2.420443   -2.037094
 0.530000   2.410263   -2.036613
 0.535000   2.400077   -2.039713
 0.540000   2.389866   -2.046399
 0.545000   2.379613   -2.056277
 0.550000   2.369303   -2.069189
 0.555000   2.358921   -2.084956
 0.560000   2.348454   -2.103575
 0.565000   2.337885   -2.125386
 0.570000   2.327200   -2.150702
 0.575000   2.316378   -2.179588
 0.580000   2.305404   -2.211982
 0.585000   2.294259   -2.247782
 0.590000   2.282926   -2.288186
 0.595000   2.271377   -2.331579
 0.600000   2.259610   -2.375927
 0.605000   2.247617   -2.421801
 0.610000   2.235392   -2.468658
 0.615000   2.222931   -2.515916
 0.620000   2.210233   -2.564428
 0.625000   2.197287   -2.611717
 0.630000   2.184116   -2.655708
 0.635000   2.170730   -2.698148
 0.640000   2.157134   -2.739273
 0.645000   2.143337   -2.779097
 0.650000   2.129343   -2.818158
 0.655000   2.115155   -2.853158
 0.660000   2.100812   -2.880367
 0.665000   2.086352   -2.899912
 0.670000   2.071813   -2.911820
 0.675000   2.057233   -2.916420
 0.680000   2.042649   -2.913199
 0.685000   2.028101   -2.903749
 0.690000   2.013611   -2.890729
 0.695000   1.999194   -2.874223
 0.700000   1.984869   -2.854321
 0.705000   1.970651   -2.831553
 0.710000   1.956553   -2.805387
 0.715000   1.942597   -2.777332
 0.720000   1.928780   -2.749932
 0.725000   1.915098   -2.723214
 0.730000   1.901548   -2.697788
 0.735000   1.888120   -2.675390
 0.740000   1.874794   -2.658995
 0.745000   1.861530   -2.649735
 0.750000   1.848297   -2.643336
 0.755000   1.835096   -2.636666
 0.760000   1.821930   -2.629764
 0.765000   1.808799   -2.622358
 0.770000   1.795706   -2.615197
 0.775000   1.782647   -2.608195
 0.780000   1.769624   -2.599864
 0.785000   1.756648   -2.592113
 0.790000   1.743703   -2.588185
 0.795000   1.730766   -2.589381
 0.800000   1.717809   -2.597805
 0.805000   1.704788   -2.615222
 0.810000   1.691657   -2.636480
 0.815000   1.678424   -2.658311
 0.820000   1.665074   -2.682523
 0.825000   1.651598   -2.708967
 0.830000   1.637984   -2.739131
 0.835000   1.624207   -2.779262
 0.840000   1.610192   -2.833174
 0.845000   1.595875   -2.902742
 0.850000   1.581164   -2.991511
 0.855000   1.565960   -3.100771
 0.860000   1.550157   -3.233358
 0.865000   1.533627   -3.399768
 0.870000   1.516159   -3.593412
 0.875000   1.497692   -3.811076
 0.880000   1.478048   -4.067333
 0.885000   1.457019   -4.367718
 0.890000   1.434371   -4.717832
 0.895000   1.409841   -5.153153
 0.900000   1.382840   -5.663109
 0.905000   1.353210   -6.224084
 0.910000   1.320599   -6.851994
 0.915000   1.284690   -7.536546
 0.920000   1.245233   -8.260420
 0.925000   1.202086   -9.034724
 0.930000   1.154886   -9.782945
 0.935000   1.104256   -10.419325
 0.940000   1.050693   -10.940744
 0.945000   0.994849   -11.315236
 0.950000   0.937540   -11.514269
 0.955000   0.879706   -11.527774
 0.960000   0.822263   -11.321909
 0.965000   0.766487   -10.878488
 0.970000   0.713478   -10.230234
 0.975000   0.664185   -9.410109
 0.980000   0.619377   -8.457645
 0.985000   0.579608   -7.405445
 0.990000   0.545322   -6.302109
 0.995000   0.516587   -5.204582
 1.000000   0.493276   -4.119663
201 psinorm nb(10^20/m^3) dnb/dpsiN
 0.000000   0.052592   0.108690
 0.005000   0.053054   0.076201
 0.010000   0.053354   0.044208
 0.015000   0.053497   0.013841
 0.020000   0.053493   -0.013468
 0.025000   0.053362   -0.037014
 0.030000   0.053123   -0.057112
 0.035000   0.052791   -0.074635
 0.040000   0.052376   -0.090380
 0.045000   0.051887   -0.104562
 0.050000   0.051331   -0.116600
 0.055000   0.050721   -0.127141
 0.060000   0.050059   -0.135955
 0.065000   0.049361   -0.143049
 0.070000   0.048629   -0.149138
 0.075000   0.047870   -0.153626
 0.080000   0.047092   -0.157126
 0.085000   0.046299   -0.159892
 0.090000   0.045493   -0.161713
 0.095000   0.044682   -0.162666
 0.100000   0.043867   -0.162944
 0.105000   0.043052   -0.162683
 0.110000   0.042240   -0.161858
 0.115000   0.041434   -0.160359
 0.120000   0.040636   -0.158355
 0.125000   0.039850   -0.155990
 0.130000   0.039076   -0.153285
 0.135000   0.038317   -0.150295
 0.140000   0.037574   -0.147112
 0.145000   0.036846   -0.143735
 0.150000   0.036136   -0.140120
 0.155000   0.035445   -0.136324
 0.160000   0.034773   -0.132420
 0.165000   0.034121   -0.128364
 0.170000   0.033489   -0.124170
 0.175000   0.032879   -0.120013
 0.180000   0.032289   -0.115789
 0.185000   0.031721   -0.111559
 0.190000   0.031174   -0.107524
 0.195000   0.030646   -0.103597
 0.200000   0.030138   -0.099748
 0.205000   0.029648   -0.095987
 0.210000   0.029178   -0.092322
 0.215000   0.028725   -0.088438
 0.220000   0.028293   -0.084655
 0.225000   0.027879   -0.081372
 0.230000   0.027480   -0.078248
 0.235000   0.027096   -0.075189
 0.240000   0.026728   -0.072227
 0.245000   0.026374   -0.069214
 0.250000   0.026036   -0.066174
 0.255000   0.025712   -0.063460
 0.260000   0.025401   -0.061046
 0.265000   0.025102   -0.058756
 0.270000   0.024813   -0.056583
 0.275000   0.024536   -0.054207
 0.280000   0.024271   -0.051972
 0.285000   0.024016   -0.050199
 0.290000   0.023769   -0.048539
 0.295000   0.023531   -0.046982
 0.300000   0.023300   -0.045309
 0.305000   0.023078   -0.043762
 0.310000   0.022862   -0.042557
 0.315000   0.022652   -0.041442
 0.320000   0.022448   -0.040367
 0.325000   0.022248   -0.039263
 0.330000   0.022055   -0.038321
 0.335000   0.021865   -0.037592
 0.340000   0.021679   -0.036908
 0.345000   0.021496   -0.036202
 0.350000   0.021317   -0.035543
 0.355000   0.021141   -0.035035
 0.360000   0.020967   -0.034608
 0.365000   0.020795   -0.034206
 0.370000   0.020625   -0.033816
 0.375000   0.020456   -0.033503
 0.380000   0.020290   -0.033274
 0.385000   0.020124   -0.033074
 0.390000   0.019959   -0.032873
 0.395000   0.019795   -0.032705
 0.400000   0.019632   -0.032595
 0.405000   0.019469   -0.032502
 0.410000   0.019307   -0.032416
 0.415000   0.019145   -0.032344
 0.420000   0.018983   -0.032297
 0.425000   0.018822   -0.032261
 0.430000   0.018661   -0.032231
 0.435000   0.018500   -0.032209
 0.440000   0.018339   -0.032196
 0.445000   0.018178   -0.032190
 0.450000   0.018017   -0.032187
 0.455000   0.017856   -0.032181
 0.460000   0.017695   -0.032177
 0.465000   0.017534   -0.032184
 0.470000   0.017373   -0.032197
 0.475000   0.017212   -0.032217
 0.480000   0.017051   -0.032239
 0.485000   0.016890   -0.032258
 0.490000   0.016728   -0.032276
 0.495000   0.016567   -0.032291
 0.500000   0.016405   -0.032303
 0.505000   0.016244   -0.032310
 0.510000   0.016082   -0.032311
 0.515000   0.015921   -0.032308
 0.520000   0.015759   -0.032302
 0.525000   0.015598   -0.032297
 0.530000   0.015436   -0.032294
 0.535000   0.015275   -0.032286
 0.540000   0.015113   -0.032271
 0.545000   0.014952   -0.032256
 0.550000   0.014791   -0.032246
 0.555000   0.014630   -0.032237
 0.560000   0.014468   -0.032232
 0.565000   0.014307   -0.032231
 0.570000   0.014146   -0.032238
 0.575000   0.013985   -0.032249
 0.580000   0.013824   -0.032266
 0.585000   0.013662   -0.032294
 0.590000   0.013501   -0.032333
 0.595000   0.013339   -0.032376
 0.600000   0.013177   -0.032422
 0.605000   0.013015   -0.032473
 0.610000   0.012852   -0.032548
 0.615000   0.012689   -0.032638
 0.620000   0.012526   -0.032726
 0.625000   0.012362   -0.032822
 0.630000   0.012198   -0.032927
 0.635000   0.012033   -0.033059
 0.640000   0.011867   -0.033197
 0.645000   0.011701   -0.033326
 0.650000   0.011534   -0.033461
 0.655000   0.011366   -0.033602
 0.660000   0.011198   -0.033773
 0.665000   0.011028   -0.033954
 0.670000   0.010858   -0.034121
 0.675000   0.010687   -0.034295
 0.680000   0.010515   -0.034474
 0.685000   0.010342   -0.034672
 0.690000   0.010168   -0.034885
 0.695000   0.009994   -0.035086
 0.700000   0.009818   -0.035271
 0.705000   0.009641   -0.035456
 0.710000   0.009463   -0.035637
 0.715000   0.009284   -0.035825
 0.720000   0.009105   -0.036015
 0.725000   0.008924   -0.036183
 0.730000   0.008743   -0.036333
 0.735000   0.008561   -0.036474
 0.740000   0.008378   -0.036604
 0.745000   0.008195   -0.036722
 0.750000   0.008011   -0.036838
 0.755000   0.007827   -0.036940
 0.760000   0.007642   -0.037021
 0.765000   0.007456   -0.037094
 0.770000   0.007271   -0.037158
 0.775000   0.007085   -0.037211
 0.780000   0.006899   -0.037253
 0.785000   0.006712   -0.037283
 0.790000   0.006526   -0.037299
 0.795000   0.006339   -0.037298
 0.800000   0.006153   -0.037283
 0.805000   0.005966   -0.037255
 0.810000   0.005780   -0.037212
 0.815000   0.005594   -0.037158
 0.820000   0.005409   -0.037092
 0.825000   0.005223   -0.037017
 0.830000   0.005038   -0.036926
 0.835000   0.004854   -0.036820
 0.840000   0.004670   -0.036708
 0.845000   0.004487   -0.036583
 0.850000   0.004304   -0.036450
 0.855000   0.004123   -0.036309
 0.860000   0.003941   -0.036150
 0.865000   0.003761   -0.035974
 0.870000   0.003582   -0.035788
 0.875000   0.003403   -0.035606
 0.880000   0.003226   -0.035432
 0.885000   0.003049   -0.035254
 0.890000   0.002873   -0.035056
 0.895000   0.002698   -0.034811
 0.900000   0.002525   -0.034471
 0.905000   0.002354   -0.033991
 0.910000   0.002185   -0.033321
 0.915000   0.002020   -0.032409
 0.920000   0.001861   -0.031208
 0.925000   0.001708   -0.029707
 0.930000   0.001564   -0.027952
 0.935000   0.001429   -0.026076
 0.940000   0.001303   -0.024337
 0.945000   0.001185   -0.023099
 0.950000   0.001072   -0.022725
 0.955000   0.000958   -0.023289
 0.960000   0.000839   -0.024293
 0.965000   0.000715   -0.024819
 0.970000   0.000591   -0.024012
 0.975000   0.000475   -0.021579
 0.980000   0.000375   -0.018144
 0.985000   0.000294   -0.014894
 0.990000   0.000226   -0.012811
 0.995000   0.000165   -0.012214
 1.000000   0.000104   -0.012337
201 psinorm pb(KPa) dpb/dpsiN
 0.000000   21.451094   34.435518
 0.005000   21.593174   22.396720
 0.010000   21.675061   10.018723
 0.015000   21.693362   -2.313787
 0.020000   21.651923   -13.307358
 0.025000   21.560288   -22.541557
 0.030000   21.426508   -30.198025
 0.035000   21.258308   -36.779347
 0.040000   21.058714   -42.751826
 0.045000   20.830790   -48.117586
 0.050000   20.577538   -52.690408
 0.055000   20.303886   -56.669560
 0.060000   20.010843   -59.890166
 0.065000   19.704984   -62.407176
 0.070000   19.386771   -64.523353
 0.075000   19.059750   -65.987015
 0.080000   18.726901   -67.060922
 0.085000   18.389141   -67.889947
 0.090000   18.048001   -68.374894
 0.095000   17.705392   -68.532446
 0.100000   17.362677   -68.433340
 0.105000   17.021059   -68.145703
 0.110000   16.681220   -67.648884
 0.115000   16.344570   -66.881774
 0.120000   16.012402   -65.922825
 0.125000   15.685342   -64.834146
 0.130000   15.364061   -63.620911
 0.135000   15.049133   -62.311153
 0.140000   14.740949   -60.963958
 0.145000   14.439493   -59.559282
 0.150000   14.145356   -58.036827
 0.155000   13.859125   -56.433580
 0.160000   13.581020   -54.795926
 0.165000   13.311165   -53.105605
 0.170000   13.049964   -51.368640
 0.175000   12.797479   -49.652815
 0.180000   12.553436   -47.874936
 0.185000   12.318730   -46.090169
 0.190000   12.092535   -44.430128
 0.195000   11.874428   -42.829495
 0.200000   11.664240   -41.264170
 0.205000   11.461787   -39.737368
 0.210000   11.266866   -38.252028
 0.215000   11.079266   -36.688378
 0.220000   10.899982   -35.169446
 0.225000   10.727572   -33.862020
 0.230000   10.561362   -32.625841
 0.235000   10.401314   -31.400012
 0.240000   10.247362   -30.206607
 0.245000   10.099248   -28.997792
 0.250000   9.957384   -27.783125
 0.255000   9.821416   -26.695288
 0.260000   9.690431   -25.723826
 0.265000   9.564178   -24.801568
 0.270000   9.442415   -23.926638
 0.275000   9.324912   -22.969640
 0.280000   9.212719   -22.066730
 0.285000   9.104244   -21.347413
 0.290000   8.999245   -20.674103
 0.295000   8.897503   -20.042041
 0.300000   8.798824   -19.368378
 0.305000   8.703820   -18.744139
 0.310000   8.611383   -18.249805
 0.315000   8.521321   -17.790718
 0.320000   8.433476   -17.347779
 0.325000   8.347844   -16.895488
 0.330000   8.264521   -16.502741
 0.335000   8.182816   -16.189687
 0.340000   8.102624   -15.896839
 0.345000   8.023848   -15.597417
 0.350000   7.946650   -15.316474
 0.355000   7.870683   -15.092829
 0.360000   7.795722   -14.900273
 0.365000   7.721680   -14.718255
 0.370000   7.648539   -14.542191
 0.375000   7.576258   -14.395857
 0.380000   7.504581   -14.281121
 0.385000   7.433447   -14.177826
 0.390000   7.362802   -14.082451
 0.395000   7.292623   -14.000407
 0.400000   7.222798   -13.931953
 0.405000   7.153303   -13.868002
 0.410000   7.084118   -13.805267
 0.415000   7.015251   -13.748012
 0.420000   6.946638   -13.699593
 0.425000   6.878255   -13.655196
 0.430000   6.810086   -13.613995
 0.435000   6.742115   -13.576091
 0.440000   6.674325   -13.542128
 0.445000   6.606693   -13.511568
 0.450000   6.539210   -13.483098
 0.455000   6.471862   -13.449468
 0.460000   6.404715   -13.416643
 0.465000   6.337696   -13.393494
 0.470000   6.270780   -13.375251
 0.475000   6.203943   -13.364555
 0.480000   6.137134   -13.356522
 0.485000   6.070378   -13.345792
 0.490000   6.003676   -13.334865
 0.495000   5.937030   -13.325891
 0.500000   5.870418   -13.316990
 0.505000   5.803860   -13.302500
 0.510000   5.737393   -13.284511
 0.515000   5.671015   -13.270702
 0.520000   5.604685   -13.256260
 0.525000   5.538452   -13.240802
 0.530000   5.472277   -13.227126
 0.535000   5.406181   -13.208113
 0.540000   5.340196   -13.187921
 0.545000   5.274302   -13.166629
 0.550000   5.208530   -13.143270
 0.555000   5.142869   -13.122243
 0.560000   5.077308   -13.104670
 0.565000   5.011822   -13.087690
 0.570000   4.946431   -13.069366
 0.575000   4.881128   -13.052856
 0.580000   4.815902   -13.038874
 0.585000   4.750740   -13.033494
 0.590000   4.685567   -13.029787
 0.595000   4.620442   -13.020432
 0.600000   4.555363   -13.011149
 0.605000   4.490330   -13.001328
 0.610000   4.425350   -13.003760
 0.615000   4.360293   -13.012795
 0.620000   4.295222   -13.016462
 0.625000   4.230128   -13.021653
 0.630000   4.165005   -13.029299
 0.635000   4.099835   -13.046940
 0.640000   4.034536   -13.064481
 0.645000   3.969190   -13.074165
 0.650000   3.903794   -13.084456
 0.655000   3.838346   -13.094530
 0.660000   3.772849   -13.114217
 0.665000   3.707204   -13.135404
 0.670000   3.641495   -13.148312
 0.675000   3.575720   -13.161903
 0.680000   3.509876   -13.176412
 0.685000   3.443956   -13.196296
 0.690000   3.377913   -13.219811
 0.695000   3.311758   -13.235552
 0.700000   3.245557   -13.244311
 0.705000   3.179315   -13.251492
 0.710000   3.113042   -13.256052
 0.715000   3.046755   -13.261412
 0.720000   2.980428   -13.266157
 0.725000   2.914093   -13.262300
 0.730000   2.847805   -13.251064
 0.735000   2.781582   -13.235848
 0.740000   2.715447   -13.215747
 0.745000   2.649425   -13.190383
 0.750000   2.583543   -13.162166
 0.755000   2.517803   -13.128675
 0.760000   2.452256   -13.088205
 0.765000   2.386921   -13.044702
 0.770000   2.321809   -12.998660
 0.775000   2.256935   -12.948876
 0.780000   2.192320   -12.894855
 0.785000   2.127986   -12.836859
 0.790000   2.063952   -12.774122
 0.795000   2.000245   -12.706833
 0.800000   1.936883   -12.635515
 0.805000   1.873890   -12.560027
 0.810000   1.811283   -12.481202
 0.815000   1.749078   -12.399771
 0.820000   1.687285   -12.315696
 0.825000   1.625921   -12.230329
 0.830000   1.564982   -12.141008
 0.835000   1.504511   -12.048637
 0.840000   1.444496   -11.955891
 0.845000   1.384952   -11.860487
 0.850000   1.325891   -11.763977
 0.855000   1.267312   -11.665991
 0.860000   1.209231   -11.564146
 0.865000   1.151671   -11.458537
 0.870000   1.094646   -11.351019
 0.875000   1.038160   -11.244291
 0.880000   0.982203   -11.138766
 0.885000   0.926773   -11.031597
 0.890000   0.871887   -10.920048
 0.895000   0.817572   -10.797293
 0.900000   0.763914   -10.651235
 0.905000   0.711060   -10.469831
 0.910000   0.659215   -10.240262
 0.915000   0.608657   -9.947282
 0.920000   0.559743   -9.575630
 0.925000   0.512901   -9.118133
 0.930000   0.468561   -8.582766
 0.935000   0.427073   -8.001372
 0.940000   0.388548   -7.438126
 0.945000   0.352692   -6.987021
 0.950000   0.318677   -6.745202
 0.955000   0.285240   -6.747822
 0.960000   0.251199   -6.905360
 0.965000   0.216186   -7.023580
 0.970000   0.180963   -6.891380
 0.975000   0.147273   -6.392344
 0.980000   0.117040   -5.589480
 0.985000   0.091378   -4.672887
 0.990000   0.070311   -3.896310
 0.995000   0.052415   -3.505829
 1.000000   0.035253   -3.358919
201 psinorm ptot(KPa) dptot/dpsiN
 0.000000   108.923324   -81.580188
 0.005000   108.489670   -91.881631
 0.010000   108.004508   -102.579360
 0.015000   107.463876   -113.393672
 0.020000   106.870571   -123.138595
 0.025000   106.232490   -131.444023
 0.030000   105.556131   -138.462877
 0.035000   104.847862   -144.625444
 0.040000   104.109877   -150.325628
 0.045000   103.344605   -155.542673
 0.050000   102.554450   -160.130376
 0.055000   101.743301   -164.231096
 0.060000   100.912139   -167.689686
 0.065000   100.066405   -170.555216
 0.070000   99.206587   -173.066080
 0.075000   98.335744   -175.021088
 0.080000   97.456376   -176.647266
 0.085000   96.569271   -178.060084
 0.090000   95.675775   -179.168328
 0.095000   94.777588   -179.979446
 0.100000   93.875981   -180.546320
 0.105000   92.972125   -180.939793
 0.110000   92.066583   -181.150523
 0.115000   91.160619   -181.110261
 0.120000   90.255480   -180.871190
 0.125000   89.351908   -180.474155
 0.130000   88.450739   -179.907013
 0.135000   87.552837   -179.188078
 0.140000   86.658858   -178.379139
 0.145000   85.769046   -177.457963
 0.150000   84.884278   -176.360286
 0.155000   84.005443   -175.117978
 0.160000   83.133098   -173.763124
 0.165000   82.267812   -172.285003
 0.170000   81.410248   -170.723874
 0.175000   80.560573   -169.157208
 0.180000   79.718676   -167.514544
 0.185000   78.885428   -165.856420
 0.190000   78.060112   -164.306185
 0.195000   77.242366   -162.806665
 0.200000   76.432045   -161.323872
 0.205000   75.629127   -159.851186
 0.210000   74.833534   -158.394991
 0.215000   74.045177   -156.854352
 0.220000   73.264990   -155.338335
 0.225000   72.491794   -153.995055
 0.230000   71.725040   -152.666161
 0.235000   70.965132   -151.273805
 0.240000   70.212301   -149.850615
 0.245000   69.466626   -148.351701
 0.250000   68.728784   -146.781890
 0.255000   67.998807   -145.249377
 0.260000   67.276291   -143.725612
 0.265000   66.561551   -142.149479
 0.270000   65.854796   -140.528965
 0.275000   65.156262   -138.749471
 0.280000   64.467301   -136.928042
 0.285000   63.786981   -135.175934
 0.290000   63.115542   -133.431722
 0.295000   62.452664   -131.736570
 0.300000   61.798176   -130.007514
 0.305000   61.152589   -128.326011
 0.310000   60.514916   -126.764449
 0.315000   59.884944   -125.253489
 0.320000   59.262381   -123.779315
 0.325000   58.647151   -122.310555
 0.330000   58.039276   -120.905600
 0.335000   57.438095   -119.581346
 0.340000   56.843462   -118.284472
 0.345000   56.255250   -117.008711
 0.350000   55.673375   -115.743665
 0.355000   55.097814   -114.474248
 0.360000   54.528633   -113.177499
 0.365000   53.966039   -111.832229
 0.370000   53.410310   -110.434421
 0.375000   52.861695   -108.994877
 0.380000   52.320361   -107.523514
 0.385000   51.786459   -106.039803
 0.390000   51.259963   -104.563256
 0.395000   50.740827   -103.106893
 0.400000   50.228895   -101.678126
 0.405000   49.724046   -100.260687
 0.410000   49.226288   -98.867175
 0.415000   48.735374   -97.530663
 0.420000   48.250981   -96.249296
 0.425000   47.772881   -95.013579
 0.430000   47.300845   -93.824348
 0.435000   46.834637   -92.679508
 0.440000   46.374050   -91.585707
 0.445000   45.918780   -90.545801
 0.450000   45.468592   -89.547177
 0.455000   45.023309   -88.573902
 0.460000   44.582853   -87.624966
 0.465000   44.147059   -86.700075
 0.470000   43.715852   -85.778565
 0.475000   43.289273   -84.855300
 0.480000   42.867299   -83.934477
 0.485000   42.449928   -83.018514
 0.490000   42.037114   -82.113527
 0.495000   41.628793   -81.223875
 0.500000   41.224875   -80.349841
 0.505000   40.825295   -79.490434
 0.510000   40.429971   -78.650009
 0.515000   40.038795   -77.835711
 0.520000   39.651614   -77.042999
 0.525000   39.268365   -76.270709
 0.530000   38.888907   -75.520113
 0.535000   38.513164   -74.783227
 0.540000   38.141075   -74.062745
 0.545000   37.772536   -73.356909
 0.550000   37.407506   -72.664579
 0.555000   37.045890   -71.991055
 0.560000   36.687595   -71.339670
 0.565000   36.332494   -70.711281
 0.570000   35.980482   -70.106981
 0.575000   35.631424   -69.531438
 0.580000   35.285168   -68.985970
 0.585000   34.941564   -68.476410
 0.590000   34.600404   -68.002066
 0.595000   34.261543   -67.546603
 0.600000   33.924938   -67.105316
 0.605000   33.590490   -66.681678
 0.610000   33.258121   -66.285650
 0.615000   32.927634   -65.909622
 0.620000   32.599025   -65.546057
 0.625000   32.272173   -65.190756
 0.630000   31.947117   -64.836923
 0.635000   31.623804   -64.501505
 0.640000   31.302102   -64.177575
 0.645000   30.982028   -63.857886
 0.650000   30.663523   -63.539774
 0.655000   30.346630   -63.177467
 0.660000   30.031749   -62.742068
 0.665000   29.719210   -62.223562
 0.670000   29.409513   -61.616433
 0.675000   29.103045   -60.938704
 0.680000   28.800126   -60.166143
 0.685000   28.501384   -59.348884
 0.690000   28.206637   -58.567204
 0.695000   27.915712   -57.811064
 0.700000   27.628526   -57.086074
 0.705000   27.344851   -56.415562
 0.710000   27.064371   -55.798122
 0.715000   26.786870   -55.280760
 0.720000   26.511563   -54.909027
 0.725000   26.237780   -54.655424
 0.730000   25.965009   -54.507150
 0.735000   25.692708   -54.464869
 0.740000   25.420360   -54.542755
 0.745000   25.147281   -54.730514
 0.750000   24.873055   -54.950875
 0.755000   24.597772   -55.148773
 0.760000   24.321567   -55.312004
 0.765000   24.044652   -55.426344
 0.770000   23.767304   -55.491578
 0.775000   23.489736   -55.490523
 0.780000   23.212399   -55.385885
 0.785000   22.935877   -55.190520
 0.790000   22.660494   -54.936153
 0.795000   22.386516   -54.633533
 0.800000   22.114158   -54.297611
 0.805000   21.843540   -53.937281
 0.810000   21.574785   -53.518005
 0.815000   21.308360   -53.009727
 0.820000   21.044688   -52.405873
 0.825000   20.784301   -51.687964
 0.830000   20.527808   -50.839421
 0.835000   20.275907   -49.869660
 0.840000   20.029112   -48.775026
 0.845000   19.788156   -47.532433
 0.850000   19.553788   -46.127953
 0.855000   19.326877   -44.535811
 0.860000   19.108429   -42.741709
 0.865000   18.899460   -40.784150
 0.870000   18.700588   -38.632005
 0.875000   18.513140   -36.304544
 0.880000   18.337543   -33.964021
 0.885000   18.173500   -31.801174
 0.890000   18.019531   -30.124867
 0.895000   17.872251   -29.562184
 0.900000   17.723909   -30.732698
 0.905000   17.564924   -34.501123
 0.910000   17.378898   -42.298908
 0.915000   17.141935   -55.776055
 0.920000   16.821137   -76.758945
 0.925000   16.374345   -106.907924
 0.930000   15.752058   -146.619311
 0.935000   14.908152   -194.325566
 0.940000   13.808802   -245.692096
 0.945000   12.451231   -292.983149
 0.950000   10.878971   -326.702279
 0.955000   9.184208   -338.696866
 0.960000   7.492002   -326.209912
 0.965000   5.922109   -292.822982
 0.970000   4.563772   -246.302861
 0.975000   3.459081   -195.811345
 0.980000   2.605659   -148.761637
 0.985000   1.971464   -109.368617
 0.990000   1.511973   -78.931801
 0.995000   1.182146   -56.852447
 1.000000   0.943448   -38.626836
201 psinorm omeg(kRad/s) domeg/dpsiN
 0.000000   80.306507   0.013132
 0.005000   80.306150   -0.155938
 0.010000   80.304947   -0.346023
 0.015000   80.302689   -0.580558
 0.020000   80.299142   -0.863497
 0.025000   80.294054   -1.197253
 0.030000   80.287169   -1.582660
 0.035000   80.278228   -2.018731
 0.040000   80.266982   -2.499700
 0.045000   80.253231   -3.021088
 0.050000   80.236771   -3.580207
 0.055000   80.217429   -4.170712
 0.060000   80.195064   -4.786118
 0.065000   80.169568   -5.420331
 0.070000   80.140860   -6.059539
 0.075000   80.108972   -6.707550
 0.080000   80.073785   -7.375038
 0.085000   80.035222   -8.053805
 0.090000   79.993247   -8.738952
 0.095000   79.947832   -9.430952
 0.100000   79.898937   -10.131533
 0.105000   79.846517   -10.866767
 0.110000   79.790270   -11.659630
 0.115000   79.729921   -12.503088
 0.120000   79.665239   -13.391580
 0.125000   79.596005   -14.322715
 0.130000   79.522012   -15.298600
 0.135000   79.443019   -16.322795
 0.140000   79.358784   -17.390145
 0.145000   79.269117   -18.492097
 0.150000   79.173863   -19.620561
 0.155000   79.072912   -20.765556
 0.160000   78.966207   -21.914452
 0.165000   78.853767   -23.052978
 0.170000   78.735677   -24.182306
 0.175000   78.611944   -25.310814
 0.180000   78.482569   -26.436571
 0.185000   78.347578   -27.551815
 0.190000   78.207051   -28.630117
 0.195000   78.061277   -29.635809
 0.200000   77.910693   -30.581292
 0.205000   77.755464   -31.480662
 0.210000   77.595886   -32.321415
 0.215000   77.432250   -33.105025
 0.220000   77.264836   -33.819698
 0.225000   77.094053   -34.440415
 0.230000   76.920432   -35.014860
 0.235000   76.743905   -35.572952
 0.240000   76.564703   -36.090336
 0.245000   76.383001   -36.579367
 0.250000   76.198909   -37.047708
 0.255000   76.012524   -37.500803
 0.260000   75.823901   -38.008619
 0.265000   75.632438   -38.598561
 0.270000   75.437915   -39.219727
 0.275000   75.240241   -39.840754
 0.280000   75.039508   -40.416909
 0.285000   74.836072   -40.885054
 0.290000   74.630657   -41.274191
 0.295000   74.423330   -41.636390
 0.300000   74.214293   -41.960987
 0.305000   74.003720   -42.254621
 0.310000   73.791747   -42.524590
 0.315000   73.578474   -42.757450
 0.320000   73.364173   -42.995718
 0.325000   73.148517   -43.273975
 0.330000   72.931433   -43.569805
 0.335000   72.712819   -43.889159
 0.340000   72.492541   -44.237943
 0.345000   72.270439   -44.635028
 0.350000   72.046191   -45.066501
 0.355000   71.819774   -45.474977
 0.360000   71.591441   -45.819339
 0.365000   71.361581   -46.076112
 0.370000   71.130680   -46.230796
 0.375000   70.899273   -46.248748
 0.380000   70.668193   -46.166267
 0.385000   70.437610   -46.110072
 0.390000   70.207092   -46.169471
 0.395000   69.975916   -46.393266
 0.400000   69.743159   -46.809544
 0.405000   69.507820   -47.493765
 0.410000   69.268221   -48.431996
 0.415000   69.023500   -49.491622
 0.420000   68.773305   -50.637529
 0.425000   68.517125   -51.873030
 0.430000   68.254575   -53.171095
 0.435000   67.985414   -54.591827
 0.440000   67.708657   -56.067787
 0.445000   67.424736   -57.384348
 0.450000   67.134813   -58.523052
 0.455000   66.839506   -59.519840
 0.460000   66.539615   -60.335521
 0.465000   66.236150   -60.936349
 0.470000   65.930251   -61.234785
 0.475000   65.623802   -61.237196
 0.480000   65.317879   -61.106233
 0.485000   65.012740   -60.942383
 0.490000   64.708456   -60.772958
 0.495000   64.405011   -60.619286
 0.500000   64.102263   -60.496555
 0.505000   63.800045   -60.370055
 0.510000   63.498562   -60.221173
 0.515000   63.197833   -60.068005
 0.520000   62.897882   -59.909804
 0.525000   62.598735   -59.756650
 0.530000   62.300316   -59.625424
 0.535000   62.002481   -59.471916
 0.540000   61.705596   -59.277841
 0.545000   61.409703   -59.077403
 0.550000   61.114822   -58.874072
 0.555000   60.820962   -58.673560
 0.560000   60.528087   -58.470435
 0.565000   60.236257   -58.220547
 0.570000   59.945881   -57.911096
 0.575000   59.657147   -57.568214
 0.580000   59.370199   -57.201054
 0.585000   59.085136   -56.816820
 0.590000   58.802031   -56.366216
 0.595000   58.521474   -55.912816
 0.600000   58.242903   -55.536269
 0.605000   57.966111   -55.207048
 0.610000   57.690832   -54.936940
 0.615000   57.416742   -54.737595
 0.620000   57.143456   -54.564163
 0.625000   56.871100   -54.509129
 0.630000   56.598365   -54.674168
 0.635000   56.324358   -55.039966
 0.640000   56.047965   -55.651392
 0.645000   55.767845   -56.549451
 0.650000   55.482471   -57.805345
 0.655000   55.189791   -59.276782
 0.660000   54.889703   -60.708710
 0.665000   54.582704   -62.034500
 0.670000   54.269358   -63.249352
 0.675000   53.950210   -64.374117
 0.680000   53.625617   -65.455714
 0.685000   53.295653   -66.576259
 0.690000   52.959854   -67.781184
 0.695000   52.617841   -69.056421
 0.700000   52.269290   -70.395053
 0.705000   51.913891   -71.793611
 0.710000   51.551354   -73.271869
 0.715000   51.181172   -74.828391
 0.720000   50.803070   -76.417023
 0.725000   50.417002   -78.037065
 0.730000   50.022699   -79.754327
 0.735000   49.619459   -81.671907
 0.740000   49.205980   -84.063654
 0.745000   48.778822   -87.034612
 0.750000   48.335634   -90.192606
 0.755000   47.876896   -93.294603
 0.760000   47.402688   -96.334981
 0.765000   46.913546   -99.223997
 0.770000   46.410448   -101.982719
 0.775000   45.893719   -104.518373
 0.780000   45.365265   -106.556943
 0.785000   44.828150   -108.231967
 0.790000   44.282945   -109.842270
 0.795000   43.729727   -111.454523
 0.800000   43.168400   -113.212943
 0.805000   42.597598   -115.215776
 0.810000   42.016242   -116.832333
 0.815000   41.429274   -117.673582
 0.820000   40.839506   -117.927477
 0.825000   40.249999   -117.602492
 0.830000   39.663481   -116.911833
 0.835000   39.080881   -116.466983
 0.840000   38.498811   -116.544734
 0.845000   37.915434   -117.398251
 0.850000   37.324829   -119.620627
 0.855000   36.719228   -123.646332
 0.860000   36.088365   -130.125354
 0.865000   35.417974   -140.272299
 0.870000   34.685643   -154.182283
 0.875000   33.876151   -171.974507
 0.880000   32.965897   -194.619437
 0.885000   31.929957   -222.116638
 0.890000   30.744731   -253.864648
 0.895000   29.391310   -289.092090
 0.900000   27.853810   -324.672060
 0.905000   26.144590   -356.898061
 0.910000   24.284830   -383.052142
 0.915000   22.314068   -399.595857
 0.920000   20.288871   -403.580765
 0.925000   18.278261   -392.484496
 0.930000   16.364026   -366.748177
 0.935000   14.610779   -329.604651
 0.940000   13.067980   -284.551765
 0.945000   11.765261   -235.727176
 0.950000   10.710708   -187.232219
 0.955000   9.892939   -142.044655
 0.960000   9.290261   -103.215160
 0.965000   8.860787   -72.540752
 0.970000   8.564854   -49.653036
 0.975000   8.364257   -34.074840
 0.980000   8.224105   -24.918420
 0.985000   8.115073   -20.865128
 0.990000   8.015454   -20.672333
 0.995000   7.908350   -23.315955
 1.000000   7.782294   -27.106085
201 psinorm omegp(kRad/s) domegp/dpsiN
 0.000000   0.014153   111.161951
 0.005000   0.459168   66.843783
 0.010000   0.682591   42.309883
 0.015000   0.882266   38.982122
 0.020000   1.072412   37.311541
 0.025000   1.255382   35.720727
 0.030000   1.429620   33.696596
 0.035000   1.592348   31.655546
 0.040000   1.746175   29.785760
 0.045000   1.890205   27.915235
 0.050000   2.025327   26.322115
 0.055000   2.153427   25.108847
 0.060000   2.276416   24.233211
 0.065000   2.395759   23.619203
 0.070000   2.512608   23.316419
 0.075000   2.628923   23.261224
 0.080000   2.745220   23.316635
 0.085000   2.862089   23.645459
 0.090000   2.981675   24.221957
 0.095000   3.104309   24.767486
 0.100000   3.229350   25.135750
 0.105000   3.355666   25.375889
 0.110000   3.483109   25.445594
 0.115000   3.610122   25.246482
 0.120000   3.735573   24.683047
 0.125000   3.856953   23.761222
 0.130000   3.973186   22.440010
 0.135000   4.081353   20.800376
 0.140000   4.181189   18.960201
 0.145000   4.270955   16.938499
 0.150000   4.350574   14.792464
 0.155000   4.418879   12.694847
 0.160000   4.477523   10.645327
 0.165000   4.525333   8.569041
 0.170000   4.563213   6.588650
 0.175000   4.591219   4.632410
 0.180000   4.609537   2.939865
 0.185000   4.620618   1.445081
 0.190000   4.623988   0.040281
 0.195000   4.621021   -1.300446
 0.200000   4.610984   -2.779608
 0.205000   4.593225   -4.312671
 0.210000   4.567857   -5.975823
 0.215000   4.533466   -7.657882
 0.220000   4.491278   -9.318327
 0.225000   4.440283   -11.034257
 0.230000   4.380936   -12.568748
 0.235000   4.314596   -14.008328
 0.240000   4.240852   -15.394585
 0.245000   4.160650   -16.643770
 0.250000   4.074415   -17.951729
 0.255000   3.981133   -19.288627
 0.260000   3.881528   -20.702694
 0.265000   3.774106   -22.365648
 0.270000   3.657872   -24.118260
 0.275000   3.532923   -26.028598
 0.280000   3.397586   -28.187838
 0.285000   3.251045   -30.422842
 0.290000   3.093357   -32.816179
 0.295000   2.922883   -35.331855
 0.300000   2.740039   -37.601493
 0.305000   2.546868   -39.603987
 0.310000   2.343999   -41.380952
 0.315000   2.133058   -42.845553
 0.320000   1.915543   -44.125299
 0.325000   1.691805   -45.423146
 0.330000   1.461312   -46.855578
 0.335000   1.223250   -48.465183
 0.340000   0.976660   -50.282940
 0.345000   0.720420   -52.309018
 0.350000   0.453570   -54.665381
 0.355000   0.173766   -57.331971
 0.360000   -0.119750   -60.017382
 0.365000   -0.426407   -62.497706
 0.370000   -0.744727   -64.570133
 0.375000   -1.072109   -66.029052
 0.380000   -1.405017   -66.677553
 0.385000   -1.738884   -67.076980
 0.390000   -2.075787   -68.107759
 0.395000   -2.419962   -70.050265
 0.400000   -2.776290   -72.960832
 0.405000   -3.149570   -76.831235
 0.410000   -3.544602   -82.319855
 0.415000   -3.972769   -88.463745
 0.420000   -4.429240   -94.022162
 0.425000   -4.912990   -99.190221
 0.430000   -5.421142   -103.391067
 0.435000   -5.946901   -106.003998
 0.440000   -6.481182   -106.214642
 0.445000   -7.009047   -103.195585
 0.450000   -7.513138   -97.156010
 0.455000   -7.980608   -88.925889
 0.460000   -8.402396   -79.327390
 0.465000   -8.773881   -68.601827
 0.470000   -9.088415   -57.068235
 0.475000   -9.344564   -46.495262
 0.480000   -9.553367   -37.683579
 0.485000   -9.721400   -30.174443
 0.490000   -9.855112   -24.051976
 0.495000   -9.961919   -19.517817
 0.500000   -10.050290   -16.545854
 0.505000   -10.127378   -14.650314
 0.510000   -10.196793   -13.268203
 0.515000   -10.260060   -12.017846
 0.520000   -10.316972   -10.613599
 0.525000   -10.366196   -9.034926
 0.530000   -10.407321   -7.407070
 0.535000   -10.440267   -5.511544
 0.540000   -10.462436   -3.297501
 0.545000   -10.473242   -1.010218
 0.550000   -10.472538   1.288695
 0.555000   -10.460355   3.620155
 0.560000   -10.436337   5.921579
 0.565000   -10.401139   7.930626
 0.570000   -10.357031   9.684495
 0.575000   -10.304294   11.262514
 0.580000   -10.244405   12.547561
 0.585000   -10.178818   13.454966
 0.590000   -10.109856   14.134206
 0.595000   -10.037476   14.749942
 0.600000   -9.962356   15.194327
 0.605000   -9.885533   15.528726
 0.610000   -9.807069   15.882877
 0.615000   -9.726704   16.253454
 0.620000   -9.644535   16.520262
 0.625000   -9.561502   16.725082
 0.630000   -9.477284   16.910882
 0.635000   -9.392393   17.004578
 0.640000   -9.307238   16.989488
 0.645000   -9.222498   16.906266
 0.650000   -9.138175   16.806871
 0.655000   -9.054429   16.652947
 0.660000   -8.971646   16.446398
 0.665000   -8.889965   16.236210
 0.670000   -8.809284   16.027567
 0.675000   -8.729690   15.768501
 0.680000   -8.651599   15.403201
 0.685000   -8.575658   14.915279
 0.690000   -8.502446   14.287878
 0.695000   -8.432779   13.474609
 0.700000   -8.367700   12.480021
 0.705000   -8.307979   11.314564
 0.710000   -8.254554   9.965614
 0.715000   -8.208322   8.471172
 0.720000   -8.169843   6.885559
 0.725000   -8.139467   5.254526
 0.730000   -8.117297   3.614528
 0.735000   -8.103322   2.000526
 0.740000   -8.097292   0.441114
 0.745000   -8.098910   -1.153185
 0.750000   -8.108824   -2.935381
 0.755000   -8.128264   -5.077450
 0.760000   -8.159598   -7.954418
 0.765000   -8.207808   -11.782257
 0.770000   -8.277421   -16.578717
 0.775000   -8.373596   -22.390810
 0.780000   -8.501329   -29.170544
 0.785000   -8.665301   -36.752181
 0.790000   -8.868851   -45.009660
 0.795000   -9.115398   -52.998565
 0.800000   -9.398836   -59.807064
 0.805000   -9.713468   -65.254449
 0.810000   -10.051381   -69.023470
 0.815000   -10.403703   -70.670740
 0.820000   -10.758088   -69.452429
 0.825000   -11.098227   -66.091704
 0.830000   -11.419005   -61.877922
 0.835000   -11.717006   -56.833109
 0.840000   -11.987337   -51.319135
 0.845000   -12.230198   -46.148840
 0.850000   -12.448825   -42.536448
 0.855000   -12.655562   -40.926090
 0.860000   -12.858086   -40.560517
 0.865000   -13.061167   -40.977887
 0.870000   -13.267865   -42.147326
 0.875000   -13.482641   -43.313112
 0.880000   -13.700996   -43.981036
 0.885000   -13.922451   -43.600821
 0.890000   -14.137004   -41.230374
 0.895000   -14.334755   -35.733694
 0.900000   -14.494341   -25.906297
 0.905000   -14.593818   -10.959043
 0.910000   -14.603931   10.660860
 0.915000   -14.487209   36.517495
 0.920000   -14.238756   64.250356
 0.925000   -13.844706   95.347049
 0.930000   -13.285286   129.166150
 0.935000   -12.553044   155.550236
 0.940000   -11.729784   166.553229
 0.945000   -10.887512   161.845195
 0.950000   -10.111332   141.873336
 0.955000   -9.468778   111.457069
 0.960000   -8.996761   85.525681
 0.965000   -8.613522   87.330789
 0.970000   -8.123453   132.989685
 0.975000   -7.283625   228.553559
 0.980000   -5.837917   356.071201
 0.985000   -3.722913   474.611922
 0.990000   -1.091798   545.368697
 0.995000   1.730774   540.839206
 1.000000   4.316594   493.488668
201 psinorm omgvb(kRad/s) domgvb/dpsiN
 0.000000   80.320660   111.175084
 0.005000   80.765317   66.687845
 0.010000   80.987538   41.963859
 0.015000   81.184956   38.401564
 0.020000   81.371554   36.448044
 0.025000   81.549436   34.523475
 0.030000   81.716789   32.113936
 0.035000   81.870576   29.636816
 0.040000   82.013157   27.286060
 0.045000   82.143436   24.894147
 0.050000   82.262098   22.741908
 0.055000   82.370855   20.938135
 0.060000   82.471480   19.447093
 0.065000   82.565326   18.198872
 0.070000   82.653468   17.256880
 0.075000   82.737895   16.553673
 0.080000   82.819005   15.941598
 0.085000   82.897311   15.591654
 0.090000   82.974922   15.483005
 0.095000   83.052141   15.336534
 0.100000   83.128287   15.004217
 0.105000   83.202183   14.509122
 0.110000   83.273378   13.785964
 0.115000   83.340043   12.743395
 0.120000   83.400812   11.291467
 0.125000   83.452958   9.438507
 0.130000   83.495197   7.141410
 0.135000   83.524372   4.477581
 0.140000   83.539973   1.570056
 0.145000   83.540072   -1.553598
 0.150000   83.524437   -4.828097
 0.155000   83.491791   -8.070710
 0.160000   83.443730   -11.269125
 0.165000   83.379100   -14.483937
 0.170000   83.298891   -17.593656
 0.175000   83.203163   -20.678404
 0.180000   83.092107   -23.496706
 0.185000   82.968196   -26.106735
 0.190000   82.831039   -28.589836
 0.195000   82.682298   -30.936255
 0.200000   82.521677   -33.360899
 0.205000   82.348689   -35.793333
 0.210000   82.163743   -38.297238
 0.215000   81.965717   -40.762908
 0.220000   81.756114   -43.138025
 0.225000   81.534336   -45.474672
 0.230000   81.301368   -47.583608
 0.235000   81.058500   -49.581279
 0.240000   80.805555   -51.484921
 0.245000   80.543651   -53.223138
 0.250000   80.273323   -54.999437
 0.255000   79.993657   -56.789430
 0.260000   79.705429   -58.711314
 0.265000   79.406544   -60.964209
 0.270000   79.095787   -63.337987
 0.275000   78.773164   -65.869351
 0.280000   78.437093   -68.604747
 0.285000   78.087116   -71.307896
 0.290000   77.724015   -74.090370
 0.295000   77.346213   -76.968244
 0.300000   76.954332   -79.562481
 0.305000   76.550588   -81.858608
 0.310000   76.135746   -83.905543
 0.315000   75.711532   -85.603003
 0.320000   75.279716   -87.121017
 0.325000   74.840322   -88.697121
 0.330000   74.392745   -90.425383
 0.335000   73.936068   -92.354342
 0.340000   73.469201   -94.520883
 0.345000   72.990859   -96.944046
 0.350000   72.499761   -99.731882
 0.355000   71.993541   -102.806948
 0.360000   71.471691   -105.836721
 0.365000   70.935173   -108.573818
 0.370000   70.385953   -110.800929
 0.375000   69.827164   -112.277800
 0.380000   69.263175   -112.843820
 0.385000   68.698726   -113.187052
 0.390000   68.131305   -114.277229
 0.395000   67.555954   -116.443532
 0.400000   66.966869   -119.770376
 0.405000   66.358250   -124.325000
 0.410000   65.723619   -130.751851
 0.415000   65.050731   -137.955367
 0.420000   64.344066   -144.659691
 0.425000   63.604134   -151.063251
 0.430000   62.833433   -156.562162
 0.435000   62.038513   -160.595825
 0.440000   61.227475   -162.282429
 0.445000   60.415689   -160.579933
 0.450000   59.621676   -155.679063
 0.455000   58.858898   -148.445730
 0.460000   58.137218   -139.662911
 0.465000   57.462269   -129.538176
 0.470000   56.841837   -118.303021
 0.475000   56.279239   -107.732458
 0.480000   55.764512   -98.789812
 0.485000   55.291340   -91.116825
 0.490000   54.853344   -84.824934
 0.495000   54.443091   -80.137102
 0.500000   54.051973   -77.042409
 0.505000   53.672667   -75.020368
 0.510000   53.301769   -73.489376
 0.515000   52.937773   -72.085851
 0.520000   52.580911   -70.523403
 0.525000   52.232539   -68.791576
 0.530000   51.892995   -67.032494
 0.535000   51.562214   -64.983460
 0.540000   51.243160   -62.575342
 0.545000   50.936461   -60.087621
 0.550000   50.642284   -57.585377
 0.555000   50.360607   -55.053404
 0.560000   50.091750   -52.548855
 0.565000   49.835119   -50.289921
 0.570000   49.588851   -48.226601
 0.575000   49.352853   -46.305700
 0.580000   49.125794   -44.653493
 0.585000   48.906318   -43.361854
 0.590000   48.692175   -42.232010
 0.595000   48.483998   -41.162874
 0.600000   48.280546   -40.341942
 0.605000   48.080578   -39.678322
 0.610000   47.883763   -39.054063
 0.615000   47.690037   -38.484140
 0.620000   47.498922   -38.043901
 0.625000   47.309598   -37.784047
 0.630000   47.121081   -37.763286
 0.635000   46.931966   -38.035388
 0.640000   46.740727   -38.661903
 0.645000   46.545347   -39.643185
 0.650000   46.344296   -40.998474
 0.655000   46.135362   -42.623835
 0.660000   45.918057   -44.262312
 0.665000   45.692739   -45.798291
 0.670000   45.460074   -47.221785
 0.675000   45.220521   -48.605616
 0.680000   44.974018   -50.052513
 0.685000   44.719996   -51.660980
 0.690000   44.457408   -53.493306
 0.695000   44.185063   -55.581812
 0.700000   43.901590   -57.915032
 0.705000   43.605912   -60.479047
 0.710000   43.296800   -63.306255
 0.715000   42.972850   -66.357218
 0.720000   42.633228   -69.531464
 0.725000   42.277535   -72.782539
 0.730000   41.905402   -76.139799
 0.735000   41.516137   -79.671382
 0.740000   41.108688   -83.622540
 0.745000   40.679912   -88.187797
 0.750000   40.226810   -93.127987
 0.755000   39.748632   -98.372053
 0.760000   39.243090   -104.289399
 0.765000   38.705738   -111.006255
 0.770000   38.133027   -118.561437
 0.775000   37.520124   -126.909183
 0.780000   36.863936   -135.727487
 0.785000   36.162849   -144.984148
 0.790000   35.414094   -154.851930
 0.795000   34.614329   -164.453088
 0.800000   33.769563   -173.020006
 0.805000   32.884129   -180.470225
 0.810000   31.964861   -185.855803
 0.815000   31.025571   -188.344322
 0.820000   30.081418   -187.379905
 0.825000   29.151772   -183.694195
 0.830000   28.244476   -178.789755
 0.835000   27.363875   -173.300092
 0.840000   26.511475   -167.863870
 0.845000   25.685236   -163.547092
 0.850000   24.876004   -162.157075
 0.855000   24.063665   -164.572421
 0.860000   23.230280   -170.685871
 0.865000   22.356807   -181.250187
 0.870000   21.417778   -196.329609
 0.875000   20.393510   -215.287620
 0.880000   19.264902   -238.600473
 0.885000   18.007506   -265.717459
 0.890000   16.607727   -295.095023
 0.895000   15.056556   -324.825784
 0.900000   13.359469   -350.578357
 0.905000   11.550772   -367.857103
 0.910000   9.680898   -372.391282
 0.915000   7.826859   -363.078362
 0.920000   6.050115   -339.330409
 0.925000   4.433555   -297.137446
 0.930000   3.078740   -237.582027
 0.935000   2.057735   -174.054415
 0.940000   1.338196   -117.998536
 0.945000   0.877749   -73.881981
 0.950000   0.599376   -45.358883
 0.955000   0.424161   -30.587586
 0.960000   0.293500   -17.689479
 0.965000   0.247266   14.790037
 0.970000   0.441401   83.336649
 0.975000   1.080632   194.478719
 0.980000   2.386188   331.152780
 0.985000   4.392160   453.746795
 0.990000   6.923656   524.696365
 0.995000   9.639124   517.523251
 1.000000   12.098888   466.382583
201 psinorm omgpp(kRad/s) domgpp/dpsiN
 0.000000   -0.052629   -26.335525
 0.005000   -0.214368   -38.360037
 0.010000   -0.436230   -45.070515
 0.015000   -0.665074   -46.377670
 0.020000   -0.900007   -47.462018
 0.025000   -1.139694   -48.245193
 0.030000   -1.382458   -48.732126
 0.035000   -1.627015   -48.913981
 0.040000   -1.871598   -48.755538
 0.045000   -2.114570   -48.282049
 0.050000   -2.354419   -47.451572
 0.055000   -2.589086   -46.303924
 0.060000   -2.817458   -45.212466
 0.065000   -3.041211   -44.107453
 0.070000   -3.258533   -42.791438
 0.075000   -3.469125   -41.430614
 0.080000   -3.672839   -40.002606
 0.085000   -3.869151   -38.468562
 0.090000   -4.057524   -37.052481
 0.095000   -4.239676   -35.641143
 0.100000   -4.413936   -34.049018
 0.105000   -4.580166   -32.415871
 0.110000   -4.738094   -30.691485
 0.115000   -4.887081   -28.666723
 0.120000   -5.024762   -26.412455
 0.125000   -5.151206   -24.052035
 0.130000   -5.265282   -21.541785
 0.135000   -5.366623   -18.968618
 0.140000   -5.454968   -16.340694
 0.145000   -5.530030   -13.314061
 0.150000   -5.588109   -10.643272
 0.155000   -5.636463   -8.438922
 0.160000   -5.672498   -6.036905
 0.165000   -5.696832   -3.796132
 0.170000   -5.710459   -1.796320
 0.175000   -5.714795   -0.074391
 0.180000   -5.711203   0.826882
 0.185000   -5.706526   1.364270
 0.190000   -5.697561   2.152344
 0.195000   -5.685003   2.796155
 0.200000   -5.669599   3.303357
 0.205000   -5.651969   3.191768
 0.210000   -5.637681   3.380110
 0.215000   -5.618168   4.422793
 0.220000   -5.593453   5.485445
 0.225000   -5.563314   6.685155
 0.230000   -5.526602   8.110491
 0.235000   -5.482209   9.321963
 0.240000   -5.433382   11.191516
 0.245000   -5.370294   13.857804
 0.250000   -5.294804   16.174063
 0.255000   -5.208553   18.325551
 0.260000   -5.111549   20.454680
 0.265000   -5.004006   22.668207
 0.270000   -4.884867   25.072531
 0.275000   -4.753281   27.163759
 0.280000   -4.613229   28.562922
 0.285000   -4.467652   29.362289
 0.290000   -4.319606   29.573377
 0.295000   -4.171918   29.418271
 0.300000   -4.025423   28.744455
 0.305000   -3.884474   27.594385
 0.310000   -3.749480   26.554242
 0.315000   -3.618931   25.678081
 0.320000   -3.492699   24.843061
 0.325000   -3.370501   23.927036
 0.330000   -3.253428   22.965647
 0.335000   -3.140844   22.464567
 0.340000   -3.028783   22.237365
 0.345000   -2.918470   21.957458
 0.350000   -2.809208   21.835791
 0.355000   -2.700113   21.885225
 0.360000   -2.590356   22.339095
 0.365000   -2.476722   23.102220
 0.370000   -2.359334   23.541453
 0.375000   -2.241307   23.533665
 0.380000   -2.123997   23.238511
 0.385000   -2.008922   22.699424
 0.390000   -1.897003   22.007844
 0.395000   -1.788844   20.667585
 0.400000   -1.690327   19.041794
 0.405000   -1.598426   17.731279
 0.410000   -1.513014   16.441585
 0.415000   -1.434010   15.193925
 0.420000   -1.361075   14.152513
 0.425000   -1.292485   12.696238
 0.430000   -1.234113   10.938190
 0.435000   -1.183103   9.435955
 0.440000   -1.139753   7.865028
 0.445000   -1.104452   6.210773
 0.450000   -1.077645   4.426717
 0.455000   -1.060185   2.493902
 0.460000   -1.052706   0.782415
 0.465000   -1.052361   -0.547912
 0.470000   -1.058185   -1.729444
 0.475000   -1.069656   -2.842770
 0.480000   -1.086613   -3.952764
 0.485000   -1.109183   -5.029319
 0.490000   -1.136906   -6.004124
 0.495000   -1.169224   -6.870547
 0.500000   -1.205612   -7.633975
 0.505000   -1.245564   -8.303808
 0.510000   -1.288650   -8.838404
 0.515000   -1.333948   -9.345970
 0.520000   -1.382109   -9.902145
 0.525000   -1.432970   -10.430971
 0.530000   -1.486419   -10.958064
 0.535000   -1.542550   -11.506913
 0.540000   -1.601488   -12.074253
 0.545000   -1.663293   -12.657552
 0.550000   -1.728064   -13.168049
 0.555000   -1.794973   -13.554128
 0.560000   -1.863605   -13.877838
 0.565000   -1.933752   -14.168368
 0.570000   -2.005289   -14.491787
 0.575000   -2.078670   -14.833760
 0.580000   -2.153626   -15.078600
 0.585000   -2.229456   -15.252088
 0.590000   -2.306147   -15.399479
 0.595000   -2.383450   -15.493446
 0.600000   -2.461082   -15.648384
 0.605000   -2.539934   -15.745164
 0.610000   -2.618533   -15.481256
 0.615000   -2.694747   -15.063238
 0.620000   -2.769166   -14.648467
 0.625000   -2.841231   -14.126792
 0.630000   -2.910434   -13.604892
 0.635000   -2.977280   -13.053931
 0.640000   -3.040973   -12.268950
 0.645000   -3.099970   -11.663449
 0.650000   -3.157607   -11.660766
 0.655000   -3.216578   -12.202649
 0.660000   -3.279634   -13.581400
 0.665000   -3.352392   -15.980568
 0.670000   -3.439440   -17.189502
 0.675000   -3.524287   -17.168635
 0.680000   -3.611126   -17.335158
 0.685000   -3.697638   -16.986403
 0.690000   -3.780990   -16.343999
 0.695000   -3.861078   -15.812856
 0.700000   -3.939119   -12.734565
 0.705000   -3.988424   -7.959870
 0.710000   -4.018717   -3.886619
 0.715000   -4.027290   0.676451
 0.720000   -4.011953   5.604654
 0.725000   -3.971243   11.288155
 0.730000   -3.899071   16.723826
 0.735000   -3.804005   20.696200
 0.740000   -3.692109   23.711965
 0.745000   -3.566886   25.992461
 0.750000   -3.432185   27.485142
 0.755000   -3.292034   29.139211
 0.760000   -3.140793   28.543598
 0.765000   -3.006598   26.025149
 0.770000   -2.880541   24.256474
 0.775000   -2.764033   22.222712
 0.780000   -2.658314   19.971150
 0.785000   -2.564322   17.237306
 0.790000   -2.485941   14.294281
 0.795000   -2.421379   12.229836
 0.800000   -2.363642   10.998525
 0.805000   -2.311394   9.963337
 0.810000   -2.264009   9.009711
 0.815000   -2.221297   7.738675
 0.820000   -2.186622   6.952809
 0.825000   -2.151769   6.626303
 0.830000   -2.120359   5.532542
 0.835000   -2.096443   3.745423
 0.840000   -2.082905   1.378330
 0.845000   -2.082660   -2.123407
 0.850000   -2.104139   -5.951245
 0.855000   -2.142172   -9.206979
 0.860000   -2.196209   -12.759885
 0.865000   -2.269771   -16.873375
 0.870000   -2.364943   -21.507824
 0.875000   -2.484849   -28.331566
 0.880000   -2.648258   -36.654724
 0.885000   -2.851397   -44.170960
 0.890000   -3.089968   -53.190397
 0.895000   -3.383301   -65.557091
 0.900000   -3.745539   -81.189907
 0.905000   -4.195200   -104.412320
 0.910000   -4.789662   -135.879211
 0.915000   -5.553992   -169.774534
 0.920000   -6.487407   -213.382251
 0.925000   -7.687814   -275.091699
 0.930000   -9.238324   -354.157825
 0.935000   -11.229393   -459.376695
 0.940000   -13.832091   -585.824699
 0.945000   -17.087640   -677.839919
 0.950000   -20.610491   -713.908738
 0.955000   -24.226727   -693.455590
 0.960000   -27.545046   -582.419691
 0.965000   -30.050924   -377.855623
 0.970000   -31.323603   -96.122307
 0.975000   -31.012147   220.308317
 0.980000   -29.120519   482.440550
 0.985000   -26.187741   643.455327
 0.990000   -22.685966   710.410857
 0.995000   -19.083633   697.609420
 1.000000   -15.709872   651.894913
201 psinorm omgeb(kRad/s) domgeb/dpsiN
 0.000000   80.268030   84.839558
 0.005000   80.550949   28.327808
 0.010000   80.551309   -3.106656
 0.015000   80.519882   -7.976107
 0.020000   80.471547   -11.013974
 0.025000   80.409743   -13.721718
 0.030000   80.334330   -16.618190
 0.035000   80.243561   -19.277165
 0.040000   80.141559   -21.469478
 0.045000   80.028866   -23.387902
 0.050000   79.907680   -24.709665
 0.055000   79.781769   -25.365788
 0.060000   79.654022   -25.765373
 0.065000   79.524115   -25.908581
 0.070000   79.394936   -25.534558
 0.075000   79.268770   -24.876941
 0.080000   79.146166   -24.061008
 0.085000   79.028160   -22.876908
 0.090000   78.917397   -21.569476
 0.095000   78.812465   -20.304609
 0.100000   78.714351   -19.044801
 0.105000   78.622017   -17.906750
 0.110000   78.535284   -16.905521
 0.115000   78.452962   -15.923328
 0.120000   78.376051   -15.120989
 0.125000   78.301752   -14.613528
 0.130000   78.229915   -14.400375
 0.135000   78.157748   -14.491037
 0.140000   78.085005   -14.770638
 0.145000   78.010042   -14.867659
 0.150000   77.936328   -15.471369
 0.155000   77.855328   -16.509632
 0.160000   77.771232   -17.306030
 0.165000   77.682268   -18.280069
 0.170000   77.588431   -19.389976
 0.175000   77.488368   -20.752795
 0.180000   77.380903   -22.669824
 0.185000   77.261670   -24.742465
 0.190000   77.133479   -26.437492
 0.195000   76.997295   -28.140100
 0.200000   76.852078   -30.057542
 0.205000   76.696720   -32.601565
 0.210000   76.526062   -34.917128
 0.215000   76.347548   -36.340115
 0.220000   76.162661   -37.652579
 0.225000   75.971022   -38.789517
 0.230000   75.774766   -39.473117
 0.235000   75.576291   -40.259316
 0.240000   75.372173   -40.293405
 0.245000   75.173357   -39.365334
 0.250000   74.978519   -38.825374
 0.255000   74.785103   -38.463879
 0.260000   74.593880   -38.256634
 0.265000   74.402537   -38.296002
 0.270000   74.210920   -38.265456
 0.275000   74.019883   -38.705592
 0.280000   73.823864   -40.041826
 0.285000   73.619464   -41.945607
 0.290000   73.404408   -44.516993
 0.295000   73.174294   -47.549974
 0.300000   72.928909   -50.818026
 0.305000   72.666114   -54.264223
 0.310000   72.386266   -57.351301
 0.315000   72.092601   -59.924922
 0.320000   71.787017   -62.277957
 0.325000   71.469822   -64.770085
 0.330000   71.139316   -67.459736
 0.335000   70.795224   -69.889775
 0.340000   70.440419   -72.283518
 0.345000   70.072389   -74.986588
 0.350000   69.690553   -77.896091
 0.355000   69.293428   -80.921723
 0.360000   68.881336   -83.497626
 0.365000   68.458452   -85.471598
 0.370000   68.026620   -87.259476
 0.375000   67.585857   -88.744135
 0.380000   67.139178   -89.605309
 0.385000   66.689804   -90.487628
 0.390000   66.234302   -92.269385
 0.395000   65.767110   -95.775947
 0.400000   65.276542   -100.728582
 0.405000   64.759824   -106.593721
 0.410000   64.210605   -114.310267
 0.415000   63.616722   -122.761442
 0.420000   62.982991   -130.507179
 0.425000   62.311650   -138.367013
 0.430000   61.599321   -145.623972
 0.435000   60.855410   -151.159870
 0.440000   60.087722   -154.417401
 0.445000   59.311236   -154.369160
 0.450000   58.544030   -151.252346
 0.455000   57.798713   -145.951827
 0.460000   57.084512   -138.880497
 0.465000   56.409908   -130.086089
 0.470000   55.783651   -120.032465
 0.475000   55.209583   -110.575229
 0.480000   54.677899   -102.742576
 0.485000   54.182157   -96.146144
 0.490000   53.716437   -90.829057
 0.495000   53.273867   -87.007649
 0.500000   52.846361   -84.676384
 0.505000   52.427103   -83.324176
 0.510000   52.013119   -82.327780
 0.515000   51.603825   -81.431820
 0.520000   51.198801   -80.425548
 0.525000   50.799570   -79.222547
 0.530000   50.406576   -77.990558
 0.535000   50.019664   -76.490374
 0.540000   49.641672   -74.649596
 0.545000   49.273168   -72.745173
 0.550000   48.914220   -70.753426
 0.555000   48.565634   -68.607532
 0.560000   48.228145   -66.426694
 0.565000   47.901367   -64.458289
 0.570000   47.583562   -62.718389
 0.575000   47.274183   -61.139460
 0.580000   46.972167   -59.732093
 0.585000   46.676862   -58.613942
 0.590000   46.386028   -57.631488
 0.595000   46.100547   -56.656320
 0.600000   45.819465   -55.990326
 0.605000   45.540644   -55.423486
 0.610000   45.265230   -54.535320
 0.615000   44.995291   -53.547378
 0.620000   44.729756   -52.692368
 0.625000   44.468367   -51.910840
 0.630000   44.210648   -51.368178
 0.635000   43.954685   -51.089319
 0.640000   43.699754   -50.930853
 0.645000   43.445377   -51.306634
 0.650000   43.186688   -52.659240
 0.655000   42.918784   -54.826484
 0.660000   42.638423   -57.843713
 0.665000   42.340347   -61.778859
 0.670000   42.020635   -64.411287
 0.675000   41.696234   -65.774251
 0.680000   41.362892   -67.387671
 0.685000   41.022358   -68.647383
 0.690000   40.676418   -69.837305
 0.695000   40.323985   -71.394668
 0.700000   39.962472   -70.649597
 0.705000   39.617489   -68.438916
 0.710000   39.278082   -67.192874
 0.715000   38.945560   -65.680767
 0.720000   38.621275   -63.926810
 0.725000   38.306292   -61.494385
 0.730000   38.006331   -59.415973
 0.735000   37.712132   -58.975182
 0.740000   37.416579   -59.910575
 0.745000   37.113026   -62.195336
 0.750000   36.794626   -65.642845
 0.755000   36.456598   -69.232842
 0.760000   36.102297   -75.745800
 0.765000   35.699140   -84.981105
 0.770000   35.252486   -94.304963
 0.775000   34.756090   -104.686471
 0.780000   34.205622   -115.756337
 0.785000   33.598527   -127.746843
 0.790000   32.928153   -140.557649
 0.795000   32.192950   -152.223252
 0.800000   31.405921   -162.021481
 0.805000   30.572736   -170.506888
 0.810000   29.700852   -176.846092
 0.815000   28.804275   -180.605647
 0.820000   27.894795   -180.427096
 0.825000   27.000004   -177.067892
 0.830000   26.124116   -173.257213
 0.835000   25.267432   -169.554669
 0.840000   24.428570   -166.485539
 0.845000   23.602576   -165.670498
 0.850000   22.771865   -168.108321
 0.855000   21.921493   -173.779400
 0.860000   21.034071   -183.445755
 0.865000   20.087035   -198.123561
 0.870000   19.052835   -217.837433
 0.875000   17.908661   -243.619186
 0.880000   16.616643   -275.255197
 0.885000   15.156109   -309.888419
 0.890000   13.517759   -348.285419
 0.895000   11.673255   -390.382875
 0.900000   9.613930   -431.768264
 0.905000   7.355572   -472.269423
 0.910000   4.891236   -508.270494
 0.915000   2.272867   -532.852896
 0.920000   -0.437293   -552.712660
 0.925000   -3.254259   -572.229145
 0.930000   -6.159584   -591.739852
 0.935000   -9.171658   -633.431110
 0.940000   -12.493895   -703.823235
 0.945000   -16.209890   -751.721900
 0.950000   -20.011114   -759.267622
 0.955000   -23.802566   -724.043176
 0.960000   -27.251546   -600.109170
 0.965000   -29.803658   -363.065585
 0.970000   -30.882202   -12.785658
 0.975000   -29.931515   414.787037
 0.980000   -26.734332   813.593330
 0.985000   -21.795581   1097.202122
 0.990000   -15.762310   1235.107222
 0.995000   -9.444509   1215.132671
 1.000000   -3.610984   1118.277496
201 psinorm er(kV/m) der/dpsiN
 0.000000   0.965604   1433.131581
 0.005000   6.700901   860.987604
 0.010000   9.575480   509.073674
 0.015000   11.791638   406.225828
 0.020000   13.637738   347.726314
 0.025000   15.268901   310.153059
 0.030000   16.739268   281.305567
 0.035000   18.081957   258.293741
 0.040000   19.322206   239.351724
 0.045000   20.475474   224.431019
 0.050000   21.566516   212.105159
 0.055000   22.596526   199.678503
 0.060000   23.563301   187.303584
 0.065000   24.469562   180.480827
 0.070000   25.368109   173.855830
 0.075000   26.208120   163.036688
 0.080000   26.998476   158.873766
 0.085000   27.796858   153.389154
 0.090000   28.532368   147.273392
 0.095000   29.269592   143.760285
 0.100000   29.969971   137.368556
 0.105000   30.643277   134.937634
 0.110000   31.319347   129.710354
 0.115000   31.940381   127.016264
 0.120000   32.589510   123.010477
 0.125000   33.170485   119.734717
 0.130000   33.786857   116.731474
 0.135000   34.337800   112.715405
 0.140000   34.914011   110.688094
 0.145000   35.444681   106.110522
 0.150000   35.975116   104.870853
 0.155000   36.493390   99.490465
 0.160000   36.970021   98.338129
 0.165000   37.476771   93.256664
 0.170000   37.902587   91.069667
 0.175000   38.387468   88.699849
 0.180000   38.789586   83.114529
 0.185000   39.218613   83.708334
 0.190000   39.626669   76.687734
 0.195000   39.985490   76.034400
 0.200000   40.387013   71.488821
 0.205000   40.700378   66.380631
 0.210000   41.050819   67.978354
 0.215000   41.380162   60.487347
 0.220000   41.655693   59.469358
 0.225000   41.974856   57.867386
 0.230000   42.234367   52.466868
 0.235000   42.499524   54.899065
 0.240000   42.783357   48.815263
 0.245000   42.987677   46.739608
 0.250000   43.250754   51.080994
 0.255000   43.498487   44.413157
 0.260000   43.694885   43.626033
 0.265000   43.934747   45.326953
 0.270000   44.148155   39.667717
 0.275000   44.331424   39.539182
 0.280000   44.543546   38.868336
 0.285000   44.720108   32.994506
 0.290000   44.873492   32.053822
 0.295000   45.040646   29.385932
 0.300000   45.167351   23.330423
 0.305000   45.273950   21.916667
 0.310000   45.386517   18.856753
 0.315000   45.462518   13.550942
 0.320000   45.522027   12.533553
 0.325000   45.587853   10.079704
 0.330000   45.622824   4.810046
 0.335000   45.635954   3.238724
 0.340000   45.655211   1.375306
 0.345000   45.649707   -3.858131
 0.350000   45.616630   -6.319360
 0.355000   45.586513   -8.071201
 0.360000   45.535918   -13.112064
 0.365000   45.455393   -15.480284
 0.370000   45.381115   -15.987469
 0.375000   45.295518   -20.118676
 0.380000   45.179928   -22.202526
 0.385000   45.073493   -21.991338
 0.390000   44.960015   -25.631868
 0.395000   44.817174   -29.874866
 0.400000   44.661266   -33.060156
 0.405000   44.486572   -38.350375
 0.410000   44.277762   -45.821357
 0.415000   44.028359   -52.427940
 0.420000   43.753483   -58.212754
 0.425000   43.446231   -65.866228
 0.430000   43.094821   -72.287698
 0.435000   42.723354   -76.321477
 0.440000   42.331606   -80.491841
 0.445000   41.918436   -82.114978
 0.450000   41.510456   -80.293729
 0.455000   41.115499   -77.497493
 0.460000   40.735481   -74.263534
 0.465000   40.372863   -68.924611
 0.470000   40.046235   -61.865160
 0.475000   39.754212   -56.657806
 0.480000   39.479657   -52.098192
 0.485000   39.233230   -47.275130
 0.490000   39.006906   -44.288438
 0.495000   38.790345   -42.819533
 0.500000   38.578711   -41.533286
 0.505000   38.375012   -40.559928
 0.510000   38.173111   -41.236371
 0.515000   37.962649   -41.376707
 0.520000   37.759344   -40.342723
 0.525000   37.559222   -40.233466
 0.530000   37.357010   -40.528266
 0.535000   37.153939   -39.641770
 0.540000   36.960592   -38.056185
 0.545000   36.773377   -38.099376
 0.550000   36.579598   -37.319132
 0.555000   36.400186   -35.126719
 0.560000   36.228331   -34.084275
 0.565000   36.059343   -33.849304
 0.570000   35.889838   -32.712116
 0.575000   35.732222   -31.025423
 0.580000   35.579584   -31.150251
 0.585000   35.420719   -31.114108
 0.590000   35.268443   -29.839290
 0.595000   35.122326   -29.119758
 0.600000   34.977245   -30.087434
 0.605000   34.821452   -29.959341
 0.610000   34.677652   -28.385667
 0.615000   34.537595   -28.371979
 0.620000   34.393932   -28.881290
 0.625000   34.248782   -28.053397
 0.630000   34.113398   -26.982950
 0.635000   33.978953   -28.073669
 0.640000   33.832661   -28.660506
 0.645000   33.692348   -28.103767
 0.650000   33.551623   -28.992668
 0.655000   33.402421   -32.361870
 0.660000   33.228005   -34.968156
 0.665000   33.052740   -36.790447
 0.670000   32.860100   -39.455757
 0.675000   32.658182   -41.924035
 0.680000   32.440860   -42.998698
 0.685000   32.228195   -43.016683
 0.690000   32.010693   -45.045569
 0.695000   31.777739   -47.339401
 0.700000   31.537299   -46.049608
 0.705000   31.317243   -43.638812
 0.710000   31.100911   -44.212755
 0.715000   30.875116   -43.675384
 0.720000   30.664157   -41.097973
 0.725000   30.464136   -38.891149
 0.730000   30.275246   -39.074869
 0.735000   30.073387   -38.979963
 0.740000   29.885446   -38.246922
 0.745000   29.690918   -40.389191
 0.750000   29.481554   -44.652989
 0.755000   29.244388   -47.515595
 0.760000   29.006398   -51.643737
 0.765000   28.727951   -59.676718
 0.770000   28.409631   -68.362571
 0.775000   28.044325   -76.637583
 0.780000   27.643255   -84.944173
 0.785000   27.194883   -95.413979
 0.790000   26.689115   -106.879368
 0.795000   26.126090   -116.339642
 0.800000   25.525719   -124.017260
 0.805000   24.885917   -131.817918
 0.810000   24.207540   -138.117827
 0.815000   23.504739   -141.326127
 0.820000   22.794278   -141.084325
 0.825000   22.093896   -139.274381
 0.830000   21.401535   -137.290459
 0.835000   20.720991   -134.469827
 0.840000   20.056836   -131.921399
 0.845000   19.401777   -132.113859
 0.850000   18.735698   -135.257980
 0.855000   18.049197   -140.235571
 0.860000   17.333342   -148.191110
 0.865000   16.567286   -161.056640
 0.870000   15.722776   -178.487735
 0.875000   14.782409   -200.208211
 0.880000   13.720694   -226.317645
 0.885000   12.519232   -255.210096
 0.890000   11.168593   -287.462229
 0.895000   9.644610   -322.540535
 0.900000   7.943187   -356.725937
 0.905000   6.077351   -389.619130
 0.910000   4.046996   -418.408051
 0.915000   1.893270   -438.641397
 0.920000   -0.339418   -455.532643
 0.925000   -2.662056   -478.672058
 0.930000   -5.126139   -497.928438
 0.935000   -7.641341   -528.456817
 0.940000   -10.410707   -586.746746
 0.945000   -13.508808   -682.153445
 0.950000   -17.232241   -710.852031
 0.955000   -20.617328   -639.622356
 0.960000   -23.628465   -525.442282
 0.965000   -25.871751   -373.919985
 0.970000   -27.367665   -91.191658
 0.975000   -26.783668   342.420812
 0.980000   -23.943457   724.554410
 0.985000   -19.538124   979.817220
 0.990000   -14.145284   1103.208847
 0.995000   -8.506035   1086.060911
 1.000000   -3.284675   1002.483100
201 psinorm ommvb() dommvb/dpsiN
 0.000000   -62.897771   10835.601321
 0.005000   -10.499671   10123.638774
 0.010000   38.338617   10106.305749
 0.015000   90.563387   9960.210028
 0.020000   137.940717   8561.438964
 0.025000   176.177776   7107.922458
 0.030000   209.019941   6112.683845
 0.035000   237.304615   5505.265065
 0.040000   264.072592   5221.272760
 0.045000   289.517342   4715.282629
 0.050000   311.225418   4234.875967
 0.055000   331.866102   3787.457536
 0.060000   349.099994   3289.353577
 0.065000   364.759638   2867.535034
 0.070000   377.775344   2543.546606
 0.075000   390.195104   2228.084562
 0.080000   400.056190   1901.589364
 0.085000   409.210997   1723.229042
 0.090000   417.288480   1509.810812
 0.095000   424.309105   1276.047452
 0.100000   430.048955   1063.732420
 0.105000   434.946430   902.676000
 0.110000   439.075715   690.816916
 0.115000   441.854599   464.472827
 0.120000   443.720443   285.198942
 0.125000   444.706588   115.137464
 0.130000   444.871818   -44.581466
 0.135000   444.260774   -147.547724
 0.140000   443.396340   -236.493560
 0.145000   441.895838   -403.106386
 0.150000   439.365276   -583.310382
 0.155000   436.062734   -715.128653
 0.160000   432.213990   -817.647853
 0.165000   427.886256   -910.516912
 0.170000   423.108821   -996.342784
 0.175000   417.922828   -1121.750571
 0.180000   411.891315   -1312.577769
 0.185000   404.797050   -1322.756731
 0.190000   398.663748   -1313.048251
 0.195000   391.666568   -1447.996170
 0.200000   384.183786   -1419.715304
 0.205000   377.469415   -1351.643630
 0.210000   370.667350   -1366.029045
 0.215000   363.809124   -1373.284676
 0.220000   356.934503   -1354.312810
 0.225000   350.265996   -1285.959969
 0.230000   344.074903   -1503.786040
 0.235000   335.228136   -1546.903937
 0.240000   328.605864   -1311.400388
 0.245000   322.114132   -1283.924723
 0.250000   315.766617   -1253.804494
 0.255000   309.576087   -1259.920969
 0.260000   303.167407   -1395.583395
 0.265000   295.620253   -1299.342188
 0.270000   290.173985   -1086.142085
 0.275000   284.758832   -1067.323591
 0.280000   279.500749   -1017.437810
 0.285000   274.584454   -1125.508546
 0.290000   268.245664   -1061.231064
 0.295000   263.972143   -821.277503
 0.300000   260.032889   -768.318405
 0.305000   256.288959   -739.164233
 0.310000   252.641246   -822.006481
 0.315000   248.068894   -742.123032
 0.320000   245.220016   -550.013100
 0.325000   242.568763   -510.306945
 0.330000   240.116947   -510.439117
 0.335000   237.464372   -514.589055
 0.340000   234.971056   -419.616416
 0.345000   233.268208   -325.629551
 0.350000   231.714761   -295.373898
 0.355000   230.314469   -322.710104
 0.360000   228.487660   -274.045692
 0.365000   227.574012   -166.818423
 0.370000   226.819475   -138.026113
 0.375000   226.193751   -131.862061
 0.380000   225.500855   -106.614066
 0.385000   225.127610   -43.625483
 0.390000   225.064600   -5.439683
 0.395000   225.073214   -1.728296
 0.400000   225.047317   -4.556130
 0.405000   225.027652   11.109015
 0.410000   225.158407   27.426006
 0.415000   225.301912   30.616769
 0.420000   225.464575   28.628673
 0.425000   225.588199   35.920716
 0.430000   225.823782   47.427994
 0.435000   226.062479   49.081796
 0.440000   226.314600   57.435957
 0.445000   226.636839   70.865223
 0.450000   227.023252   72.798812
 0.455000   227.364827   72.044539
 0.460000   227.743697   97.751100
 0.465000   228.342338   140.059324
 0.470000   229.144291   166.641209
 0.475000   230.008750   181.501120
 0.480000   230.959302   202.538434
 0.485000   232.034134   227.726811
 0.490000   233.236570   233.853700
 0.495000   234.372671   230.691396
 0.500000   235.543484   237.319532
 0.505000   236.745866   245.419016
 0.510000   237.997674   255.034756
 0.515000   239.296214   255.096285
 0.520000   240.548637   250.927474
 0.525000   241.805489   281.771644
 0.530000   243.366353   291.947861
 0.535000   244.724967   271.605891
 0.540000   246.082412   274.516500
 0.545000   247.470132   282.188853
 0.550000   248.904301   307.174967
 0.555000   250.541882   325.894540
 0.560000   252.163246   326.314316
 0.565000   253.805025   331.877662
 0.570000   255.482023   358.818047
 0.575000   257.393206   391.381932
 0.580000   259.395842   406.029496
 0.585000   261.453501   417.432945
 0.590000   263.570172   426.885290
 0.595000   265.722354   464.319989
 0.600000   268.213372   480.083178
 0.605000   270.523185   481.635549
 0.610000   273.029727   517.865034
 0.615000   275.701836   550.141597
 0.620000   278.531143   605.164404
 0.625000   281.753480   629.660573
 0.630000   284.827749   627.519268
 0.635000   288.028672   652.551277
 0.640000   291.353262   678.611543
 0.645000   294.814788   740.582163
 0.650000   298.759083   764.040387
 0.655000   302.455192   754.009418
 0.660000   306.299177   782.998329
 0.665000   310.285175   810.723695
 0.670000   314.406414   874.513531
 0.675000   319.030310   925.084287
 0.680000   323.657257   934.756807
 0.685000   328.377878   959.764012
 0.690000   333.254897   990.067651
 0.695000   338.278555   1023.097275
 0.700000   343.485870   1097.576369
 0.705000   349.254319   1132.310666
 0.710000   354.808977   1131.230098
 0.715000   360.566620   1172.838969
 0.720000   366.537366   1214.886387
 0.725000   372.715483   1254.936115
 0.730000   379.086728   1318.348049
 0.735000   385.898964   1355.185087
 0.740000   392.638578   1363.414676
 0.745000   399.533111   1401.320155
 0.750000   406.651780   1448.446461
 0.755000   414.017575   1498.916931
 0.760000   421.640949   1549.695720
 0.765000   429.514532   1614.954897
 0.770000   437.790498   1672.155040
 0.775000   446.236083   1720.310513
 0.780000   454.993603   1787.880994
 0.785000   464.114893   1861.223983
 0.790000   473.605843   1936.475194
 0.795000   483.479645   2019.293993
 0.800000   493.798783   2107.685898
 0.805000   504.556504   2193.881879
 0.810000   515.737602   2315.429270
 0.815000   527.710796   2465.181183
 0.820000   540.389414   2628.352404
 0.825000   553.994320   2817.485930
 0.830000   568.564273   3015.309524
 0.835000   584.147416   3229.039687
 0.840000   600.854670   3464.659924
 0.845000   618.794015   3727.344437
 0.850000   638.128114   4038.836141
 0.855000   659.182376   4338.572576
 0.860000   681.513840   4664.038174
 0.865000   705.822758   5080.242245
 0.870000   732.316262   5574.006971
 0.875000   761.562828   6157.828291
 0.880000   793.894545   6801.715208
 0.885000   829.579980   7520.543001
 0.890000   869.099975   8288.699428
 0.895000   912.466974   9016.393865
 0.900000   959.263914   9641.035168
 0.905000   1008.877326   10091.611922
 0.910000   1060.180033   10232.851966
 0.915000   1111.205845   9872.144486
 0.920000   1158.901478   8858.608032
 0.925000   1199.791926   7212.967753
 0.930000   1231.031156   5299.339436
 0.935000   1252.785320   4073.803717
 0.940000   1271.769193   5357.687871
 0.945000   1306.362199   11621.224838
 0.950000   1387.981441   24869.049993
 0.955000   1555.052699   43963.970679
 0.960000   1827.621148   64345.553737
 0.965000   2198.508236   78666.215964
 0.970000   2614.283308   81002.769325
 0.975000   3008.535929   69707.377450
 0.980000   3311.357082   54065.119949
 0.985000   3549.187129   58797.745751
 0.990000   3899.334540   99413.834719
 0.995000   4543.325476   411224.103152
 1.000000   8011.575571   976075.934882
201 psinorm ommpp() dommpp/dpsiN
 0.000000   143.165802   -10750.761762
 0.005000   91.050620   -10095.310966
 0.010000   42.212692   -10109.412404
 0.015000   -10.043504   -9968.186134
 0.020000   -57.469169   -8572.452937
 0.025000   -95.768034   -7121.644177
 0.030000   -128.685611   -6129.302034
 0.035000   -157.061054   -5524.542231
 0.040000   -183.931033   -5242.742238
 0.045000   -209.488476   -4738.670531
 0.050000   -231.317739   -4259.585632
 0.055000   -252.084333   -3812.823325
 0.060000   -269.445972   -3315.118949
 0.065000   -285.235522   -2893.443615
 0.070000   -298.380408   -2569.081164
 0.075000   -310.926334   -2252.961503
 0.080000   -320.910023   -1925.650372
 0.085000   -330.182838   -1746.105951
 0.090000   -338.371083   -1531.380288
 0.095000   -345.496640   -1296.352061
 0.100000   -351.334603   -1082.777222
 0.105000   -356.324413   -920.582750
 0.110000   -360.540431   -707.722436
 0.115000   -363.401637   -480.396155
 0.120000   -365.344392   -300.319931
 0.125000   -366.404836   -129.750992
 0.130000   -366.641902   30.181090
 0.135000   -366.103025   133.056687
 0.140000   -365.311335   221.722922
 0.145000   -363.885796   388.238727
 0.150000   -361.428948   567.839013
 0.155000   -358.207406   698.619021
 0.160000   -354.442758   800.341823
 0.165000   -350.203988   892.236843
 0.170000   -345.520390   976.952808
 0.175000   -340.434460   1100.997776
 0.180000   -334.510412   1289.907945
 0.185000   -327.535380   1298.014266
 0.190000   -321.530269   1286.610759
 0.195000   -314.669273   1419.856070
 0.200000   -307.331708   1389.657762
 0.205000   -300.772695   1319.042065
 0.210000   -294.141288   1331.111917
 0.215000   -287.461576   1336.944561
 0.220000   -280.771842   1316.660230
 0.225000   -274.294974   1247.170452
 0.230000   -268.300138   1464.312923
 0.235000   -259.651844   1506.644621
 0.240000   -253.233691   1271.106983
 0.245000   -246.940775   1244.559389
 0.250000   -240.788098   1214.979120
 0.255000   -234.790983   1221.457090
 0.260000   -228.573527   1357.326761
 0.265000   -221.217716   1261.046186
 0.270000   -215.963065   1047.876628
 0.275000   -210.738949   1028.617999
 0.280000   -205.676885   977.395984
 0.285000   -200.964990   1083.562939
 0.290000   -194.841255   1016.714071
 0.295000   -190.797849   773.727529
 0.300000   -187.103980   717.500379
 0.305000   -183.622845   684.900010
 0.310000   -180.254980   764.655180
 0.315000   -175.976293   682.198110
 0.320000   -173.432999   487.735143
 0.325000   -171.098942   445.536860
 0.330000   -168.977630   442.979381
 0.335000   -166.669148   444.699280
 0.340000   -164.530637   347.332898
 0.345000   -163.195819   250.642964
 0.350000   -162.024208   217.477807
 0.355000   -161.021041   241.788381
 0.360000   -159.606324   190.548066
 0.365000   -159.115560   81.346826
 0.370000   -158.792856   50.766637
 0.375000   -158.607894   43.117926
 0.380000   -158.361677   17.008757
 0.385000   -158.437806   -46.862144
 0.390000   -158.830298   -86.829702
 0.395000   -159.306103   -94.047651
 0.400000   -159.770774   -96.172453
 0.405000   -160.267828   -117.702736
 0.410000   -160.947802   -141.736273
 0.415000   -161.685191   -153.378211
 0.420000   -162.481584   -159.135852
 0.425000   -163.276549   -174.287729
 0.430000   -164.224461   -193.051966
 0.435000   -165.207069   -200.241666
 0.440000   -166.226878   -211.853358
 0.445000   -167.325602   -225.234384
 0.450000   -168.479222   -224.051158
 0.455000   -169.566114   -217.996366
 0.460000   -170.659185   -236.631596
 0.465000   -171.932430   -270.145412
 0.470000   -173.360640   -286.673674
 0.475000   -174.799167   -292.076348
 0.480000   -176.281403   -305.281009
 0.485000   -177.851977   -323.872956
 0.490000   -179.520133   -324.682757
 0.495000   -181.098804   -317.699045
 0.500000   -182.697123   -321.995916
 0.505000   -184.318764   -328.743192
 0.510000   -185.984555   -337.362536
 0.515000   -187.692389   -336.528106
 0.520000   -189.349836   -331.353022
 0.525000   -191.005919   -360.994191
 0.530000   -192.959778   -369.938419
 0.535000   -194.705303   -348.096265
 0.540000   -196.440741   -349.166096
 0.545000   -198.196964   -354.934026
 0.550000   -199.990081   -377.928393
 0.555000   -201.976248   -394.502073
 0.560000   -203.935102   -392.741009
 0.565000   -205.903658   -396.335951
 0.570000   -207.898461   -421.536436
 0.575000   -210.119023   -452.521392
 0.580000   -212.423675   -465.761589
 0.585000   -214.776639   -476.046887
 0.590000   -217.184144   -484.516778
 0.595000   -219.621806   -520.976309
 0.600000   -222.393907   -536.073504
 0.605000   -224.982541   -537.059035
 0.610000   -227.764497   -572.400353
 0.615000   -230.706545   -603.688975
 0.620000   -233.801387   -657.856772
 0.625000   -237.285113   -681.571413
 0.630000   -240.617101   -678.887446
 0.635000   -244.073987   -703.640595
 0.640000   -247.653507   -729.542397
 0.645000   -251.369411   -791.888797
 0.650000   -255.572395   -816.699627
 0.655000   -259.536407   -808.835902
 0.660000   -263.660754   -840.842041
 0.665000   -267.944828   -872.502554
 0.670000   -272.385780   -938.924818
 0.675000   -277.334076   -990.858538
 0.680000   -282.294365   -1002.144478
 0.685000   -287.355521   -1028.411395
 0.690000   -292.578479   -1059.904956
 0.695000   -297.954570   -1094.491943
 0.700000   -303.523398   -1168.225967
 0.705000   -309.636830   -1200.749582
 0.710000   -315.530894   -1198.422972
 0.715000   -321.621060   -1238.519736
 0.720000   -327.916092   -1278.813198
 0.725000   -334.409192   -1316.430500
 0.730000   -341.080397   -1377.764022
 0.735000   -348.186832   -1414.160269
 0.740000   -355.221999   -1423.325251
 0.745000   -362.420084   -1463.515491
 0.750000   -369.857154   -1514.089305
 0.755000   -377.560977   -1568.149772
 0.760000   -385.538652   -1625.441520
 0.765000   -393.815393   -1699.936002
 0.770000   -402.538012   -1766.460003
 0.775000   -411.479993   -1824.996984
 0.780000   -420.787982   -1903.637331
 0.785000   -430.516366   -1988.970825
 0.790000   -440.677690   -2077.032842
 0.795000   -451.286694   -2171.517245
 0.800000   -462.392862   -2269.707379
 0.805000   -473.983768   -2364.388767
 0.810000   -486.036750   -2492.275362
 0.815000   -498.906522   -2645.786830
 0.820000   -512.494618   -2808.779500
 0.825000   -526.994317   -2994.553822
 0.830000   -542.440157   -3188.566737
 0.835000   -558.879984   -3398.594356
 0.840000   -576.426100   -3631.145463
 0.845000   -595.191439   -3893.014936
 0.850000   -615.356250   -4206.944462
 0.855000   -637.260883   -4512.351977
 0.860000   -660.479769   -4847.483929
 0.865000   -685.735723   -5278.365806
 0.870000   -713.263427   -5791.844404
 0.875000   -743.654167   -6401.447477
 0.880000   -777.277902   -7076.970405
 0.885000   -814.423871   -7830.431420
 0.890000   -855.582216   -8636.984848
 0.895000   -900.793719   -9406.776740
 0.900000   -949.649984   -10072.803432
 0.905000   -1001.521754   -10563.881345
 0.910000   -1055.288797   -10741.122460
 0.915000   -1108.932978   -10404.997382
 0.920000   -1159.338771   -9411.320692
 0.925000   -1203.046185   -7785.196898
 0.930000   -1237.190740   -5891.079288
 0.935000   -1261.956978   -4707.234827
 0.940000   -1284.263088   -6061.511106
 0.945000   -1322.572089   -12372.946738
 0.950000   -1407.992556   -25628.317615
 0.955000   -1578.855265   -44688.013855
 0.960000   -1854.872694   -64945.662906
 0.965000   -2228.311894   -79029.281549
 0.970000   -2645.165510   -81015.554983
 0.975000   -3038.467444   -69292.590413
 0.980000   -3338.091414   -53251.526619
 0.985000   -3570.982710   -57700.543630
 0.990000   -3915.096850   -98178.727497
 0.995000   -4552.769985   -410008.970482
 1.000000   -8015.186555   -974957.657386
201 psinorm omevb() domevb/dpsiN
 0.000000   61.691577   79.643200
 0.005000   61.944768   21.632923
 0.010000   61.907907   -10.431620
 0.015000   61.840452   -15.062492
 0.020000   61.757282   -17.861374
 0.025000   61.661838   -20.329765
 0.030000   61.553984   -22.986553
 0.035000   61.431972   -25.405553
 0.040000   61.299929   -27.357636
 0.045000   61.158396   -29.035613
 0.050000   61.009572   -30.116751
 0.055000   60.857228   -30.532107
 0.060000   60.704251   -30.690821
 0.065000   60.550320   -30.593093
 0.070000   60.398320   -29.978105
 0.075000   60.250539   -29.079530
 0.080000   60.107525   -28.022687
 0.085000   59.970312   -26.597759
 0.090000   59.841548   -25.049618
 0.095000   59.719816   -23.544200
 0.100000   59.606106   -22.044034
 0.105000   59.499376   -20.665855
 0.110000   59.399447   -19.424765
 0.115000   59.305128   -18.203014
 0.120000   59.217417   -17.161456
 0.125000   59.133514   -16.415151
 0.130000   59.053265   -15.963564
 0.135000   58.973878   -15.816238
 0.140000   58.895103   -15.858333
 0.145000   58.815295   -15.718365
 0.150000   58.737919   -16.085637
 0.155000   58.654438   -16.888048
 0.160000   58.569039   -17.449215
 0.165000   58.479946   -18.188679
 0.170000   58.387152   -19.064699
 0.175000   58.289299   -20.194354
 0.180000   58.185208   -21.878974
 0.185000   58.070509   -23.719996
 0.190000   57.948008   -25.184226
 0.195000   57.818667   -26.656892
 0.200000   57.681440   -28.345279
 0.205000   57.535214   -30.661166
 0.210000   57.374828   -32.749544
 0.215000   57.207719   -33.946328
 0.220000   57.035365   -35.033604
 0.225000   56.857383   -35.946396
 0.230000   56.675901   -36.406925
 0.235000   56.493313   -36.971159
 0.240000   56.306189   -36.784417
 0.245000   56.125469   -35.636678
 0.250000   55.949822   -34.878245
 0.255000   55.776687   -34.299498
 0.260000   55.606827   -33.876251
 0.265000   55.437924   -33.700895
 0.270000   55.269818   -33.456932
 0.275000   55.103355   -33.684983
 0.280000   54.932969   -34.810492
 0.285000   54.755250   -36.504935
 0.290000   54.567919   -38.868395
 0.295000   54.366566   -41.694888
 0.300000   54.150970   -44.757916
 0.305000   53.918987   -48.000579
 0.310000   53.670965   -50.885634
 0.315000   53.410131   -53.258770
 0.320000   53.138377   -55.412880
 0.325000   52.856002   -57.707668
 0.330000   52.561300   -60.201585
 0.335000   52.253986   -62.437520
 0.340000   51.936925   -64.638810
 0.345000   51.607598   -67.151098
 0.350000   51.265414   -69.871515
 0.355000   50.908883   -72.709774
 0.360000   50.538316   -75.100039
 0.365000   50.157882   -76.890128
 0.370000   49.769415   -78.495897
 0.375000   49.372923   -79.800239
 0.380000   48.971413   -80.482907
 0.385000   48.568094   -81.188549
 0.390000   48.159527   -82.795477
 0.395000   47.740140   -86.129072
 0.400000   47.298236   -90.910621
 0.405000   46.831033   -96.606571
 0.410000   46.332171   -104.155839
 0.415000   45.789475   -112.441665
 0.420000   45.207754   -120.023994
 0.425000   44.589235   -127.722377
 0.430000   43.930530   -134.819855
 0.435000   43.241036   -140.198256
 0.440000   42.528548   -143.300287
 0.445000   41.808034   -143.098555
 0.450000   41.097562   -139.830270
 0.455000   40.409731   -134.380313
 0.460000   39.753759   -127.161589
 0.465000   39.138115   -118.221841
 0.470000   38.571541   -108.024941
 0.475000   38.057866   -98.426503
 0.480000   37.587276   -90.454731
 0.485000   37.153318   -83.721272
 0.490000   36.750063   -78.269257
 0.495000   36.370626   -74.315028
 0.500000   36.006913   -71.853057
 0.505000   35.652095   -70.372265
 0.510000   35.303190   -69.249412
 0.515000   34.959601   -68.229128
 0.520000   34.620899   -67.100670
 0.525000   34.288594   -65.777625
 0.530000   33.963122   -64.427739
 0.535000   33.644317   -62.811806
 0.540000   33.335004   -60.857433
 0.545000   33.035743   -58.841570
 0.550000   32.746589   -56.740537
 0.555000   32.468337   -54.487513
 0.560000   32.201713   -52.201699
 0.565000   31.946320   -50.130473
 0.570000   31.700409   -48.289900
 0.575000   31.463421   -46.612444
 0.580000   31.234284   -45.108689
 0.585000   31.012334   -43.896281
 0.590000   30.795321   -42.821690
 0.595000   30.584117   -41.756491
 0.600000   30.377757   -41.002556
 0.605000   30.174092   -40.349844
 0.610000   29.974258   -39.377847
 0.615000   29.780313   -38.308083
 0.620000   29.591177   -37.373219
 0.625000   29.406581   -36.513755
 0.630000   29.226040   -35.895014
 0.635000   29.047631   -35.541854
 0.640000   28.870621   -35.310771
 0.645000   28.694523   -35.615502
 0.650000   28.514466   -36.898477
 0.655000   28.325539   -38.997333
 0.660000   28.124493   -41.947191
 0.665000   27.906067   -45.815710
 0.670000   27.666336   -48.381910
 0.675000   27.422248   -49.678623
 0.680000   27.169550   -51.225246
 0.685000   26.909995   -52.416963
 0.690000   26.645380   -53.536890
 0.695000   26.374626   -55.021260
 0.700000   26.095167   -54.198970
 0.705000   25.832637   -51.905318
 0.710000   25.576114   -50.568672
 0.715000   25.326950   -48.956004
 0.720000   25.086554   -47.088665
 0.725000   24.856063   -44.526500
 0.730000   24.641289   -42.297646
 0.735000   24.433087   -41.680365
 0.740000   24.224485   -42.406664
 0.745000   24.009020   -44.441692
 0.750000   23.780069   -47.589007
 0.755000   23.533130   -50.816370
 0.760000   23.271905   -56.889679
 0.765000   22.964233   -65.590640
 0.770000   22.615998   -74.264083
 0.775000   22.221592   -83.853372
 0.780000   21.777465   -93.958367
 0.785000   21.282009   -104.774574
 0.790000   20.729719   -116.158096
 0.795000   20.120428   -126.092234
 0.800000   19.468797   -133.795221
 0.805000   18.782476   -139.753053
 0.810000   18.071266   -143.054692
 0.815000   17.351929   -143.180505
 0.820000   16.639461   -138.679043
 0.825000   15.965138   -130.211521
 0.830000   15.337346   -120.413993
 0.835000   14.760998   -109.766604
 0.840000   14.239680   -98.745622
 0.845000   13.773542   -88.979032
 0.850000   13.349889   -81.568287
 0.855000   12.957859   -76.749690
 0.860000   12.582393   -75.778830
 0.865000   12.200071   -80.524481
 0.870000   11.777148   -92.394436
 0.875000   11.276127   -114.571897
 0.880000   10.631429   -150.083105
 0.885000   9.775295   -200.814104
 0.890000   8.623288   -274.281744
 0.895000   7.032478   -379.725900
 0.900000   4.826029   -525.042081
 0.905000   1.782057   -725.430628
 0.910000   -2.428278   -994.817153
 0.915000   -8.166114   -1343.225447
 0.920000   -15.860532   -1787.827203
 0.925000   -26.044386   -2326.952626
 0.930000   -39.130058   -2924.381118
 0.935000   -55.288198   -3521.059423
 0.940000   -74.340653   -3992.433701
 0.945000   -95.212535   -4123.760208
 0.950000   -115.578255   -3750.583906
 0.955000   -132.718374   -2813.725236
 0.960000   -143.715507   -1361.615293
 0.965000   -146.334527   381.619537
 0.970000   -139.899312   2090.124610
 0.975000   -125.433280   3449.466434
 0.980000   -105.404647   4226.453309
 0.985000   -83.168747   4384.621596
 0.990000   -61.558431   4063.950444
 0.995000   -42.529243   3450.163479
 1.000000   -27.056796   2738.815082
201 psinorm omepp() domepp/dpsiN
 0.000000   18.576453   5.196359
 0.005000   18.606181   6.694885
 0.010000   18.643402   7.324965
 0.015000   18.679431   7.086385
 0.020000   18.714266   6.847400
 0.025000   18.747905   6.608047
 0.030000   18.780346   6.368364
 0.035000   18.811588   6.128388
 0.040000   18.841630   5.888158
 0.045000   18.870470   5.647711
 0.050000   18.898107   5.407086
 0.055000   18.924541   5.166319
 0.060000   18.949770   4.925449
 0.065000   18.973795   4.684512
 0.070000   18.996616   4.443546
 0.075000   19.018231   4.202590
 0.080000   19.038641   3.961678
 0.085000   19.057848   3.720850
 0.090000   19.075850   3.480142
 0.095000   19.092649   3.239591
 0.100000   19.108246   2.999233
 0.105000   19.122641   2.759105
 0.110000   19.135837   2.519244
 0.115000   19.147834   2.279686
 0.120000   19.158634   2.040467
 0.125000   19.168238   1.801623
 0.130000   19.176650   1.563189
 0.135000   19.183870   1.325201
 0.140000   19.189902   1.087695
 0.145000   19.194747   0.850706
 0.150000   19.198409   0.614268
 0.155000   19.200890   0.378417
 0.160000   19.202193   0.143186
 0.165000   19.202322   -0.091390
 0.170000   19.201279   -0.325277
 0.175000   19.199069   -0.558441
 0.180000   19.195695   -0.790850
 0.185000   19.191161   -1.022469
 0.190000   19.185470   -1.253266
 0.195000   19.178628   -1.483208
 0.200000   19.170638   -1.712263
 0.205000   19.161505   -1.940399
 0.210000   19.151234   -2.167584
 0.215000   19.139829   -2.393787
 0.220000   19.127296   -2.618976
 0.225000   19.113640   -2.843121
 0.230000   19.098865   -3.066191
 0.235000   19.082978   -3.288157
 0.240000   19.065983   -3.508988
 0.245000   19.047888   -3.728655
 0.250000   19.028697   -3.947129
 0.255000   19.008417   -4.164381
 0.260000   18.987053   -4.380383
 0.265000   18.964613   -4.595107
 0.270000   18.941102   -4.808525
 0.275000   18.916528   -5.020609
 0.280000   18.890896   -5.231334
 0.285000   18.864214   -5.440672
 0.290000   18.836489   -5.648598
 0.295000   18.807728   -5.855085
 0.300000   18.777938   -6.060109
 0.305000   18.747127   -6.263644
 0.310000   18.715302   -6.465667
 0.315000   18.682470   -6.666152
 0.320000   18.648640   -6.865076
 0.325000   18.613820   -7.062417
 0.330000   18.578016   -7.258151
 0.335000   18.541238   -7.452255
 0.340000   18.503494   -7.644709
 0.345000   18.464791   -7.835490
 0.350000   18.425139   -8.024576
 0.355000   18.384545   -8.211949
 0.360000   18.343019   -8.397587
 0.365000   18.300569   -8.581470
 0.370000   18.257205   -8.763580
 0.375000   18.212934   -8.943896
 0.380000   18.167766   -9.122402
 0.385000   18.121710   -9.299079
 0.390000   18.074775   -9.473909
 0.395000   18.026971   -9.646875
 0.400000   17.978306   -9.817961
 0.405000   17.928791   -9.987150
 0.410000   17.878435   -10.154427
 0.415000   17.827247   -10.319777
 0.420000   17.775237   -10.483185
 0.425000   17.722415   -10.644636
 0.430000   17.668790   -10.804117
 0.435000   17.614374   -10.961614
 0.440000   17.559174   -11.117114
 0.445000   17.503203   -11.270606
 0.450000   17.446468   -11.422076
 0.455000   17.388982   -11.571514
 0.460000   17.330753   -11.718908
 0.465000   17.271793   -11.864248
 0.470000   17.212111   -12.007524
 0.475000   17.151717   -12.148726
 0.480000   17.090623   -12.287845
 0.485000   17.028839   -12.424873
 0.490000   16.966375   -12.559800
 0.495000   16.903241   -12.692621
 0.500000   16.839448   -12.823326
 0.505000   16.775008   -12.951911
 0.510000   16.709929   -13.078368
 0.515000   16.644224   -13.202692
 0.520000   16.577902   -13.324879
 0.525000   16.510975   -13.444922
 0.530000   16.443453   -13.562820
 0.535000   16.375347   -13.678567
 0.540000   16.306668   -13.792162
 0.545000   16.237425   -13.903603
 0.550000   16.167632   -14.012889
 0.555000   16.097297   -14.120019
 0.560000   16.026431   -14.224994
 0.565000   15.955047   -14.327817
 0.570000   15.883153   -14.428489
 0.575000   15.810762   -14.527016
 0.580000   15.737883   -14.623404
 0.585000   15.664528   -14.717661
 0.590000   15.590706   -14.809798
 0.595000   15.516430   -14.899829
 0.600000   15.441708   -14.987769
 0.605000   15.366552   -15.073642
 0.610000   15.290972   -15.157473
 0.615000   15.214977   -15.239295
 0.620000   15.138579   -15.319148
 0.625000   15.061786   -15.397084
 0.630000   14.984608   -15.473164
 0.635000   14.907054   -15.547465
 0.640000   14.829133   -15.620082
 0.645000   14.750853   -15.691133
 0.650000   14.672222   -15.760762
 0.655000   14.593246   -15.829151
 0.660000   14.513930   -15.896521
 0.665000   14.434280   -15.963149
 0.670000   14.354299   -16.029377
 0.675000   14.273987   -16.095627
 0.680000   14.193343   -16.162425
 0.685000   14.112362   -16.230420
 0.690000   14.031038   -16.300416
 0.695000   13.949358   -16.373408
 0.700000   13.867304   -16.450628
 0.705000   13.784852   -16.533598
 0.710000   13.701968   -16.624202
 0.715000   13.618610   -16.724762
 0.720000   13.534721   -16.838146
 0.725000   13.450229   -16.967885
 0.730000   13.365042   -17.118327
 0.735000   13.279045   -17.294817
 0.740000   13.192094   -17.503911
 0.745000   13.104006   -17.753644
 0.750000   13.014557   -18.053838
 0.755000   12.923468   -18.416472
 0.760000   12.830393   -18.856121
 0.765000   12.734907   -19.390466
 0.770000   12.636488   -20.040880
 0.775000   12.534498   -20.833098
 0.780000   12.428157   -21.797970
 0.785000   12.316518   -22.972268
 0.790000   12.198434   -24.399552
 0.795000   12.072523   -26.131017
 0.800000   11.937124   -28.226260
 0.805000   11.790260   -30.753836
 0.810000   11.629586   -33.791400
 0.815000   11.452346   -37.425142
 0.820000   11.255334   -41.748054
 0.825000   11.034865   -46.856371
 0.830000   10.786771   -52.843221
 0.835000   10.506433   -59.788065
 0.840000   10.188890   -67.739917
 0.845000   9.829034   -76.691466
 0.850000   9.421975   -86.540034
 0.855000   8.963634   -97.029711
 0.860000   8.451678   -107.666925
 0.865000   7.886964   -117.599080
 0.870000   7.275687   -125.442997
 0.875000   6.632534   -129.047289
 0.880000   5.985214   -125.172092
 0.885000   5.380814   -109.074315
 0.890000   4.894471   -74.003676
 0.895000   4.640777   -10.656975
 0.900000   4.787902   93.273817
 0.905000   5.573515   253.161205
 0.910000   7.319514   486.546659
 0.915000   10.438982   810.372551
 0.920000   15.423239   1235.114544
 0.925000   22.790127   1754.723480
 0.930000   32.970474   2332.641266
 0.935000   46.116540   2887.628313
 0.940000   61.846757   3288.610466
 0.945000   79.002644   3372.038308
 0.950000   95.567140   2991.316284
 0.955000   108.915807   2089.682060
 0.960000   116.463961   761.506123
 0.965000   116.530868   -744.685122
 0.970000   109.017110   -2102.910268
 0.975000   95.501766   -3034.679397
 0.980000   78.670316   -3412.859979
 0.985000   61.373166   -3287.419474
 0.990000   45.796121   -2828.843222
 0.995000   33.084734   -2235.030808
 1.000000   23.445813   -1620.537585
201 psinorm kpol(km/s/T) dkpol/dpsiN
 0.000000   0.013919   112.493358
 0.005000   0.468476   69.329371
 0.010000   0.707213   45.632992
 0.015000   0.924806   42.780253
 0.020000   1.135015   41.504403
 0.025000   1.339850   40.239753
 0.030000   1.537413   38.451069
 0.035000   1.724360   36.566719
 0.040000   1.903080   34.807828
 0.045000   2.072439   33.013181
 0.050000   2.233212   31.481596
 0.055000   2.387255   30.329416
 0.060000   2.536506   29.532613
 0.065000   2.682581   29.018237
 0.070000   2.826688   28.834761
 0.075000   2.970928   28.923138
 0.080000   3.115920   29.140386
 0.085000   3.262332   29.667246
 0.090000   3.412592   30.476767
 0.095000   3.567100   31.256198
 0.100000   3.725154   31.839313
 0.105000   3.885493   32.274819
 0.110000   4.047902   32.509826
 0.115000   4.210591   32.432246
 0.120000   4.372225   31.925846
 0.125000   4.529850   30.982897
 0.130000   4.682054   29.556321
 0.135000   4.825413   27.742689
 0.140000   4.959481   25.666906
 0.145000   5.082082   23.350500
 0.150000   5.192986   20.866839
 0.155000   5.290751   18.419796
 0.160000   5.377184   16.002158
 0.165000   5.450772   13.531586
 0.170000   5.512499   11.158556
 0.175000   5.562358   8.796706
 0.180000   5.600467   6.732339
 0.185000   5.629681   4.894988
 0.190000   5.649416   3.155504
 0.195000   5.661236   1.478483
 0.200000   5.664201   -0.378993
 0.205000   5.657446   -2.316509
 0.210000   5.641036   -4.426498
 0.215000   5.613181   -6.576994
 0.220000   5.575266   -8.716175
 0.225000   5.526019   -10.933332
 0.230000   5.465933   -12.942468
 0.235000   5.396595   -14.845847
 0.240000   5.317474   -16.690804
 0.245000   5.229687   -18.376005
 0.250000   5.133714   -20.145103
 0.255000   5.028236   -21.961290
 0.260000   4.914101   -23.885560
 0.265000   4.789380   -26.134957
 0.270000   4.652752   -28.514372
 0.275000   4.504236   -31.109047
 0.280000   4.341661   -34.033814
 0.285000   4.163898   -37.076784
 0.290000   3.970894   -40.340902
 0.295000   3.760489   -43.777291
 0.300000   3.533121   -46.918471
 0.305000   3.291304   -49.732284
 0.310000   3.035798   -52.266551
 0.315000   2.768639   -54.410048
 0.320000   2.491697   -56.323730
 0.325000   2.205402   -58.268278
 0.330000   1.909015   -60.399083
 0.335000   1.601411   -62.772301
 0.340000   1.281292   -65.429848
 0.345000   0.947112   -68.375559
 0.350000   0.597536   -71.771666
 0.355000   0.229396   -75.594849
 0.360000   -0.158413   -79.463020
 0.365000   -0.565235   -83.078904
 0.370000   -0.989202   -86.170976
 0.375000   -1.426944   -88.460353
 0.380000   -1.873805   -89.677271
 0.385000   -2.323717   -90.566078
 0.390000   -2.779466   -92.303102
 0.395000   -3.246748   -95.270143
 0.400000   -3.732167   -99.554435
 0.405000   -4.242292   -105.155781
 0.410000   -4.783725   -112.970154
 0.415000   -5.371994   -121.711512
 0.420000   -6.000840   -129.709226
 0.425000   -6.669086   -137.214998
 0.430000   -7.372990   -143.441131
 0.435000   -8.103497   -147.535874
 0.440000   -8.848349   -148.365049
 0.445000   -9.587148   -144.767937
 0.450000   -10.296028   -137.005958
 0.455000   -10.957208   -126.189891
 0.460000   -11.557927   -113.418791
 0.465000   -12.091395   -99.017843
 0.470000   -12.548106   -83.424442
 0.475000   -12.925640   -69.069790
 0.480000   -13.238804   -57.072943
 0.485000   -13.496369   -46.822582
 0.490000   -13.707029   -38.447825
 0.495000   -13.880848   -32.235243
 0.500000   -14.029382   -28.171130
 0.505000   -14.162559   -25.596619
 0.510000   -14.285348   -23.724538
 0.515000   -14.399804   -22.024274
 0.520000   -14.505591   -20.099935
 0.525000   -14.600804   -17.923745
 0.530000   -14.684828   -15.660275
 0.535000   -14.757406   -13.003251
 0.540000   -14.814861   -9.889465
 0.545000   -14.856301   -6.653305
 0.550000   -14.881394   -3.377791
 0.555000   -14.890079   -0.042684
 0.560000   -14.881821   3.261681
 0.565000   -14.857462   6.172105
 0.570000   -14.820100   8.732851
 0.575000   -14.770134   11.047384
 0.580000   -14.709626   12.953245
 0.585000   -14.640601   14.329451
 0.590000   -14.566331   15.383123
 0.595000   -14.486770   16.343899
 0.600000   -14.402892   17.063667
 0.605000   -14.316133   17.631886
 0.610000   -14.226573   18.226541
 0.615000   -14.133868   18.843599
 0.620000   -14.038137   19.319189
 0.625000   -13.940676   19.706724
 0.630000   -13.841070   20.061235
 0.635000   -13.740064   20.282794
 0.640000   -13.638242   20.350282
 0.645000   -13.536561   20.317180
 0.650000   -13.435070   20.253478
 0.655000   -13.334026   20.111222
 0.660000   -13.233958   19.894558
 0.665000   -13.135080   19.666922
 0.670000   -13.037289   19.436477
 0.675000   -12.940716   19.134579
 0.680000   -12.845943   18.674352
 0.685000   -12.753972   18.024400
 0.690000   -12.665699   17.160315
 0.695000   -12.582369   16.021046
 0.700000   -12.505489   14.604924
 0.705000   -12.436320   12.918286
 0.710000   -12.376306   10.949614
 0.715000   -12.326824   8.757254
 0.720000   -12.288733   6.415673
 0.725000   -12.262667   3.989051
 0.730000   -12.248843   1.539374
 0.735000   -12.247273   -0.878563
 0.740000   -12.257628   -3.228476
 0.745000   -12.279558   -5.646261
 0.750000   -12.314091   -8.357388
 0.755000   -12.363132   -11.627025
 0.760000   -12.430361   -16.036079
 0.765000   -12.523493   -21.920739
 0.770000   -12.649569   -29.309268
 0.775000   -12.816585   -38.286549
 0.780000   -13.032434   -48.794708
 0.785000   -13.304532   -60.584552
 0.790000   -13.638280   -73.463983
 0.795000   -14.039172   -85.985994
 0.800000   -14.498140   -96.748809
 0.805000   -15.006660   -105.455966
 0.810000   -15.552699   -111.596296
 0.815000   -16.122623   -114.472591
 0.820000   -16.697425   -112.915149
 0.825000   -17.251775   -108.018356
 0.830000   -17.777609   -101.760640
 0.835000   -18.269381   -94.176732
 0.840000   -18.719376   -85.831500
 0.845000   -19.127696   -77.984938
 0.850000   -19.499225   -72.537900
 0.855000   -19.853075   -70.208006
 0.860000   -20.201305   -69.832358
 0.865000   -20.551399   -70.685881
 0.870000   -20.908164   -72.721641
 0.875000   -21.278615   -74.760740
 0.880000   -21.655772   -76.030178
 0.885000   -22.038917   -75.642843
 0.890000   -22.412200   -72.088081
 0.895000   -22.759798   -63.550615
 0.900000   -23.047706   -48.091453
 0.905000   -23.240712   -24.399989
 0.910000   -23.291706   10.057429
 0.915000   -23.140138   51.437362
 0.920000   -22.777333   96.002796
 0.925000   -22.180110   146.167153
 0.930000   -21.315661   200.937605
 0.935000   -20.170734   243.990558
 0.940000   -18.875755   262.464816
 0.945000   -17.546086   255.689966
 0.950000   -16.318856   224.234329
 0.955000   -15.303742   175.737936
 0.960000   -14.561476   134.291837
 0.965000   -13.960824   137.662582
 0.970000   -13.184851   212.273159
 0.975000   -11.838092   368.343028
 0.980000   -9.501420   577.061562
 0.985000   -6.067477   771.961115
 0.990000   -1.781809   889.594605
 0.995000   2.828469   884.570498
 1.000000   7.063896   809.600154
201 psinorm omghb() domghb/dpsiN
 0.000000   -0.000066   0.049457
 0.005000   0.000098   0.016236
 0.010000   0.000096   0.025268
 0.015000   0.000350   0.058681
 0.020000   0.000683   0.071676
 0.025000   0.001067   0.083304
 0.030000   0.001516   0.099060
 0.035000   0.002058   0.110763
 0.040000   0.002623   0.120899
 0.045000   0.003267   0.124636
 0.050000   0.003870   0.114595
 0.055000   0.004413   0.101955
 0.060000   0.004889   0.084590
 0.065000   0.005259   0.064141
 0.070000   0.005531   0.063893
 0.075000   0.005898   0.055208
 0.080000   0.006083   0.027491
 0.085000   0.006172   0.008184
 0.090000   0.006165   -0.005399
 0.095000   0.006119   -0.018410
 0.100000   0.005981   -0.022730
 0.105000   0.005891   -0.009017
 0.110000   0.005890   -0.009115
 0.115000   0.005800   -0.008194
 0.120000   0.005808   -0.002221
 0.125000   0.005778   0.000151
 0.130000   0.005810   0.027090
 0.135000   0.006049   0.072205
 0.140000   0.006532   0.090805
 0.145000   0.006957   0.095074
 0.150000   0.007483   0.105921
 0.155000   0.008016   0.097327
 0.160000   0.008456   0.130959
 0.165000   0.009326   0.195543
 0.170000   0.010411   0.228058
 0.175000   0.011606   0.235489
 0.180000   0.012766   0.254962
 0.185000   0.014156   0.277528
 0.190000   0.015542   0.310319
 0.195000   0.017259   0.339402
 0.200000   0.018936   0.328234
 0.205000   0.020541   0.330314
 0.210000   0.022239   0.341016
 0.215000   0.023951   0.350768
 0.220000   0.025746   0.373943
 0.225000   0.027691   0.207516
 0.230000   0.027822   0.088663
 0.235000   0.028578   0.128412
 0.240000   0.029106   0.074647
 0.245000   0.029324   0.061239
 0.250000   0.029718   0.072443
 0.255000   0.030048   0.004082
 0.260000   0.029759   0.030755
 0.265000   0.030356   0.134189
 0.270000   0.031101   0.170201
 0.275000   0.032058   0.234836
 0.280000   0.033449   0.268504
 0.285000   0.034743   0.493113
 0.290000   0.038380   0.703386
 0.295000   0.041777   0.680913
 0.300000   0.045189   0.685245
 0.305000   0.048629   0.667521
 0.310000   0.051865   0.658733
 0.315000   0.055217   0.639588
 0.320000   0.058261   0.598766
 0.325000   0.061204   0.585325
 0.330000   0.064114   0.594885
 0.335000   0.067153   0.647110
 0.340000   0.070585   0.780876
 0.345000   0.074962   0.737201
 0.350000   0.077957   0.638445
 0.355000   0.081346   0.689892
 0.360000   0.084856   0.703759
 0.365000   0.088384   0.657127
 0.370000   0.091427   0.467470
 0.375000   0.093059   0.343806
 0.380000   0.094865   0.404397
 0.385000   0.097103   0.507983
 0.390000   0.099945   0.744327
 0.395000   0.104546   1.132256
 0.400000   0.111268   1.409032
 0.405000   0.118636   1.664823
 0.410000   0.127916   1.938544
 0.415000   0.138022   2.042635
 0.420000   0.148342   2.201808
 0.425000   0.160040   2.173472
 0.430000   0.170077   1.689106
 0.435000   0.176931   1.155540
 0.440000   0.181632   0.668348
 0.445000   0.183614   0.022763
 0.450000   0.181860   -0.740667
 0.455000   0.176208   -1.394402
 0.460000   0.167916   -1.777350
 0.465000   0.158434   -2.005554
 0.470000   0.147860   -2.083298
 0.475000   0.137601   -1.923387
 0.480000   0.128626   -1.792904
 0.485000   0.119672   -1.455281
 0.490000   0.114074   -0.917598
 0.495000   0.110496   -0.579869
 0.500000   0.108275   -0.345310
 0.505000   0.107043   -0.187635
 0.510000   0.106399   -0.064342
 0.515000   0.106400   -0.081490
 0.520000   0.105584   -0.197136
 0.525000   0.104428   -0.238382
 0.530000   0.103200   -0.249768
 0.535000   0.101931   -0.312718
 0.540000   0.100073   -0.391797
 0.545000   0.098013   -0.411652
 0.550000   0.095956   -0.461070
 0.555000   0.093402   -0.505616
 0.560000   0.090900   -0.475385
 0.565000   0.088648   -0.416156
 0.570000   0.086738   -0.379831
 0.575000   0.084850   -0.351347
 0.580000   0.083225   -0.277198
 0.585000   0.082078   -0.162162
 0.590000   0.081603   -0.169308
 0.595000   0.080385   -0.194961
 0.600000   0.079654   -0.141031
 0.605000   0.078974   -0.164913
 0.610000   0.078005   -0.182912
 0.615000   0.077145   -0.094313
 0.620000   0.077061   -0.150545
 0.625000   0.075640   -0.212223
 0.630000   0.074939   -0.110272
 0.635000   0.074537   -0.015045
 0.640000   0.074789   0.110832
 0.645000   0.075645   0.391231
 0.650000   0.078701   0.683248
 0.655000   0.082478   0.838275
 0.660000   0.087084   0.909952
 0.665000   0.091577   0.856450
 0.670000   0.095648   0.772174
 0.675000   0.099299   1.073141
 0.680000   0.106380   0.729013
 0.685000   0.106589   0.022969
 0.690000   0.106609   0.089652
 0.695000   0.107486   0.119927
 0.700000   0.107809   -0.014005
 0.705000   0.107346   -0.041220
 0.710000   0.107397   -0.457091
 0.715000   0.102775   -0.839918
 0.720000   0.098997   -0.623549
 0.725000   0.096539   -0.404262
 0.730000   0.094955   -0.194695
 0.735000   0.094592   -0.063968
 0.740000   0.094315   0.261111
 0.745000   0.097204   1.016288
 0.750000   0.104478   1.576891
 0.755000   0.112972   2.017983
 0.760000   0.124658   2.465719
 0.765000   0.137630   2.705860
 0.770000   0.151716   3.231587
 0.775000   0.169945   3.940026
 0.780000   0.191117   4.120428
 0.785000   0.211150   4.128631
 0.790000   0.232403   4.144332
 0.795000   0.252593   3.888854
 0.800000   0.271291   3.449862
 0.805000   0.287092   2.523903
 0.810000   0.296530   1.548102
 0.815000   0.302573   0.847901
 0.820000   0.305009   -0.039545
 0.825000   0.302177   -0.829966
 0.830000   0.296710   -1.248663
 0.835000   0.289691   -1.353645
 0.840000   0.283173   -0.781209
 0.845000   0.281879   0.460141
 0.850000   0.287775   1.711402
 0.855000   0.298993   2.885718
 0.860000   0.316632   4.728961
 0.865000   0.346282   6.105252
 0.870000   0.377684   7.466785
 0.875000   0.420950   9.687797
 0.880000   0.474562   11.582624
 0.885000   0.536776   13.131247
 0.890000   0.605875   15.838402
 0.895000   0.695160   15.284941
 0.900000   0.758724   13.082016
 0.905000   0.825980   12.133931
 0.910000   0.880064   10.179498
 0.915000   0.927775   8.822507
 0.920000   0.968289   12.469079
 0.925000   1.052466   9.332671
 0.930000   1.061615   8.550286
 0.935000   1.137969   18.438208
 0.940000   1.245997   22.707534
 0.945000   1.365044   20.025902
 0.950000   1.446257   14.466433
 0.955000   1.509709   -25.615299
 0.960000   1.190104   -81.777625
 0.965000   0.691933   -118.399626
 0.970000   0.006107   -151.375271
 0.975000   -0.821820   -165.738500
 0.980000   -1.651278   -149.259166
 0.985000   -2.314412   -96.757975
 0.990000   -2.618857   -22.490610
 0.995000   -2.539318   40.314835
 1.000000   -2.215709   89.128696
201 psinorm nz1(10^20/m^3) dnz1/dpsiN
 0.000000   0.047213   0.000014
 0.005000   0.047209   -0.001560
 0.010000   0.047198   -0.003147
 0.015000   0.047178   -0.004754
 0.020000   0.047150   -0.006375
 0.025000   0.047114   -0.007999
 0.030000   0.047070   -0.009617
 0.035000   0.047018   -0.011219
 0.040000   0.046958   -0.012791
 0.045000   0.046890   -0.014324
 0.050000   0.046815   -0.015815
 0.055000   0.046732   -0.017257
 0.060000   0.046642   -0.018646
 0.065000   0.046545   -0.019978
 0.070000   0.046442   -0.021248
 0.075000   0.046333   -0.022459
 0.080000   0.046218   -0.023616
 0.085000   0.046097   -0.024716
 0.090000   0.045971   -0.025760
 0.095000   0.045839   -0.026748
 0.100000   0.045703   -0.027675
 0.105000   0.045562   -0.028536
 0.110000   0.045418   -0.029322
 0.115000   0.045269   -0.030031
 0.120000   0.045117   -0.030660
 0.125000   0.044963   -0.031207
 0.130000   0.044805   -0.031669
 0.135000   0.044646   -0.032041
 0.140000   0.044485   -0.032327
 0.145000   0.044323   -0.032527
 0.150000   0.044160   -0.032644
 0.155000   0.043996   -0.032678
 0.160000   0.043833   -0.032629
 0.165000   0.043670   -0.032500
 0.170000   0.043508   -0.032299
 0.175000   0.043347   -0.032028
 0.180000   0.043188   -0.031689
 0.185000   0.043030   -0.031287
 0.190000   0.042875   -0.030831
 0.195000   0.042722   -0.030343
 0.200000   0.042571   -0.029839
 0.205000   0.042423   -0.029317
 0.210000   0.042278   -0.028771
 0.215000   0.042136   -0.028195
 0.220000   0.041996   -0.027589
 0.225000   0.041860   -0.026954
 0.230000   0.041727   -0.026259
 0.235000   0.041597   -0.025484
 0.240000   0.041472   -0.024640
 0.245000   0.041351   -0.023723
 0.250000   0.041235   -0.022734
 0.255000   0.041123   -0.021672
 0.260000   0.041018   -0.020529
 0.265000   0.040918   -0.019308
 0.270000   0.040825   -0.018028
 0.275000   0.040738   -0.016699
 0.280000   0.040658   -0.015332
 0.285000   0.040585   -0.013928
 0.290000   0.040518   -0.012513
 0.295000   0.040459   -0.011111
 0.300000   0.040407   -0.009727
 0.305000   0.040362   -0.008371
 0.310000   0.040324   -0.007052
 0.315000   0.040292   -0.005770
 0.320000   0.040266   -0.004526
 0.325000   0.040246   -0.003315
 0.330000   0.040233   -0.002124
 0.335000   0.040225   -0.000949
 0.340000   0.040223   0.000212
 0.345000   0.040227   0.001359
 0.350000   0.040237   0.002487
 0.355000   0.040252   0.003586
 0.360000   0.040273   0.004645
 0.365000   0.040299   0.005657
 0.370000   0.040329   0.006611
 0.375000   0.040365   0.007496
 0.380000   0.040404   0.008300
 0.385000   0.040448   0.009018
 0.390000   0.040494   0.009645
 0.395000   0.040544   0.010176
 0.400000   0.040596   0.010613
 0.405000   0.040650   0.010955
 0.410000   0.040706   0.011219
 0.415000   0.040762   0.011422
 0.420000   0.040820   0.011564
 0.425000   0.040878   0.011643
 0.430000   0.040936   0.011659
 0.435000   0.040995   0.011616
 0.440000   0.041053   0.011507
 0.445000   0.041110   0.011310
 0.450000   0.041166   0.011004
 0.455000   0.041220   0.010582
 0.460000   0.041272   0.010036
 0.465000   0.041320   0.009362
 0.470000   0.041365   0.008556
 0.475000   0.041406   0.007621
 0.480000   0.041441   0.006569
 0.485000   0.041471   0.005413
 0.490000   0.041495   0.004166
 0.495000   0.041513   0.002842
 0.500000   0.041524   0.001457
 0.505000   0.041528   0.000029
 0.510000   0.041524   -0.001432
 0.515000   0.041513   -0.002920
 0.520000   0.041495   -0.004430
 0.525000   0.041469   -0.005958
 0.530000   0.041435   -0.007504
 0.535000   0.041394   -0.009081
 0.540000   0.041345   -0.010696
 0.545000   0.041287   -0.012346
 0.550000   0.041221   -0.014025
 0.555000   0.041147   -0.015724
 0.560000   0.041064   -0.017432
 0.565000   0.040972   -0.019136
 0.570000   0.040873   -0.020830
 0.575000   0.040764   -0.022506
 0.580000   0.040647   -0.024160
 0.585000   0.040523   -0.025788
 0.590000   0.040390   -0.027390
 0.595000   0.040249   -0.028971
 0.600000   0.040100   -0.030527
 0.605000   0.039943   -0.032053
 0.610000   0.039779   -0.033546
 0.615000   0.039608   -0.035001
 0.620000   0.039429   -0.036422
 0.625000   0.039244   -0.037798
 0.630000   0.039051   -0.039108
 0.635000   0.038853   -0.040348
 0.640000   0.038648   -0.041511
 0.645000   0.038438   -0.042596
 0.650000   0.038222   -0.043682
 0.655000   0.038001   -0.044932
 0.660000   0.037773   -0.046462
 0.665000   0.037536   -0.048299
 0.670000   0.037290   -0.050432
 0.675000   0.037032   -0.052821
 0.680000   0.036761   -0.055608
 0.685000   0.036476   -0.058568
 0.690000   0.036176   -0.061283
 0.695000   0.035863   -0.063745
 0.700000   0.035538   -0.065917
 0.705000   0.035204   -0.067690
 0.710000   0.034861   -0.069034
 0.715000   0.034513   -0.069702
 0.720000   0.034164   -0.069456
 0.725000   0.033819   -0.068401
 0.730000   0.033480   -0.066623
 0.735000   0.033153   -0.064178
 0.740000   0.032839   -0.061048
 0.745000   0.032542   -0.057318
 0.750000   0.032265   -0.053349
 0.755000   0.032009   -0.049370
 0.760000   0.031772   -0.045447
 0.765000   0.031554   -0.041681
 0.770000   0.031355   -0.038091
 0.775000   0.031173   -0.034773
 0.780000   0.031007   -0.031914
 0.785000   0.030854   -0.029476
 0.790000   0.030712   -0.027327
 0.795000   0.030581   -0.025401
 0.800000   0.030458   -0.023623
 0.805000   0.030345   -0.021928
 0.810000   0.030239   -0.020292
 0.815000   0.030142   -0.018713
 0.820000   0.030052   -0.017196
 0.825000   0.029970   -0.015743
 0.830000   0.029895   -0.014361
 0.835000   0.029826   -0.013051
 0.840000   0.029764   -0.011810
 0.845000   0.029708   -0.010648
 0.850000   0.029658   -0.009596
 0.855000   0.029612   -0.008677
 0.860000   0.029571   -0.007913
 0.865000   0.029533   -0.007333
 0.870000   0.029497   -0.006954
 0.875000   0.029463   -0.006801
 0.880000   0.029429   -0.006921
 0.885000   0.029394   -0.007385
 0.890000   0.029356   -0.008315
 0.895000   0.029311   -0.010094
 0.900000   0.029255   -0.013114
 0.905000   0.029180   -0.017921
 0.910000   0.029075   -0.025646
 0.915000   0.028923   -0.038005
 0.920000   0.028695   -0.057611
 0.925000   0.028347   -0.089938
 0.930000   0.027796   -0.139249
 0.935000   0.026955   -0.208305
 0.940000   0.025713   -0.299247
 0.945000   0.023962   -0.407077
 0.950000   0.021642   -0.516788
 0.955000   0.018794   -0.607434
 0.960000   0.015568   -0.648738
 0.965000   0.012307   -0.623073
 0.970000   0.009337   -0.543281
 0.975000   0.006874   -0.434868
 0.980000   0.004988   -0.324517
 0.985000   0.003629   -0.229839
 0.990000   0.002690   -0.157588
 0.995000   0.002053   -0.107040
 1.000000   0.001620   -0.066394
201 psinorm vtor1(km/s) dvtor1/dpsiN
 0.000000   141.355251   675.660034
 0.005000   143.976876   372.990201
 0.010000   145.085153   195.195181
 0.015000   145.928828   154.281198
 0.020000   146.627965   130.561410
 0.025000   147.234442   115.248690
 0.030000   147.780452   104.423888
 0.035000   148.278681   95.260129
 0.040000   148.733053   87.527178
 0.045000   149.153953   81.350190
 0.050000   149.546555   75.877367
 0.055000   149.912727   70.730507
 0.060000   150.253860   66.136910
 0.065000   150.574096   62.064440
 0.070000   150.874504   58.148610
 0.075000   151.155582   54.459541
 0.080000   151.419100   51.075965
 0.085000   151.666341   47.863038
 0.090000   151.897730   44.695480
 0.095000   152.113296   41.685021
 0.100000   152.314580   38.857825
 0.105000   152.501875   36.019186
 0.110000   152.674772   33.126248
 0.115000   152.833137   30.263055
 0.120000   152.977403   27.441842
 0.125000   153.107555   24.488919
 0.130000   153.222292   21.514513
 0.135000   153.322701   18.607249
 0.140000   153.408364   15.588228
 0.145000   153.478583   12.507408
 0.150000   153.533439   9.467576
 0.155000   153.573259   6.459902
 0.160000   153.598038   3.400749
 0.165000   153.607266   0.373205
 0.170000   153.601770   -2.547096
 0.175000   153.581795   -5.447738
 0.180000   153.547292   -8.358798
 0.185000   153.498207   -11.219284
 0.190000   153.435099   -13.960732
 0.195000   153.358600   -16.574757
 0.200000   153.269352   -19.067174
 0.205000   153.167928   -21.427229
 0.210000   153.055080   -23.654146
 0.215000   152.931387   -25.785028
 0.220000   152.797229   -27.762164
 0.225000   152.653765   -29.513331
 0.230000   152.502096   -31.178981
 0.235000   152.341975   -32.813048
 0.240000   152.173965   -34.338702
 0.245000   151.998588   -35.786294
 0.250000   151.816102   -37.208387
 0.255000   151.626504   -38.590232
 0.260000   151.430200   -40.047702
 0.265000   151.226027   -41.671717
 0.270000   151.013483   -43.363704
 0.275000   150.792390   -45.039460
 0.280000   150.563088   -46.614298
 0.285000   150.326247   -47.987770
 0.290000   150.083211   -49.191960
 0.295000   149.834328   -50.314656
 0.300000   149.580064   -51.358095
 0.305000   149.320747   -52.345056
 0.310000   149.056614   -53.276217
 0.315000   148.787985   -54.123184
 0.320000   148.515382   -54.985494
 0.325000   148.238130   -55.919061
 0.330000   147.956191   -56.870643
 0.335000   147.669423   -57.864026
 0.340000   147.377551   -58.935815
 0.345000   147.080065   -60.102168
 0.350000   146.776529   -61.312818
 0.355000   146.466937   -62.478280
 0.360000   146.151746   -63.519481
 0.365000   145.831742   -64.380993
 0.370000   145.507936   -65.021383
 0.375000   145.181528   -65.379010
 0.380000   144.854146   -65.529193
 0.385000   144.526236   -65.726639
 0.390000   144.196880   -66.159553
 0.395000   143.864641   -66.923466
 0.400000   143.527645   -68.079537
 0.405000   143.183845   -69.789518
 0.410000   142.829750   -72.027724
 0.415000   142.463568   -74.511524
 0.420000   142.084635   -77.175894
 0.425000   141.691809   -80.035748
 0.430000   141.284277   -83.026729
 0.435000   140.861542   -86.271506
 0.440000   140.421562   -89.638885
 0.445000   139.965153   -92.684763
 0.450000   139.494715   -95.359734
 0.455000   139.011556   -97.743944
 0.460000   138.517275   -99.756932
 0.465000   138.013986   -101.321371
 0.470000   137.504062   -102.255573
 0.475000   136.991431   -102.572198
 0.480000   136.478340   -102.605402
 0.485000   135.965377   -102.565940
 0.490000   135.452680   -102.515744
 0.495000   134.940219   -102.489883
 0.500000   134.427781   -102.525524
 0.505000   133.914964   -102.558373
 0.510000   133.402198   -102.534391
 0.515000   132.889620   -102.493706
 0.520000   132.377261   -102.450862
 0.525000   131.865111   -102.412008
 0.530000   131.353140   -102.407683
 0.535000   130.841035   -102.365006
 0.540000   130.329490   -102.232207
 0.545000   129.818713   -102.075870
 0.550000   129.308732   -101.916628
 0.555000   128.799546   -101.759939
 0.560000   128.291132   -101.593069
 0.565000   127.783616   -101.326067
 0.570000   127.277872   -100.928097
 0.575000   126.774335   -100.457134
 0.580000   126.273300   -99.931888
 0.585000   125.775016   -99.361631
 0.590000   125.279684   -98.653094
 0.595000   124.788485   -97.935372
 0.600000   124.300330   -97.369951
 0.605000   123.814785   -96.909104
 0.610000   123.331239   -96.571382
 0.615000   122.849071   -96.379185
 0.620000   122.367447   -96.242642
 0.625000   121.886645   -96.357508
 0.630000   121.403872   -96.944297
 0.635000   120.917202   -97.960934
 0.640000   120.424263   -99.504215
 0.645000   119.922160   -101.671984
 0.650000   119.407543   -104.611644
 0.655000   118.876043   -108.018237
 0.660000   118.327361   -111.351600
 0.665000   117.762527   -114.459955
 0.670000   117.182761   -117.334506
 0.675000   116.589182   -120.020290
 0.680000   115.982558   -122.617829
 0.685000   115.363004   -125.306724
 0.690000   114.729491   -128.179141
 0.695000   114.081213   -131.213414
 0.700000   113.417357   -134.392453
 0.705000   112.737288   -137.703242
 0.710000   112.040325   -141.196630
 0.715000   111.325322   -144.867060
 0.720000   110.591654   -148.615337
 0.725000   109.839168   -152.438466
 0.730000   109.067269   -156.481093
 0.735000   108.274358   -160.972266
 0.740000   107.457547   -166.505836
 0.745000   106.609299   -173.317546
 0.750000   105.724371   -180.554933
 0.755000   104.803750   -187.683935
 0.760000   103.847532   -194.693439
 0.765000   102.856815   -201.384229
 0.770000   101.833689   -207.806533
 0.775000   100.778750   -213.750550
 0.780000   99.696184   -218.612065
 0.785000   98.592629   -222.686454
 0.790000   97.469319   -226.623985
 0.795000   96.326390   -230.573915
 0.800000   95.163580   -234.851943
 0.805000   93.977870   -239.679809
 0.810000   92.766782   -243.662683
 0.815000   91.541243   -245.936715
 0.820000   90.307415   -246.916890
 0.825000   89.072074   -246.614261
 0.830000   87.841272   -245.499249
 0.835000   86.617082   -244.923334
 0.840000   85.392039   -245.505137
 0.845000   84.162031   -247.808745
 0.850000   82.913952   -253.155318
 0.855000   81.630477   -262.523903
 0.860000   80.288713   -277.370884
 0.865000   78.856769   -300.419679
 0.870000   77.284516   -331.904395
 0.875000   75.537725   -372.118460
 0.880000   73.563331   -423.253186
 0.885000   71.305193   -485.338901
 0.890000   68.709942   -557.064855
 0.895000   65.734544   -636.733739
 0.900000   62.342605   -717.365968
 0.905000   58.560885   -790.660972
 0.910000   54.435995   -850.501460
 0.915000   50.055870   -888.907764
 0.920000   45.546917   -899.195268
 0.925000   41.063917   -875.609686
 0.930000   36.790821   -819.046274
 0.935000   32.873455   -736.684712
 0.940000   29.423973   -636.326097
 0.945000   26.510194   -527.246830
 0.950000   24.151505   -418.666600
 0.955000   22.323528   -317.306246
 0.960000   20.978443   -230.080985
 0.965000   20.022718   -161.098987
 0.970000   19.367453   -109.579290
 0.975000   18.926925   -74.488093
 0.980000   18.622572   -53.866352
 0.985000   18.388261   -44.763816
 0.990000   18.174934   -44.394488
 0.995000   17.944316   -50.459378
 1.000000   17.670340   -59.131184
201 psinorm vpol1(km/s) dvpol1/dpsiN
 0.000000   0.000102   4.011719
 0.005000   0.021758   4.650781
 0.010000   0.046609   5.290625
 0.015000   0.074664   5.897266
 0.020000   0.105582   6.426953
 0.025000   0.138934   6.863672
 0.030000   0.174219   7.166797
 0.035000   0.210602   7.359375
 0.040000   0.247813   7.489844
 0.045000   0.285500   7.570312
 0.050000   0.323516   7.633594
 0.055000   0.361836   7.698047
 0.060000   0.400496   7.791797
 0.065000   0.439754   7.921484
 0.070000   0.479711   8.075391
 0.075000   0.520508   8.265625
 0.080000   0.562367   8.487500
 0.085000   0.605383   8.755469
 0.090000   0.649922   9.080078
 0.095000   0.696184   9.398047
 0.100000   0.743902   9.685156
 0.105000   0.793035   9.943750
 0.110000   0.843340   10.153125
 0.115000   0.894566   10.296484
 0.120000   0.946305   10.341406
 0.125000   0.997980   10.269922
 0.130000   1.049004   10.075391
 0.135000   1.098734   9.775781
 0.140000   1.146762   9.392188
 0.145000   1.192656   8.917187
 0.150000   1.235934   8.387109
 0.155000   1.276527   7.836328
 0.160000   1.314297   7.259766
 0.165000   1.349125   6.658594
 0.170000   1.380883   6.050000
 0.175000   1.409625   5.440625
 0.180000   1.435289   4.867578
 0.185000   1.458301   4.352734
 0.190000   1.478816   3.843359
 0.195000   1.496734   3.328906
 0.200000   1.512105   2.779297
 0.205000   1.524527   2.172266
 0.210000   1.533828   1.524609
 0.215000   1.539773   0.842969
 0.220000   1.542258   0.141797
 0.225000   1.541191   -0.559375
 0.230000   1.536664   -1.245703
 0.235000   1.528734   -1.905078
 0.240000   1.517613   -2.537109
 0.245000   1.503363   -3.155469
 0.250000   1.486059   -3.785547
 0.255000   1.465508   -4.442578
 0.260000   1.441633   -5.150000
 0.265000   1.414008   -5.932031
 0.270000   1.382313   -6.784375
 0.275000   1.346164   -7.714453
 0.280000   1.305168   -8.720312
 0.285000   1.258961   -9.803906
 0.290000   1.207129   -10.965625
 0.295000   1.149305   -12.159766
 0.300000   1.085531   -13.302344
 0.305000   1.016281   -14.351953
 0.310000   0.942012   -15.298828
 0.315000   0.863293   -16.151172
 0.320000   0.780500   -16.933984
 0.325000   0.693953   -17.711328
 0.330000   0.603387   -18.566016
 0.335000   0.508293   -19.500391
 0.340000   0.408383   -20.517578
 0.345000   0.303117   -21.640234
 0.350000   0.191980   -22.913281
 0.355000   0.073984   -24.326563
 0.360000   -0.051285   -25.763477
 0.365000   -0.183650   -27.124805
 0.370000   -0.322533   -28.323633
 0.375000   -0.466887   -29.261523
 0.380000   -0.615148   -29.842969
 0.385000   -0.765316   -30.320703
 0.390000   -0.918355   -31.077930
 0.395000   -1.076096   -32.229687
 0.400000   -1.240652   -33.828906
 0.405000   -1.414385   -35.889844
 0.410000   -1.599551   -38.675195
 0.415000   -1.801137   -41.786523
 0.420000   -2.017416   -44.695703
 0.425000   -2.248094   -47.426758
 0.430000   -2.491684   -49.724219
 0.435000   -2.745336   -51.337500
 0.440000   -3.005059   -51.839844
 0.445000   -3.263734   -50.793750
 0.450000   -3.512996   -48.327930
 0.455000   -3.747014   -44.830078
 0.460000   -3.961297   -40.572461
 0.465000   -4.152738   -35.717383
 0.470000   -4.318471   -30.477930
 0.475000   -4.457518   -25.599609
 0.480000   -4.574467   -21.472070
 0.485000   -4.672238   -17.958398
 0.490000   -4.754051   -15.103320
 0.495000   -4.823271   -12.920117
 0.500000   -4.883252   -11.475977
 0.505000   -4.938031   -10.606445
 0.510000   -4.989316   -9.942383
 0.515000   -5.037455   -9.305469
 0.520000   -5.082371   -8.621289
 0.525000   -5.123668   -7.874023
 0.530000   -5.161111   -7.032031
 0.535000   -5.193988   -6.047461
 0.540000   -5.221586   -4.958594
 0.545000   -5.243574   -3.796484
 0.550000   -5.259551   -2.583594
 0.555000   -5.269410   -1.370898
 0.560000   -5.273260   -0.196484
 0.565000   -5.271375   0.887305
 0.570000   -5.264387   1.857813
 0.575000   -5.252797   2.698828
 0.580000   -5.237398   3.400391
 0.585000   -5.218793   3.950391
 0.590000   -5.197895   4.375781
 0.595000   -5.175035   4.733203
 0.600000   -5.150563   5.028711
 0.605000   -5.124748   5.287305
 0.610000   -5.097689   5.531641
 0.615000   -5.069432   5.767578
 0.620000   -5.040014   5.984668
 0.625000   -5.009585   6.172949
 0.630000   -4.978284   6.317871
 0.635000   -4.946406   6.418359
 0.640000   -4.914101   6.485254
 0.645000   -4.881554   6.509473
 0.650000   -4.849006   6.500098
 0.655000   -4.816553   6.473242
 0.660000   -4.784273   6.430469
 0.665000   -4.752248   6.371875
 0.670000   -4.720555   6.300684
 0.675000   -4.689241   6.215918
 0.680000   -4.658396   6.077246
 0.685000   -4.628469   5.856543
 0.690000   -4.599830   5.553223
 0.695000   -4.572937   5.160254
 0.700000   -4.548228   4.665625
 0.705000   -4.526280   4.060059
 0.710000   -4.507627   3.351660
 0.715000   -4.492764   2.565039
 0.720000   -4.481977   1.720996
 0.725000   -4.475554   0.839160
 0.730000   -4.473585   -0.052051
 0.735000   -4.476074   -0.932031
 0.740000   -4.482905   -1.789941
 0.745000   -4.493974   -2.675830
 0.750000   -4.509664   -3.670996
 0.755000   -4.530684   -4.873047
 0.760000   -4.558394   -6.495459
 0.765000   -4.595638   -8.662793
 0.770000   -4.645022   -11.384912
 0.775000   -4.709487   -14.695703
 0.780000   -4.791979   -18.577966
 0.785000   -4.895267   -22.940186
 0.790000   -5.021381   -27.696851
 0.795000   -5.172235   -32.326904
 0.800000   -5.344650   -36.331427
 0.805000   -5.535550   -39.587421
 0.810000   -5.740524   -41.847437
 0.815000   -5.954024   -42.898846
 0.820000   -6.169513   -42.363312
 0.825000   -6.377657   -40.591174
 0.830000   -6.575424   -38.189868
 0.835000   -6.759556   -35.291919
 0.840000   -6.928344   -32.225220
 0.845000   -7.081808   -29.318140
 0.850000   -7.221525   -27.090820
 0.855000   -7.352716   -26.030664
 0.860000   -7.481832   -25.892529
 0.865000   -7.611642   -26.155908
 0.870000   -7.743391   -26.543896
 0.875000   -7.877081   -26.974121
 0.880000   -8.013132   -27.419385
 0.885000   -8.151274   -27.200293
 0.890000   -8.285135   -25.590234
 0.895000   -8.407177   -22.185449
 0.900000   -8.506989   -16.445801
 0.905000   -8.571635   -7.966113
 0.910000   -8.586650   3.543750
 0.915000   -8.536197   17.895117
 0.920000   -8.407699   34.375391
 0.925000   -8.192443   51.894727
 0.930000   -7.888752   68.637500
 0.935000   -7.506068   82.635156
 0.940000   -7.062400   90.587695
 0.945000   -6.600191   88.772656
 0.950000   -6.174674   76.685156
 0.955000   -5.833340   58.402148
 0.960000   -5.590652   43.499609
 0.965000   -5.398344   45.896484
 0.970000   -5.131687   77.778125
 0.975000   -4.620563   141.274219
 0.980000   -3.718945   223.906250
 0.985000   -2.381500   301.763672
 0.990000   -0.701309   349.396875
 0.995000   1.112469   347.577344
 1.000000   2.774465   317.221094
3 N Z A of ION SPECIES
 6.000000   6.000000   12.010700
 1.000000   1.000000   2.000000
 1.000000   1.000000   2.000000
