201 psinorm ne(10^20/m^3) dne/dpsiN
 0.000000   0.503255   -0.403158
 0.005000   0.501247   -0.399938
 0.010000   0.499256   -0.396731
 0.015000   0.497280   -0.393549
 0.020000   0.495320   -0.390393
 0.025000   0.493376   -0.387262
 0.030000   0.491448   -0.384155
 0.035000   0.489535   -0.381073
 0.040000   0.487637   -0.378016
 0.045000   0.485755   -0.374982
 0.050000   0.483887   -0.371972
 0.055000   0.482035   -0.368986
 0.060000   0.480197   -0.366023
 0.065000   0.478375   -0.363084
 0.070000   0.476566   -0.360167
 0.075000   0.474773   -0.357273
 0.080000   0.472994   -0.354401
 0.085000   0.471229   -0.351551
 0.090000   0.469478   -0.348724
 0.095000   0.467742   -0.345918
 0.100000   0.466019   -0.343134
 0.105000   0.464310   -0.340371
 0.110000   0.462615   -0.337629
 0.115000   0.460934   -0.334908
 0.120000   0.459266   -0.332208
 0.125000   0.457612   -0.329528
 0.130000   0.455971   -0.326869
 0.135000   0.454343   -0.324230
 0.140000   0.452729   -0.321610
 0.145000   0.451127   -0.319010
 0.150000   0.449539   -0.316430
 0.155000   0.447963   -0.313869
 0.160000   0.446400   -0.311327
 0.165000   0.444850   -0.308805
 0.170000   0.443312   -0.306300
 0.175000   0.441787   -0.303815
 0.180000   0.440274   -0.301347
 0.185000   0.438773   -0.298898
 0.190000   0.437285   -0.296467
 0.195000   0.435808   -0.294054
 0.200000   0.434344   -0.291658
 0.205000   0.432892   -0.289280
 0.210000   0.431451   -0.286919
 0.215000   0.430023   -0.284576
 0.220000   0.428606   -0.282249
 0.225000   0.427200   -0.279939
 0.230000   0.425806   -0.277645
 0.235000   0.424424   -0.275368
 0.240000   0.423053   -0.273108
 0.245000   0.421693   -0.270863
 0.250000   0.420344   -0.268635
 0.255000   0.419006   -0.266422
 0.260000   0.417680   -0.264225
 0.265000   0.416364   -0.262043
 0.270000   0.415059   -0.259877
 0.275000   0.413765   -0.257726
 0.280000   0.412482   -0.255589
 0.285000   0.411209   -0.253468
 0.290000   0.409947   -0.251362
 0.295000   0.408696   -0.249270
 0.300000   0.407455   -0.247192
 0.305000   0.406224   -0.245129
 0.310000   0.405003   -0.243080
 0.315000   0.403793   -0.241045
 0.320000   0.402593   -0.239024
 0.325000   0.401403   -0.237016
 0.330000   0.400223   -0.235022
 0.335000   0.399053   -0.233042
 0.340000   0.397892   -0.231075
 0.345000   0.396742   -0.229121
 0.350000   0.395601   -0.227180
 0.355000   0.394470   -0.225252
 0.360000   0.393349   -0.223337
 0.365000   0.392237   -0.221435
 0.370000   0.391134   -0.219545
 0.375000   0.390041   -0.217667
 0.380000   0.388958   -0.215802
 0.385000   0.387883   -0.213948
 0.390000   0.386818   -0.212107
 0.395000   0.385762   -0.210278
 0.400000   0.384715   -0.208461
 0.405000   0.383678   -0.206655
 0.410000   0.382649   -0.204861
 0.415000   0.381629   -0.203078
 0.420000   0.380618   -0.201306
 0.425000   0.379616   -0.199546
 0.430000   0.378622   -0.197797
 0.435000   0.377638   -0.196059
 0.440000   0.376662   -0.194331
 0.445000   0.375695   -0.192615
 0.450000   0.374736   -0.190909
 0.455000   0.373785   -0.189213
 0.460000   0.372844   -0.187528
 0.465000   0.371910   -0.185853
 0.470000   0.370985   -0.184189
 0.475000   0.370068   -0.182534
 0.480000   0.369160   -0.180890
 0.485000   0.368259   -0.179255
 0.490000   0.367367   -0.177630
 0.495000   0.366483   -0.176015
 0.500000   0.365607   -0.174409
 0.505000   0.364739   -0.172813
 0.510000   0.363879   -0.171226
 0.515000   0.363027   -0.169649
 0.520000   0.362182   -0.168080
 0.525000   0.361346   -0.166521
 0.530000   0.360517   -0.164971
 0.535000   0.359696   -0.163429
 0.540000   0.358883   -0.161897
 0.545000   0.358077   -0.160373
 0.550000   0.357279   -0.158858
 0.555000   0.356489   -0.157351
 0.560000   0.355706   -0.155852
 0.565000   0.354930   -0.154362
 0.570000   0.354162   -0.152880
 0.575000   0.353401   -0.151407
 0.580000   0.352648   -0.149941
 0.585000   0.351902   -0.148483
 0.590000   0.351163   -0.147034
 0.595000   0.350432   -0.145592
 0.600000   0.349707   -0.144157
 0.605000   0.348990   -0.142731
 0.610000   0.348280   -0.141312
 0.615000   0.347577   -0.139900
 0.620000   0.346881   -0.138496
 0.625000   0.346192   -0.137099
 0.630000   0.345510   -0.135709
 0.635000   0.344835   -0.134326
 0.640000   0.344167   -0.132950
 0.645000   0.343505   -0.131582
 0.650000   0.342851   -0.130220
 0.655000   0.342203   -0.128865
 0.660000   0.341562   -0.127516
 0.665000   0.340928   -0.126175
 0.670000   0.340300   -0.124840
 0.675000   0.339680   -0.123511
 0.680000   0.339065   -0.122189
 0.685000   0.338458   -0.120873
 0.690000   0.337857   -0.119563
 0.695000   0.337262   -0.118260
 0.700000   0.336674   -0.116963
 0.705000   0.336092   -0.115671
 0.710000   0.335517   -0.114386
 0.715000   0.334949   -0.113107
 0.720000   0.334386   -0.111833
 0.725000   0.333830   -0.110565
 0.730000   0.333281   -0.109303
 0.735000   0.332737   -0.108047
 0.740000   0.332200   -0.106795
 0.745000   0.331669   -0.105550
 0.750000   0.331145   -0.104310
 0.755000   0.330626   -0.103075
 0.760000   0.330114   -0.101845
 0.765000   0.329608   -0.100621
 0.770000   0.329108   -0.099402
 0.775000   0.328614   -0.098188
 0.780000   0.328126   -0.096978
 0.785000   0.327644   -0.095774
 0.790000   0.327168   -0.094575
 0.795000   0.326698   -0.093380
 0.800000   0.326234   -0.092190
 0.805000   0.325776   -0.091005
 0.810000   0.325324   -0.089824
 0.815000   0.324878   -0.088648
 0.820000   0.324438   -0.087477
 0.825000   0.324003   -0.086310
 0.830000   0.323575   -0.085147
 0.835000   0.323152   -0.083988
 0.840000   0.322735   -0.082834
 0.845000   0.322323   -0.081684
 0.850000   0.321918   -0.080538
 0.855000   0.321518   -0.079396
 0.860000   0.321124   -0.078258
 0.865000   0.320736   -0.077123
 0.870000   0.320353   -0.075993
 0.875000   0.319976   -0.074866
 0.880000   0.319604   -0.073742
 0.885000   0.319238   -0.072620
 0.890000   0.318878   -0.071497
 0.895000   0.318523   -0.070369
 0.900000   0.318174   -0.069224
 0.905000   0.317831   -0.068041
 0.910000   0.317494   -0.066784
 0.915000   0.317163   -0.065409
 0.920000   0.316840   -0.063949
 0.925000   0.316524   -0.062889
 0.930000   0.316211   -0.064576
 0.935000   0.315878   -0.078061
 0.940000   0.315430   -0.134506
 0.945000   0.314533   -0.331501
 0.950000   0.312115   -0.933491
 0.955000   0.305198   -2.448362
 0.960000   0.287632   -5.098425
 0.965000   0.254214   -7.469263
 0.970000   0.212939   -7.495490
 0.975000   0.179259   -5.594873
 0.980000   0.156990   -3.714736
 0.985000   0.142111   -2.594539
 0.990000   0.131045   -2.013578
 0.995000   0.121976   -1.694103
 1.000000   0.114104   -1.454636
201 psinorm te(KeV) dte/dpsiN
 0.000000   4.237411   -4.679413
 0.005000   4.214037   -4.670056
 0.010000   4.190710   -4.660634
 0.015000   4.167431   -4.651082
 0.020000   4.144200   -4.641401
 0.025000   4.121017   -4.631593
 0.030000   4.097884   -4.621659
 0.035000   4.074800   -4.611600
 0.040000   4.051768   -4.601417
 0.045000   4.028786   -4.591112
 0.050000   4.005856   -4.580687
 0.055000   3.982979   -4.570141
 0.060000   3.960155   -4.559478
 0.065000   3.937384   -4.548697
 0.070000   3.914668   -4.537801
 0.075000   3.892006   -4.526790
 0.080000   3.869400   -4.515666
 0.085000   3.846850   -4.504430
 0.090000   3.824356   -4.493084
 0.095000   3.801919   -4.481629
 0.100000   3.779540   -4.470066
 0.105000   3.757218   -4.458396
 0.110000   3.734956   -4.446621
 0.115000   3.712752   -4.434742
 0.120000   3.690608   -4.422761
 0.125000   3.668524   -4.410678
 0.130000   3.646501   -4.398495
 0.135000   3.624540   -4.386214
 0.140000   3.602639   -4.373835
 0.145000   3.580801   -4.361360
 0.150000   3.559026   -4.348791
 0.155000   3.537313   -4.336128
 0.160000   3.515664   -4.323373
 0.165000   3.494080   -4.310527
 0.170000   3.472559   -4.297592
 0.175000   3.451104   -4.284568
 0.180000   3.429713   -4.271458
 0.185000   3.408389   -4.258262
 0.190000   3.387131   -4.244982
 0.195000   3.365939   -4.231619
 0.200000   3.344815   -4.218174
 0.205000   3.323758   -4.204649
 0.210000   3.302768   -4.191045
 0.215000   3.281847   -4.177364
 0.220000   3.260995   -4.163606
 0.225000   3.240211   -4.149772
 0.230000   3.219497   -4.135865
 0.235000   3.198852   -4.121885
 0.240000   3.178278   -4.107834
 0.245000   3.157774   -4.093713
 0.250000   3.137341   -4.079523
 0.255000   3.116979   -4.065266
 0.260000   3.096688   -4.050942
 0.265000   3.076469   -4.036554
 0.270000   3.056323   -4.022102
 0.275000   3.036248   -4.007588
 0.280000   3.016247   -3.993012
 0.285000   2.996318   -3.978377
 0.290000   2.976463   -3.963683
 0.295000   2.956681   -3.948931
 0.300000   2.936974   -3.934124
 0.305000   2.917340   -3.919262
 0.310000   2.897781   -3.904346
 0.315000   2.878297   -3.889377
 0.320000   2.858887   -3.874358
 0.325000   2.839553   -3.859288
 0.330000   2.820294   -3.844170
 0.335000   2.801111   -3.829004
 0.340000   2.782004   -3.813792
 0.345000   2.762973   -3.798535
 0.350000   2.744019   -3.783234
 0.355000   2.725141   -3.767891
 0.360000   2.706340   -3.752505
 0.365000   2.687616   -3.737080
 0.370000   2.668969   -3.721615
 0.375000   2.650400   -3.706113
 0.380000   2.631908   -3.690574
 0.385000   2.613494   -3.674999
 0.390000   2.595158   -3.659389
 0.395000   2.576900   -3.643747
 0.400000   2.558721   -3.628072
 0.405000   2.540620   -3.612366
 0.410000   2.522597   -3.596630
 0.415000   2.504653   -3.580866
 0.420000   2.486788   -3.565074
 0.425000   2.469003   -3.549256
 0.430000   2.451296   -3.533412
 0.435000   2.433668   -3.517544
 0.440000   2.416120   -3.501653
 0.445000   2.398652   -3.485739
 0.450000   2.381263   -3.469805
 0.455000   2.363954   -3.453851
 0.460000   2.346724   -3.437878
 0.465000   2.329575   -3.421888
 0.470000   2.312506   -3.405881
 0.475000   2.295516   -3.389858
 0.480000   2.278607   -3.373821
 0.485000   2.261778   -3.357770
 0.490000   2.245029   -3.341707
 0.495000   2.228361   -3.325632
 0.500000   2.211773   -3.309547
 0.505000   2.195266   -3.293453
 0.510000   2.178838   -3.277350
 0.515000   2.162492   -3.261240
 0.520000   2.146226   -3.245124
 0.525000   2.130041   -3.229002
 0.530000   2.113936   -3.212876
 0.535000   2.097912   -3.196746
 0.540000   2.081969   -3.180614
 0.545000   2.066106   -3.164481
 0.550000   2.050324   -3.148347
 0.555000   2.034622   -3.132213
 0.560000   2.019002   -3.116081
 0.565000   2.003462   -3.099951
 0.570000   1.988002   -3.083825
 0.575000   1.972623   -3.067702
 0.580000   1.957325   -3.051585
 0.585000   1.942107   -3.035474
 0.590000   1.926970   -3.019369
 0.595000   1.911914   -3.003273
 0.600000   1.896938   -2.987185
 0.605000   1.882042   -2.971106
 0.610000   1.867227   -2.955038
 0.615000   1.852492   -2.938981
 0.620000   1.837837   -2.922936
 0.625000   1.823262   -2.906905
 0.630000   1.808768   -2.890887
 0.635000   1.794353   -2.874883
 0.640000   1.780019   -2.858895
 0.645000   1.765764   -2.842924
 0.650000   1.751590   -2.826969
 0.655000   1.737495   -2.811032
 0.660000   1.723479   -2.795114
 0.665000   1.709544   -2.779215
 0.670000   1.695687   -2.763337
 0.675000   1.681910   -2.747479
 0.680000   1.668212   -2.731643
 0.685000   1.654594   -2.715830
 0.690000   1.641054   -2.700040
 0.695000   1.627593   -2.684274
 0.700000   1.614211   -2.668532
 0.705000   1.600908   -2.652816
 0.710000   1.587683   -2.637126
 0.715000   1.574537   -2.621463
 0.720000   1.561469   -2.605827
 0.725000   1.548479   -2.590219
 0.730000   1.535566   -2.574641
 0.735000   1.522732   -2.559092
 0.740000   1.509975   -2.543573
 0.745000   1.497296   -2.528085
 0.750000   1.484695   -2.512628
 0.755000   1.472170   -2.497204
 0.760000   1.459723   -2.481812
 0.765000   1.447352   -2.466454
 0.770000   1.435058   -2.451129
 0.775000   1.422841   -2.435840
 0.780000   1.410700   -2.420585
 0.785000   1.398635   -2.405366
 0.790000   1.386646   -2.390183
 0.795000   1.374733   -2.375038
 0.800000   1.362896   -2.359929
 0.805000   1.351134   -2.344858
 0.810000   1.339447   -2.329825
 0.815000   1.327835   -2.314830
 0.820000   1.316299   -2.299875
 0.825000   1.304837   -2.284958
 0.830000   1.293449   -2.270082
 0.835000   1.282136   -2.255246
 0.840000   1.270897   -2.240453
 0.845000   1.259731   -2.225706
 0.850000   1.248640   -2.211012
 0.855000   1.237621   -2.196383
 0.860000   1.226676   -2.181845
 0.865000   1.215803   -2.167439
 0.870000   1.205001   -2.153244
 0.875000   1.194270   -2.139397
 0.880000   1.183607   -2.126139
 0.885000   1.173009   -2.113889
 0.890000   1.162469   -2.103373
 0.895000   1.151975   -2.095836
 0.900000   1.141510   -2.093402
 0.905000   1.131041   -2.099686
 0.910000   1.120513   -2.120799
 0.915000   1.109833   -2.167028
 0.920000   1.098843   -2.255592
 0.925000   1.087277   -2.415093
 0.930000   1.074692   -2.692542
 0.935000   1.060352   -3.163921
 0.940000   1.043053   -3.948717
 0.945000   1.020865   -5.226110
 0.950000   0.990792   -7.242260
 0.955000   0.948442   -10.278788
 0.960000   0.888004   -14.521142
 0.965000   0.803231   -19.754530
 0.970000   0.690459   -24.943466
 0.975000   0.553796   -28.146039
 0.980000   0.408998   -27.473719
 0.985000   0.279059   -22.792129
 0.990000   0.181077   -16.165038
 0.995000   0.117408   -10.119940
 1.000000   0.079878   -4.892425
201 psinorm ni(10^20/m^3) dni/dpsiN
 0.000000   0.298989   -0.469723
 0.005000   0.296882   -0.372846
 0.010000   0.295260   -0.294352
 0.015000   0.293939   -0.239100
 0.020000   0.292869   -0.193093
 0.025000   0.292008   -0.153760
 0.030000   0.291332   -0.120428
 0.035000   0.290804   -0.092738
 0.040000   0.290404   -0.068474
 0.045000   0.290119   -0.047988
 0.050000   0.289924   -0.030818
 0.055000   0.289811   -0.016219
 0.060000   0.289762   -0.004739
 0.065000   0.289763   0.004190
 0.070000   0.289804   0.011135
 0.075000   0.289875   0.016085
 0.080000   0.289965   0.019403
 0.085000   0.290069   0.021361
 0.090000   0.290179   0.022127
 0.095000   0.290290   0.021920
 0.100000   0.290398   0.020778
 0.105000   0.290498   0.018851
 0.110000   0.290586   0.015954
 0.115000   0.290657   0.012268
 0.120000   0.290709   0.008260
 0.125000   0.290740   0.003875
 0.130000   0.290748   -0.000877
 0.135000   0.290731   -0.005934
 0.140000   0.290688   -0.011256
 0.145000   0.290618   -0.016745
 0.150000   0.290521   -0.022336
 0.155000   0.290395   -0.028005
 0.160000   0.290241   -0.033692
 0.165000   0.290058   -0.039362
 0.170000   0.289847   -0.044998
 0.175000   0.289608   -0.050556
 0.180000   0.289342   -0.056256
 0.185000   0.289046   -0.062016
 0.190000   0.288722   -0.067437
 0.195000   0.288371   -0.072568
 0.200000   0.287996   -0.077532
 0.205000   0.287596   -0.082319
 0.210000   0.287173   -0.086931
 0.215000   0.286727   -0.091362
 0.220000   0.286259   -0.095606
 0.225000   0.285771   -0.100243
 0.230000   0.285257   -0.104670
 0.235000   0.284724   -0.108276
 0.240000   0.284174   -0.111657
 0.245000   0.283607   -0.114850
 0.250000   0.283025   -0.117866
 0.255000   0.282429   -0.121108
 0.260000   0.281814   -0.124335
 0.265000   0.281185   -0.127008
 0.270000   0.280544   -0.129410
 0.275000   0.279891   -0.131724
 0.280000   0.279227   -0.134103
 0.285000   0.278550   -0.136725
 0.290000   0.277860   -0.139095
 0.295000   0.277159   -0.141050
 0.300000   0.276449   -0.142950
 0.305000   0.275730   -0.144916
 0.310000   0.275000   -0.147064
 0.315000   0.274259   -0.148983
 0.320000   0.273510   -0.150539
 0.325000   0.272754   -0.152009
 0.330000   0.271990   -0.153568
 0.335000   0.271218   -0.155123
 0.340000   0.270439   -0.156379
 0.345000   0.269654   -0.157435
 0.350000   0.268865   -0.158452
 0.355000   0.268070   -0.159640
 0.360000   0.267268   -0.160763
 0.365000   0.266462   -0.161644
 0.370000   0.265652   -0.162532
 0.375000   0.264837   -0.163551
 0.380000   0.264016   -0.164607
 0.385000   0.263191   -0.165494
 0.390000   0.262361   -0.166278
 0.395000   0.261528   -0.167059
 0.400000   0.260691   -0.167857
 0.405000   0.259849   -0.168500
 0.410000   0.259006   -0.168917
 0.415000   0.258160   -0.169204
 0.420000   0.257314   -0.169455
 0.425000   0.256466   -0.169530
 0.430000   0.255618   -0.169318
 0.435000   0.254772   -0.168936
 0.440000   0.253929   -0.168510
 0.445000   0.253087   -0.168015
 0.450000   0.252249   -0.167348
 0.455000   0.251414   -0.166589
 0.460000   0.250583   -0.165821
 0.465000   0.249756   -0.165030
 0.470000   0.248933   -0.164125
 0.475000   0.248114   -0.163085
 0.480000   0.247302   -0.161926
 0.485000   0.246495   -0.160637
 0.490000   0.245695   -0.159103
 0.495000   0.244904   -0.157294
 0.500000   0.244122   -0.155253
 0.505000   0.243352   -0.153034
 0.510000   0.242592   -0.150562
 0.515000   0.241846   -0.147788
 0.520000   0.241114   -0.144802
 0.525000   0.240398   -0.141686
 0.530000   0.239697   -0.138397
 0.535000   0.239014   -0.134893
 0.540000   0.238348   -0.131249
 0.545000   0.237701   -0.127510
 0.550000   0.237073   -0.123681
 0.555000   0.236465   -0.119697
 0.560000   0.235876   -0.115557
 0.565000   0.235309   -0.111292
 0.570000   0.234763   -0.106942
 0.575000   0.234240   -0.102439
 0.580000   0.233739   -0.097733
 0.585000   0.233262   -0.092894
 0.590000   0.232810   -0.087963
 0.595000   0.232383   -0.082960
 0.600000   0.231981   -0.077864
 0.605000   0.231604   -0.072699
 0.610000   0.231254   -0.067515
 0.615000   0.230929   -0.062341
 0.620000   0.230630   -0.057173
 0.625000   0.230357   -0.051981
 0.630000   0.230110   -0.046775
 0.635000   0.229889   -0.041577
 0.640000   0.229695   -0.036395
 0.645000   0.229525   -0.031222
 0.650000   0.229382   -0.026048
 0.655000   0.229265   -0.020886
 0.660000   0.229173   -0.015761
 0.665000   0.229107   -0.010645
 0.670000   0.229067   -0.005415
 0.675000   0.229053   0.000149
 0.680000   0.229069   0.006694
 0.685000   0.229120   0.014564
 0.690000   0.229214   0.023450
 0.695000   0.229355   0.033192
 0.700000   0.229546   0.043695
 0.705000   0.229792   0.054749
 0.710000   0.230094   0.066541
 0.715000   0.230457   0.078375
 0.720000   0.230877   0.089030
 0.725000   0.231347   0.098363
 0.730000   0.231861   0.106306
 0.735000   0.232410   0.112558
 0.740000   0.232987   0.116854
 0.745000   0.233579   0.118663
 0.750000   0.234173   0.117778
 0.755000   0.234757   0.114559
 0.760000   0.235319   0.109304
 0.765000   0.235850   0.102324
 0.770000   0.236342   0.093730
 0.775000   0.236787   0.083932
 0.780000   0.237181   0.074148
 0.785000   0.237529   0.064938
 0.790000   0.237831   0.056215
 0.795000   0.238091   0.048157
 0.800000   0.238312   0.040819
 0.805000   0.238499   0.034358
 0.810000   0.238656   0.028937
 0.815000   0.238788   0.024175
 0.820000   0.238898   0.019605
 0.825000   0.238984   0.015083
 0.830000   0.239048   0.010568
 0.835000   0.239090   0.006082
 0.840000   0.239109   0.001726
 0.845000   0.239107   -0.002421
 0.850000   0.239085   -0.006351
 0.855000   0.239044   -0.010027
 0.860000   0.238985   -0.013418
 0.865000   0.238910   -0.016470
 0.870000   0.238820   -0.019169
 0.875000   0.238718   -0.021535
 0.880000   0.238605   -0.023566
 0.885000   0.238482   -0.025249
 0.890000   0.238352   -0.026539
 0.895000   0.238217   -0.027298
 0.900000   0.238079   -0.027398
 0.905000   0.237943   -0.026601
 0.910000   0.237813   -0.024326
 0.915000   0.237700   -0.019542
 0.920000   0.237618   -0.010482
 0.925000   0.237595   0.006313
 0.930000   0.237681   0.034004
 0.935000   0.237935   0.071357
 0.940000   0.238395   0.098732
 0.945000   0.238922   0.031580
 0.950000   0.238710   -0.384056
 0.955000   0.235082   -1.646421
 0.960000   0.222246   -4.001900
 0.965000   0.195063   -6.096941
 0.970000   0.161277   -5.931644
 0.975000   0.135746   -3.978777
 0.980000   0.121489   -2.197973
 0.985000   0.113766   -1.288286
 0.990000   0.108606   -0.967144
 0.995000   0.104095   -0.897125
 1.000000   0.099635   -0.886934
201 psinorm ti(KeV) dti/dpsiN
 0.000000   5.541846   0.002949
 0.005000   5.541050   -0.321428
 0.010000   5.538632   -0.650023
 0.015000   5.534550   -0.986601
 0.020000   5.528766   -1.330214
 0.025000   5.521247   -1.679815
 0.030000   5.511968   -2.034254
 0.035000   5.500905   -2.392297
 0.040000   5.488045   -2.752311
 0.045000   5.473382   -3.113073
 0.050000   5.456914   -3.473626
 0.055000   5.438646   -3.832627
 0.060000   5.418588   -4.188919
 0.065000   5.396756   -4.541477
 0.070000   5.373173   -4.888853
 0.075000   5.347868   -5.230417
 0.080000   5.320869   -5.565771
 0.085000   5.292210   -5.893655
 0.090000   5.261932   -6.213188
 0.095000   5.230078   -6.523726
 0.100000   5.196695   -6.824394
 0.105000   5.161834   -7.115205
 0.110000   5.125543   -7.396419
 0.115000   5.087870   -7.667296
 0.120000   5.048870   -7.927088
 0.125000   5.008599   -8.175010
 0.130000   4.967120   -8.409969
 0.135000   4.924500   -8.630934
 0.140000   4.880810   -8.837418
 0.145000   4.836125   -9.029086
 0.150000   4.790520   -9.205549
 0.155000   4.744070   -9.366512
 0.160000   4.696854   -9.511508
 0.165000   4.648955   -9.639925
 0.170000   4.600455   -9.751551
 0.175000   4.551439   -9.846275
 0.180000   4.501992   -9.923961
 0.185000   4.452200   -9.984625
 0.190000   4.402146   -10.027244
 0.195000   4.351927   -10.048294
 0.200000   4.301663   -10.047614
 0.205000   4.251451   -10.029369
 0.210000   4.201370   -9.997511
 0.215000   4.151476   -9.956050
 0.220000   4.101809   -9.908130
 0.225000   4.052395   -9.857449
 0.230000   4.003235   -9.805543
 0.235000   3.954339   -9.751105
 0.240000   3.905724   -9.693736
 0.245000   3.857402   -9.633335
 0.250000   3.809390   -9.570420
 0.255000   3.761698   -9.507463
 0.260000   3.714316   -9.436457
 0.265000   3.667333   -9.351383
 0.270000   3.620802   -9.255672
 0.275000   3.574776   -9.148654
 0.280000   3.529315   -9.030030
 0.285000   3.484476   -8.900967
 0.290000   3.440305   -8.756944
 0.295000   3.396907   -8.595918
 0.300000   3.354346   -8.420980
 0.305000   3.312697   -8.231388
 0.310000   3.272032   -8.027120
 0.315000   3.232426   -7.806752
 0.320000   3.193965   -7.580764
 0.325000   3.156618   -7.359617
 0.330000   3.120369   -7.142128
 0.335000   3.085197   -6.929198
 0.340000   3.051077   -6.721674
 0.345000   3.017980   -6.520089
 0.350000   2.985876   -6.326546
 0.355000   2.954715   -6.141552
 0.360000   2.924460   -5.963515
 0.365000   2.895079   -5.792213
 0.370000   2.866538   -5.627467
 0.375000   2.838805   -5.470923
 0.380000   2.811829   -5.319448
 0.385000   2.785610   -5.166373
 0.390000   2.760165   -5.009733
 0.395000   2.735513   -4.849285
 0.400000   2.711672   -4.685377
 0.405000   2.688659   -4.516342
 0.410000   2.666509   -4.344167
 0.415000   2.645217   -4.176587
 0.420000   2.624743   -4.017451
 0.425000   2.605043   -3.867494
 0.430000   2.586068   -3.727468
 0.435000   2.567768   -3.595700
 0.440000   2.550111   -3.472426
 0.445000   2.533044   -3.360355
 0.450000   2.516508   -3.258795
 0.455000   2.500456   -3.166463
 0.460000   2.484843   -3.083373
 0.465000   2.469622   -3.009287
 0.470000   2.454750   -2.944961
 0.475000   2.440173   -2.891015
 0.480000   2.425840   -2.846358
 0.485000   2.411709   -2.809850
 0.490000   2.397741   -2.780376
 0.495000   2.383905   -2.756187
 0.500000   2.370180   -2.733848
 0.505000   2.356567   -2.711205
 0.510000   2.343068   -2.689555
 0.515000   2.329671   -2.670050
 0.520000   2.316367   -2.652753
 0.525000   2.303144   -2.637299
 0.530000   2.289994   -2.622893
 0.535000   2.276915   -2.610291
 0.540000   2.263891   -2.600043
 0.545000   2.250914   -2.591431
 0.550000   2.237977   -2.584337
 0.555000   2.225071   -2.578504
 0.560000   2.212192   -2.573295
 0.565000   2.199338   -2.569859
 0.570000   2.186493   -2.568817
 0.575000   2.173650   -2.569175
 0.580000   2.160802   -2.570854
 0.585000   2.147941   -2.573755
 0.590000   2.135064   -2.577828
 0.595000   2.122163   -2.583042
 0.600000   2.109234   -2.589014
 0.605000   2.096273   -2.595327
 0.610000   2.083280   -2.601818
 0.615000   2.070255   -2.608295
 0.620000   2.057197   -2.615362
 0.625000   2.044101   -2.622165
 0.630000   2.030976   -2.627507
 0.635000   2.017826   -2.631649
 0.640000   2.004659   -2.634367
 0.645000   1.991482   -2.635424
 0.650000   1.978305   -2.635633
 0.655000   1.965126   -2.635238
 0.660000   1.951953   -2.634351
 0.665000   1.938783   -2.633868
 0.670000   1.925614   -2.633778
 0.675000   1.912445   -2.633739
 0.680000   1.899276   -2.634676
 0.685000   1.886098   -2.633250
 0.690000   1.872944   -2.624804
 0.695000   1.859850   -2.609674
 0.700000   1.846847   -2.588483
 0.705000   1.833965   -2.561628
 0.710000   1.821231   -2.529004
 0.715000   1.808675   -2.491029
 0.720000   1.796321   -2.449580
 0.725000   1.784179   -2.405772
 0.730000   1.772263   -2.359956
 0.735000   1.760580   -2.312764
 0.740000   1.749135   -2.263540
 0.745000   1.737944   -2.213297
 0.750000   1.727002   -2.165921
 0.755000   1.716285   -2.123094
 0.760000   1.705771   -2.085224
 0.765000   1.695433   -2.053315
 0.770000   1.685238   -2.028018
 0.775000   1.675153   -2.008922
 0.780000   1.665149   -1.993459
 0.785000   1.655218   -1.979733
 0.790000   1.645352   -1.967713
 0.795000   1.635541   -1.957464
 0.800000   1.625777   -1.949608
 0.805000   1.616045   -1.946233
 0.810000   1.606315   -1.948691
 0.815000   1.596558   -1.957273
 0.820000   1.586742   -1.972418
 0.825000   1.576834   -1.993943
 0.830000   1.566803   -2.022278
 0.835000   1.556611   -2.058295
 0.840000   1.546220   -2.097806
 0.845000   1.535633   -2.140215
 0.850000   1.524817   -2.190310
 0.855000   1.513730   -2.249600
 0.860000   1.502321   -2.319680
 0.865000   1.490533   -2.405412
 0.870000   1.478267   -2.501592
 0.875000   1.465517   -2.604780
 0.880000   1.452220   -2.721208
 0.885000   1.438305   -2.852237
 0.890000   1.423697   -2.999941
 0.895000   1.408306   -3.182557
 0.900000   1.391872   -3.403021
 0.905000   1.374276   -3.657731
 0.910000   1.355294   -3.960394
 0.915000   1.334672   -4.318420
 0.920000   1.312110   -4.740849
 0.925000   1.287263   -5.273911
 0.930000   1.259371   -5.897519
 0.935000   1.228288   -6.570885
 0.940000   1.193662   -7.314741
 0.945000   1.155141   -8.123215
 0.950000   1.112430   -8.979630
 0.955000   1.065344   -9.894790
 0.960000   1.013482   -10.791119
 0.965000   0.957433   -11.564284
 0.970000   0.897839   -12.185481
 0.975000   0.835578   -12.599450
 0.980000   0.771845   -12.748394
 0.985000   0.708094   -12.586417
 0.990000   0.645981   -12.079683
 0.995000   0.587297   -11.255563
 1.000000   0.533425   -10.293436
201 psinorm nb(10^20/m^3) dnb/dpsiN
 0.000000   0.098924   0.066560
 0.005000   0.099025   -0.026083
 0.010000   0.098663   -0.100354
 0.015000   0.098022   -0.151404
 0.020000   0.097149   -0.193233
 0.025000   0.096090   -0.228413
 0.030000   0.094865   -0.257620
 0.035000   0.093513   -0.281212
 0.040000   0.092053   -0.301410
 0.045000   0.090499   -0.317862
 0.050000   0.088874   -0.331032
 0.055000   0.087189   -0.341668
 0.060000   0.085458   -0.349222
 0.065000   0.083697   -0.354263
 0.070000   0.081915   -0.357365
 0.075000   0.080123   -0.358515
 0.080000   0.078330   -0.358075
 0.085000   0.076542   -0.356320
 0.090000   0.074767   -0.353418
 0.095000   0.073008   -0.349587
 0.100000   0.071271   -0.344864
 0.105000   0.069559   -0.339400
 0.110000   0.067877   -0.333011
 0.115000   0.066229   -0.325881
 0.120000   0.064618   -0.318477
 0.125000   0.063045   -0.310749
 0.130000   0.061511   -0.302704
 0.135000   0.060018   -0.294409
 0.140000   0.058567   -0.285905
 0.145000   0.057158   -0.277291
 0.150000   0.055794   -0.268634
 0.155000   0.054472   -0.259962
 0.160000   0.053194   -0.251334
 0.165000   0.051959   -0.242788
 0.170000   0.050766   -0.234345
 0.175000   0.049615   -0.226049
 0.180000   0.048506   -0.217683
 0.185000   0.047439   -0.209330
 0.190000   0.046412   -0.201390
 0.195000   0.045425   -0.193817
 0.200000   0.044474   -0.186486
 0.205000   0.043560   -0.179406
 0.210000   0.042680   -0.172576
 0.215000   0.041834   -0.166001
 0.220000   0.041020   -0.159681
 0.225000   0.040237   -0.153022
 0.230000   0.039490   -0.146615
 0.235000   0.038771   -0.141075
 0.240000   0.038079   -0.135808
 0.245000   0.037413   -0.130785
 0.250000   0.036771   -0.126000
 0.255000   0.036153   -0.121045
 0.260000   0.035561   -0.116190
 0.265000   0.034991   -0.111995
 0.270000   0.034441   -0.108174
 0.275000   0.033909   -0.104545
 0.280000   0.033395   -0.100959
 0.285000   0.032900   -0.097242
 0.290000   0.032423   -0.093896
 0.295000   0.031961   -0.091084
 0.300000   0.031512   -0.088429
 0.305000   0.031076   -0.085801
 0.310000   0.030654   -0.083074
 0.315000   0.030246   -0.080653
 0.320000   0.029848   -0.078650
 0.325000   0.029459   -0.076763
 0.330000   0.029080   -0.074812
 0.335000   0.028711   -0.072879
 0.340000   0.028351   -0.071257
 0.345000   0.027999   -0.069850
 0.350000   0.027653   -0.068507
 0.355000   0.027313   -0.067033
 0.360000   0.026982   -0.065677
 0.365000   0.026657   -0.064624
 0.370000   0.026336   -0.063626
 0.375000   0.026020   -0.062564
 0.380000   0.025711   -0.061513
 0.385000   0.025405   -0.060651
 0.390000   0.025104   -0.059893
 0.395000   0.024806   -0.059123
 0.400000   0.024513   -0.058294
 0.405000   0.024223   -0.057545
 0.410000   0.023937   -0.056916
 0.415000   0.023654   -0.056295
 0.420000   0.023374   -0.055576
 0.425000   0.023099   -0.054889
 0.430000   0.022825   -0.054337
 0.435000   0.022555   -0.053799
 0.440000   0.022288   -0.053175
 0.445000   0.022023   -0.052552
 0.450000   0.021762   -0.052042
 0.455000   0.021503   -0.051557
 0.460000   0.021246   -0.051022
 0.465000   0.020993   -0.050465
 0.470000   0.020742   -0.049985
 0.475000   0.020493   -0.049554
 0.480000   0.020246   -0.049098
 0.485000   0.020002   -0.048597
 0.490000   0.019760   -0.048141
 0.495000   0.019521   -0.047745
 0.500000   0.019283   -0.047343
 0.505000   0.019047   -0.046872
 0.510000   0.018814   -0.046417
 0.515000   0.018583   -0.046041
 0.520000   0.018354   -0.045669
 0.525000   0.018126   -0.045233
 0.530000   0.017901   -0.044791
 0.535000   0.017678   -0.044424
 0.540000   0.017457   -0.044076
 0.545000   0.017238   -0.043702
 0.550000   0.017020   -0.043302
 0.555000   0.016805   -0.042945
 0.560000   0.016591   -0.042633
 0.565000   0.016378   -0.042328
 0.570000   0.016167   -0.041978
 0.575000   0.015958   -0.041646
 0.580000   0.015751   -0.041384
 0.585000   0.015545   -0.041134
 0.590000   0.015340   -0.040876
 0.595000   0.015136   -0.040616
 0.600000   0.014933   -0.040400
 0.605000   0.014732   -0.040223
 0.610000   0.014531   -0.040056
 0.615000   0.014331   -0.039885
 0.620000   0.014132   -0.039731
 0.625000   0.013934   -0.039618
 0.630000   0.013736   -0.039524
 0.635000   0.013539   -0.039444
 0.640000   0.013342   -0.039375
 0.645000   0.013145   -0.039327
 0.650000   0.012948   -0.039305
 0.655000   0.012752   -0.039297
 0.660000   0.012555   -0.039302
 0.665000   0.012359   -0.039331
 0.670000   0.012162   -0.039383
 0.675000   0.011965   -0.039446
 0.680000   0.011768   -0.039523
 0.685000   0.011570   -0.039611
 0.690000   0.011372   -0.039721
 0.695000   0.011173   -0.039849
 0.700000   0.010973   -0.039976
 0.705000   0.010773   -0.040102
 0.710000   0.010572   -0.040232
 0.715000   0.010371   -0.040366
 0.720000   0.010168   -0.040516
 0.725000   0.009965   -0.040664
 0.730000   0.009762   -0.040789
 0.735000   0.009558   -0.040909
 0.740000   0.009353   -0.041024
 0.745000   0.009147   -0.041132
 0.750000   0.008941   -0.041244
 0.755000   0.008735   -0.041350
 0.760000   0.008528   -0.041437
 0.765000   0.008320   -0.041515
 0.770000   0.008113   -0.041584
 0.775000   0.007905   -0.041646
 0.780000   0.007696   -0.041700
 0.785000   0.007488   -0.041741
 0.790000   0.007279   -0.041760
 0.795000   0.007070   -0.041756
 0.800000   0.006861   -0.041731
 0.805000   0.006653   -0.041685
 0.810000   0.006444   -0.041617
 0.815000   0.006237   -0.041526
 0.820000   0.006029   -0.041405
 0.825000   0.005823   -0.041251
 0.830000   0.005617   -0.041072
 0.835000   0.005412   -0.040864
 0.840000   0.005208   -0.040622
 0.845000   0.005006   -0.040345
 0.850000   0.004805   -0.040030
 0.855000   0.004605   -0.039674
 0.860000   0.004408   -0.039276
 0.865000   0.004213   -0.038838
 0.870000   0.004019   -0.038359
 0.875000   0.003829   -0.037868
 0.880000   0.003641   -0.037388
 0.885000   0.003455   -0.036911
 0.890000   0.003272   -0.036431
 0.895000   0.003091   -0.035950
 0.900000   0.002912   -0.035472
 0.905000   0.002736   -0.035005
 0.910000   0.002562   -0.034558
 0.915000   0.002390   -0.034160
 0.920000   0.002221   -0.033876
 0.925000   0.002052   -0.033760
 0.930000   0.001883   -0.033825
 0.935000   0.001713   -0.034046
 0.940000   0.001542   -0.034342
 0.945000   0.001370   -0.034534
 0.950000   0.001197   -0.034285
 0.955000   0.001027   -0.033094
 0.960000   0.000866   -0.030908
 0.965000   0.000718   -0.028340
 0.970000   0.000583   -0.025304
 0.975000   0.000465   -0.021158
 0.980000   0.000371   -0.016622
 0.985000   0.000299   -0.013640
 0.990000   0.000235   -0.012573
 0.995000   0.000173   -0.012606
 1.000000   0.000109   -0.013125
201 psinorm pb(KPa) dpb/dpsiN
 0.000000   40.940191   3.152203
 0.005000   40.867752   -32.127925
 0.010000   40.618912   -60.795019
 0.015000   40.259802   -80.865251
 0.020000   39.810259   -97.012502
 0.025000   39.289677   -110.233969
 0.030000   38.707920   -120.755724
 0.035000   38.082119   -129.002290
 0.040000   37.417897   -136.128674
 0.045000   36.720833   -141.822634
 0.050000   35.999670   -146.371767
 0.055000   35.257115   -149.929341
 0.060000   34.500377   -152.115139
 0.065000   33.735964   -153.283999
 0.070000   32.967537   -153.709639
 0.075000   32.198867   -153.394988
 0.080000   31.433587   -152.483247
 0.085000   30.674035   -151.087830
 0.090000   29.922709   -149.297758
 0.095000   29.181057   -147.194797
 0.100000   28.450761   -144.765310
 0.105000   27.733404   -142.061637
 0.110000   27.030145   -139.027855
 0.115000   26.343126   -135.747719
 0.120000   25.672667   -132.396526
 0.125000   25.019160   -128.946063
 0.130000   24.383207   -125.402454
 0.135000   23.765136   -121.789975
 0.140000   23.165307   -118.123047
 0.145000   22.583905   -114.435258
 0.150000   22.020954   -110.751126
 0.155000   21.476394   -107.084374
 0.160000   20.950111   -103.453659
 0.165000   20.441857   -99.872928
 0.170000   19.951381   -96.350832
 0.175000   19.478349   -92.901534
 0.180000   19.022366   -89.450623
 0.185000   18.583843   -86.019915
 0.190000   18.162167   -82.752297
 0.195000   17.756320   -79.638152
 0.200000   17.365785   -76.629735
 0.205000   16.990023   -73.729703
 0.210000   16.628488   -70.938234
 0.215000   16.280640   -68.255135
 0.220000   15.945937   -65.678964
 0.225000   15.623851   -62.965628
 0.230000   15.316281   -60.356762
 0.235000   15.020283   -58.105327
 0.240000   14.735227   -55.968871
 0.245000   14.460594   -53.933047
 0.250000   14.195897   -51.992011
 0.255000   13.940674   -49.992802
 0.260000   13.695969   -48.037975
 0.265000   13.460294   -46.338315
 0.270000   13.232586   -44.784790
 0.275000   13.012446   -43.308536
 0.280000   12.799500   -41.852695
 0.285000   12.593920   -40.348871
 0.290000   12.396012   -38.987385
 0.295000   12.204046   -37.830573
 0.300000   12.017706   -36.735397
 0.305000   11.836692   -35.654172
 0.310000   11.661164   -34.538046
 0.315000   11.491311   -33.540622
 0.320000   11.325758   -32.704538
 0.325000   11.164266   -31.915034
 0.330000   11.006608   -31.103358
 0.335000   10.853232   -30.300597
 0.340000   10.703602   -29.618413
 0.345000   10.557048   -29.019098
 0.350000   10.413411   -28.446098
 0.355000   10.272587   -27.825720
 0.360000   10.135154   -27.251797
 0.365000   10.000069   -26.793585
 0.370000   9.867218   -26.357953
 0.375000   9.736490   -25.900031
 0.380000   9.608217   -25.448059
 0.385000   9.482009   -25.069246
 0.390000   9.357525   -24.732385
 0.395000   9.234685   -24.393255
 0.400000   9.113592   -24.029762
 0.405000   8.994388   -23.693238
 0.410000   8.876660   -23.401175
 0.415000   8.760376   -23.112360
 0.420000   8.645536   -22.786137
 0.425000   8.532514   -22.472323
 0.430000   8.420813   -22.211113
 0.435000   8.310403   -21.955615
 0.440000   8.201257   -21.669663
 0.445000   8.093707   -21.386430
 0.450000   7.987393   -21.147113
 0.455000   7.882236   -20.917748
 0.460000   7.778215   -20.673042
 0.465000   7.675505   -20.424945
 0.470000   7.573966   -20.208763
 0.475000   7.473418   -20.013202
 0.480000   7.373834   -19.811219
 0.485000   7.275305   -19.597191
 0.490000   7.177862   -19.400145
 0.495000   7.081304   -19.224091
 0.500000   6.985621   -19.046845
 0.505000   6.890835   -18.848361
 0.510000   6.797137   -18.655931
 0.515000   6.704276   -18.489323
 0.520000   6.612244   -18.324060
 0.525000   6.521036   -18.136914
 0.530000   6.430875   -17.947261
 0.535000   6.341563   -17.784203
 0.540000   6.253033   -17.629119
 0.545000   6.165272   -17.465620
 0.550000   6.078377   -17.291300
 0.555000   5.992359   -17.130051
 0.560000   5.907076   -16.983931
 0.565000   5.822519   -16.839117
 0.570000   5.738685   -16.679951
 0.575000   5.655720   -16.528318
 0.580000   5.573402   -16.400060
 0.585000   5.491719   -16.274150
 0.590000   5.410660   -16.144211
 0.595000   5.330277   -16.014564
 0.600000   5.250515   -15.904686
 0.605000   5.171230   -15.809542
 0.610000   5.092419   -15.713708
 0.615000   5.014093   -15.613228
 0.620000   4.936287   -15.518909
 0.625000   4.858904   -15.438298
 0.630000   4.781904   -15.363976
 0.635000   4.705264   -15.293956
 0.640000   4.628965   -15.227755
 0.645000   4.552987   -15.168030
 0.650000   4.477284   -15.115598
 0.655000   4.401831   -15.067843
 0.660000   4.326606   -15.024055
 0.665000   4.251590   -14.988173
 0.670000   4.176724   -14.959663
 0.675000   4.101994   -14.934893
 0.680000   4.027375   -14.914179
 0.685000   3.952852   -14.896318
 0.690000   3.878412   -14.886407
 0.695000   3.803988   -14.883171
 0.700000   3.729580   -14.878815
 0.705000   3.655200   -14.874038
 0.710000   3.580840   -14.870253
 0.715000   3.506497   -14.866903
 0.720000   3.432171   -14.868876
 0.725000   3.357808   -14.868888
 0.730000   3.283482   -14.860440
 0.735000   3.209204   -14.849438
 0.740000   3.134988   -14.835632
 0.745000   3.060848   -14.818353
 0.750000   2.986804   -14.800634
 0.755000   2.912841   -14.780125
 0.760000   2.839003   -14.754089
 0.765000   2.765300   -14.724874
 0.770000   2.691754   -14.692443
 0.775000   2.618376   -14.658465
 0.780000   2.545169   -14.622389
 0.785000   2.472152   -14.581447
 0.790000   2.399355   -14.533742
 0.795000   2.326815   -14.478809
 0.800000   2.254567   -14.416621
 0.805000   2.182649   -14.346968
 0.810000   2.111097   -14.269655
 0.815000   2.039952   -14.183873
 0.820000   1.969258   -14.086302
 0.825000   1.899089   -13.976600
 0.830000   1.829492   -13.858415
 0.835000   1.760505   -13.730431
 0.840000   1.692188   -13.590502
 0.845000   1.624600   -13.438797
 0.850000   1.557800   -13.274526
 0.855000   1.491855   -13.097112
 0.860000   1.426829   -12.906411
 0.865000   1.362790   -12.701950
 0.870000   1.299810   -12.480974
 0.875000   1.237981   -12.251306
 0.880000   1.177296   -12.023828
 0.885000   1.117742   -11.796513
 0.890000   1.059331   -11.567160
 0.895000   1.002071   -11.336760
 0.900000   0.945964   -11.108590
 0.905000   0.890985   -10.886995
 0.910000   0.837094   -10.675388
 0.915000   0.784231   -10.483093
 0.920000   0.732263   -10.327933
 0.925000   0.680952   -10.227356
 0.930000   0.629989   -10.191418
 0.935000   0.579037   -10.221417
 0.940000   0.527775   -10.303069
 0.945000   0.476007   -10.383490
 0.950000   0.423940   -10.328141
 0.955000   0.372725   -9.921403
 0.960000   0.324726   -9.161985
 0.965000   0.281106   -8.559726
 0.970000   0.239129   -8.478222
 0.975000   0.196323   -8.442091
 0.980000   0.154708   -7.945850
 0.985000   0.116865   -7.160825
 0.990000   0.083100   -6.118190
 0.995000   0.055683   -4.971534
 1.000000   0.033384   -3.947866
201 psinorm ptot(KPa) dptot/dpsiN
 0.000000   103.212743   -103.647496
 0.005000   102.625208   -131.366579
 0.010000   101.899077   -154.119340
 0.015000   101.084015   -170.369024
 0.020000   100.195387   -183.547680
 0.025000   99.248538   -194.423863
 0.030000   98.251148   -203.161208
 0.035000   97.216926   -210.148776
 0.040000   96.149661   -216.339169
 0.045000   95.053534   -221.446273
 0.050000   93.935198   -225.712587
 0.055000   92.796408   -229.219163
 0.060000   91.643006   -231.627162
 0.065000   90.480136   -233.235353
 0.070000   89.310653   -234.259234
 0.075000   88.137544   -234.697737
 0.080000   86.963675   -234.658911
 0.085000   85.790955   -234.224366
 0.090000   84.621432   -233.462446
 0.095000   83.456331   -232.431171
 0.100000   82.297120   -231.107337
 0.105000   81.145257   -229.528671
 0.110000   80.001833   -227.653486
 0.115000   78.868722   -225.544574
 0.120000   77.746388   -223.333390
 0.125000   76.635388   -220.990710
 0.130000   75.536481   -218.515021
 0.135000   74.450238   -215.919053
 0.140000   73.377290   -213.210354
 0.145000   72.318135   -210.412033
 0.150000   71.273170   -207.540766
 0.155000   70.242727   -204.606218
 0.160000   69.227107   -201.619859
 0.165000   68.226528   -198.589621
 0.170000   67.241211   -195.521657
 0.175000   66.271312   -192.426595
 0.180000   65.316945   -189.245103
 0.185000   64.378861   -185.993239
 0.190000   63.457013   -182.780705
 0.195000   62.551054   -179.585334
 0.200000   61.661160   -176.368446
 0.205000   60.787369   -173.153493
 0.210000   59.929625   -169.961041
 0.215000   59.087759   -166.810989
 0.220000   58.261515   -163.717870
 0.225000   57.450580   -160.493729
 0.230000   56.656577   -157.348913
 0.235000   55.877091   -154.491633
 0.240000   55.111661   -151.717655
 0.245000   54.359915   -149.015082
 0.250000   53.621510   -146.381992
 0.255000   52.896095   -143.702028
 0.260000   52.184490   -141.024783
 0.265000   51.485847   -138.500863
 0.270000   50.799481   -136.056169
 0.275000   50.125285   -133.630566
 0.280000   49.463176   -131.175177
 0.285000   48.813533   -128.637368
 0.290000   48.176802   -126.159227
 0.295000   47.551941   -123.785829
 0.300000   46.938944   -121.410299
 0.305000   46.337838   -118.988757
 0.310000   45.749056   -116.479143
 0.315000   45.173047   -114.007904
 0.320000   44.608977   -111.660901
 0.325000   44.056438   -109.387366
 0.330000   43.515104   -107.121823
 0.335000   42.985219   -104.894998
 0.340000   42.466154   -102.807773
 0.345000   41.957142   -100.830151
 0.350000   41.457852   -98.922898
 0.355000   40.967913   -97.024142
 0.360000   40.487611   -95.208768
 0.365000   40.015825   -93.536510
 0.370000   39.552246   -91.925008
 0.375000   39.096575   -90.341971
 0.380000   38.648826   -88.797029
 0.385000   38.208605   -87.318256
 0.390000   37.775643   -85.869129
 0.395000   37.349913   -84.409084
 0.400000   36.931552   -82.918957
 0.405000   36.520724   -81.435717
 0.410000   36.117195   -79.983227
 0.415000   35.720891   -78.558855
 0.420000   35.331607   -77.142833
 0.425000   34.949463   -75.781932
 0.430000   34.573787   -74.514797
 0.435000   34.204315   -73.291784
 0.440000   33.840870   -72.082408
 0.445000   33.483491   -70.929671
 0.450000   33.131573   -69.866948
 0.455000   32.784822   -68.857617
 0.460000   32.442997   -67.879221
 0.465000   32.106029   -66.941503
 0.470000   31.773582   -66.078874
 0.475000   31.445241   -65.281744
 0.480000   31.120764   -64.518952
 0.485000   30.800051   -63.779418
 0.490000   30.482970   -63.082936
 0.495000   30.169222   -62.424841
 0.500000   29.858722   -61.770401
 0.505000   29.551518   -61.092607
 0.510000   29.247796   -60.421405
 0.515000   28.947304   -59.779538
 0.520000   28.650000   -59.146064
 0.525000   28.355843   -58.499192
 0.530000   28.065008   -57.853417
 0.535000   27.777309   -57.239073
 0.540000   27.492618   -56.642542
 0.545000   27.210884   -56.046014
 0.550000   26.932157   -55.446779
 0.555000   26.656416   -54.865277
 0.560000   26.383505   -54.300966
 0.565000   26.113406   -53.745889
 0.570000   25.846046   -53.188352
 0.575000   25.581523   -52.643854
 0.580000   25.319607   -52.126217
 0.585000   25.060260   -51.616474
 0.590000   24.803442   -51.109289
 0.595000   24.549167   -50.609474
 0.600000   24.297348   -50.134128
 0.605000   24.047826   -49.677309
 0.610000   23.800575   -49.224485
 0.615000   23.555581   -48.771877
 0.620000   23.312856   -48.332423
 0.625000   23.072257   -47.909317
 0.630000   22.833763   -47.490842
 0.635000   22.597349   -47.076670
 0.640000   22.362996   -46.665683
 0.645000   22.130692   -46.259376
 0.650000   21.900402   -45.861478
 0.655000   21.672077   -45.470728
 0.660000   21.445695   -45.087511
 0.665000   21.221202   -44.718455
 0.670000   20.998510   -44.359844
 0.675000   20.777604   -44.001192
 0.680000   20.558498   -43.630405
 0.685000   20.341299   -43.225092
 0.690000   20.126248   -42.780629
 0.695000   19.913493   -42.301693
 0.700000   19.703231   -41.785887
 0.705000   19.495634   -41.240950
 0.710000   19.290821   -40.663577
 0.715000   19.088999   -40.071758
 0.720000   18.890104   -39.506733
 0.725000   18.693931   -38.968110
 0.730000   18.500422   -38.451360
 0.735000   18.309418   -37.970750
 0.740000   18.120715   -37.528434
 0.745000   17.934133   -37.138615
 0.750000   17.749329   -36.823095
 0.755000   17.565902   -36.576514
 0.760000   17.383564   -36.389873
 0.765000   17.202004   -36.261564
 0.770000   17.020948   -36.190901
 0.775000   16.840095   -36.168142
 0.780000   16.659267   -36.154949
 0.785000   16.478545   -36.128652
 0.790000   16.297980   -36.089562
 0.795000   16.117649   -36.033932
 0.800000   15.937641   -35.963390
 0.805000   15.758016   -35.883206
 0.810000   15.578809   -35.795676
 0.815000   15.400059   -35.709726
 0.820000   15.221711   -35.634116
 0.825000   15.043718   -35.570874
 0.830000   14.866003   -35.526167
 0.835000   14.688456   -35.501758
 0.840000   14.510985   -35.476428
 0.845000   14.333692   -35.446375
 0.850000   14.156521   -35.430009
 0.855000   13.979392   -35.432227
 0.860000   13.802199   -35.458786
 0.865000   13.624804   -35.528038
 0.870000   13.446919   -35.616322
 0.875000   13.268641   -35.718612
 0.880000   13.089733   -35.872073
 0.885000   12.909920   -36.082085
 0.890000   12.728912   -36.357622
 0.895000   12.546344   -36.776706
 0.900000   12.361145   -37.362677
 0.905000   12.172717   -38.119105
 0.910000   11.979954   -39.124782
 0.915000   11.781469   -40.453010
 0.920000   11.575424   -42.217882
 0.925000   11.359290   -44.724314
 0.930000   11.128180   -48.146974
 0.935000   10.877820   -52.925480
 0.940000   10.598926   -60.647168
 0.945000   10.271349   -75.134551
 0.950000   9.847580   -105.184246
 0.955000   9.219506   -164.721723
 0.960000   8.200363   -252.527471
 0.965000   6.694232   -316.320222
 0.970000   5.037161   -299.404025
 0.975000   3.700191   -227.894025
 0.980000   2.758220   -160.424305
 0.985000   2.095948   -113.259058
 0.990000   1.625630   -80.356213
 0.995000   1.292386   -57.424305
 1.000000   1.051387   -38.975461
201 psinorm omeg(kRad/s) domeg/dpsiN
 0.000000   63.851605   0.023335
 0.005000   63.851316   -0.138943
 0.010000   63.850215   -0.341052
 0.015000   63.847905   -0.632653
 0.020000   63.843889   -1.031194
 0.025000   63.837593   -1.550100
 0.030000   63.828388   -2.197923
 0.035000   63.815614   -2.976118
 0.040000   63.798627   -3.867852
 0.045000   63.776935   -4.852811
 0.050000   63.750098   -5.912736
 0.055000   63.717808   -7.018856
 0.060000   63.679910   -8.141386
 0.065000   63.636394   -9.253417
 0.070000   63.587376   -10.299688
 0.075000   63.533397   -11.293181
 0.080000   63.474444   -12.283960
 0.085000   63.410558   -13.266264
 0.090000   63.341781   -14.250109
 0.095000   63.268057   -15.255476
 0.100000   63.189227   -16.283553
 0.105000   63.105221   -17.349171
 0.110000   63.015735   -18.462230
 0.115000   62.920599   -19.602615
 0.120000   62.819709   -20.764513
 0.125000   62.712954   -21.948559
 0.130000   62.600223   -23.146300
 0.135000   62.481491   -24.362566
 0.140000   62.356597   -25.615986
 0.145000   62.225331   -26.910631
 0.150000   62.087491   -28.249689
 0.155000   61.942834   -29.641785
 0.160000   61.791073   -31.100976
 0.165000   61.631824   -32.628598
 0.170000   61.464787   -34.194482
 0.175000   61.289879   -35.778613
 0.180000   61.107001   -37.379158
 0.185000   60.916088   -38.988042
 0.190000   60.717121   -40.592796
 0.195000   60.510160   -42.144052
 0.200000   60.295680   -43.580566
 0.205000   60.074354   -44.877973
 0.210000   59.846900   -46.023649
 0.215000   59.614118   -47.003805
 0.220000   59.376862   -47.783023
 0.225000   59.136287   -48.300950
 0.230000   58.893853   -48.648981
 0.235000   58.649798   -48.902106
 0.240000   58.404832   -49.022726
 0.245000   58.159570   -49.030142
 0.250000   57.914530   -48.923108
 0.255000   57.670339   -48.638025
 0.260000   57.428150   -48.286156
 0.265000   57.187478   -47.950621
 0.270000   56.948644   -47.564510
 0.275000   56.711833   -47.156557
 0.280000   56.477078   -46.751859
 0.285000   56.244314   -46.349520
 0.290000   56.013583   -46.077940
 0.295000   55.783535   -45.997513
 0.300000   55.553608   -46.016106
 0.305000   55.323374   -46.101079
 0.310000   55.092597   -46.207123
 0.315000   54.861302   -46.283234
 0.320000   54.629765   -46.308452
 0.325000   54.398218   -46.287799
 0.330000   54.166887   -46.222574
 0.335000   53.935992   -46.114294
 0.340000   53.705744   -45.965121
 0.345000   53.476341   -45.762279
 0.350000   53.248121   -45.521880
 0.355000   53.021122   -45.267670
 0.360000   52.795445   -44.993316
 0.365000   52.571189   -44.701109
 0.370000   52.348433   -44.395518
 0.375000   52.127234   -44.072236
 0.380000   51.907711   -43.743795
 0.385000   51.689796   -43.419779
 0.390000   51.473513   -43.086644
 0.395000   51.258929   -42.740535
 0.400000   51.046108   -42.382789
 0.405000   50.835102   -42.013115
 0.410000   50.625977   -41.690693
 0.415000   50.418195   -41.550071
 0.420000   50.210476   -41.704776
 0.425000   50.001147   -42.211765
 0.430000   49.788358   -43.088299
 0.435000   49.570264   -44.466221
 0.440000   49.343696   -46.325861
 0.445000   49.107005   -48.342330
 0.450000   48.860273   -50.406300
 0.455000   48.602942   -52.548960
 0.460000   48.334783   -54.703953
 0.465000   48.055903   -56.938687
 0.470000   47.765396   -59.160653
 0.475000   47.464296   -60.967948
 0.480000   47.155717   -62.298489
 0.485000   46.841311   -63.281724
 0.490000   46.522900   -63.889416
 0.495000   46.202417   -64.118511
 0.500000   45.881715   -63.921487
 0.505000   45.563202   -63.315457
 0.510000   45.248560   -62.483414
 0.515000   44.938368   -61.559381
 0.520000   44.632966   -60.583583
 0.525000   44.332532   -59.570618
 0.530000   44.037260   -58.509357
 0.535000   43.747439   -57.464880
 0.540000   43.462611   -56.495784
 0.545000   43.182481   -55.594958
 0.550000   42.906662   -54.779597
 0.555000   42.634685   -54.057712
 0.560000   42.366085   -53.417453
 0.565000   42.100510   -52.934978
 0.570000   41.836735   -52.656392
 0.575000   41.573946   -52.544807
 0.580000   41.311287   -52.608911
 0.585000   41.047857   -52.855971
 0.590000   40.782727   -53.288110
 0.595000   40.514976   -53.857292
 0.600000   40.244154   -54.493402
 0.605000   39.970042   -55.166420
 0.610000   39.692490   -55.864523
 0.615000   39.411397   -56.579335
 0.620000   39.126697   -57.260834
 0.625000   38.838789   -57.933527
 0.630000   38.547361   -58.644212
 0.635000   38.252347   -59.365652
 0.640000   37.953705   -60.094775
 0.645000   37.651399   -60.831882
 0.650000   37.345386   -61.545947
 0.655000   37.035939   -62.305974
 0.660000   36.722326   -63.189731
 0.665000   36.404042   -64.171016
 0.670000   36.080616   -65.249100
 0.675000   35.751551   -66.424545
 0.680000   35.416371   -67.692822
 0.685000   35.074623   -68.884752
 0.690000   34.727523   -69.763396
 0.695000   34.376989   -70.254613
 0.700000   34.024977   -70.367715
 0.705000   33.673312   -70.151013
 0.710000   33.323467   -69.621169
 0.715000   32.977100   -68.935574
 0.720000   32.634111   -68.294241
 0.725000   32.294158   -67.690039
 0.730000   31.957211   -67.103630
 0.735000   31.623121   -66.557645
 0.740000   31.291634   -66.071289
 0.745000   30.962408   -65.716460
 0.750000   30.634470   -65.577396
 0.755000   30.306634   -65.721669
 0.760000   29.977253   -66.229863
 0.765000   29.644336   -67.143385
 0.770000   29.305819   -68.581421
 0.775000   28.958522   -70.464633
 0.780000   28.601173   -72.199481
 0.785000   28.236527   -73.505801
 0.790000   27.866115   -74.476482
 0.795000   27.491762   -75.069824
 0.800000   27.115416   -75.347783
 0.805000   26.738284   -75.420218
 0.810000   26.361214   -75.201117
 0.815000   25.986273   -74.746550
 0.820000   25.613749   -74.262202
 0.825000   25.243651   -73.810651
 0.830000   24.875642   -73.495799
 0.835000   24.508693   -73.431761
 0.840000   24.141325   -73.625082
 0.845000   23.772442   -74.296172
 0.850000   23.398363   -75.818266
 0.855000   23.014259   -78.407498
 0.860000   22.614288   -82.286360
 0.865000   22.191396   -87.876318
 0.870000   21.735525   -95.126106
 0.875000   21.240135   -103.973085
 0.880000   20.695794   -114.752161
 0.885000   20.092613   -127.494815
 0.890000   19.420846   -142.093774
 0.895000   18.671675   -158.730154
 0.900000   17.833544   -176.341637
 0.905000   16.908259   -193.695564
 0.910000   15.896589   -210.411674
 0.915000   14.804142   -225.465746
 0.920000   13.641931   -237.765820
 0.925000   12.426484   -246.304449
 0.930000   11.178887   -249.688724
 0.935000   9.929597   -246.949229
 0.940000   8.709394   -238.057211
 0.945000   7.549025   -223.313564
 0.950000   6.476259   -203.584673
 0.955000   5.513178   -179.664606
 0.960000   4.679613   -153.615564
 0.965000   3.977022   -127.807494
 0.970000   3.401538   -103.231128
 0.975000   2.944711   -80.738428
 0.980000   2.594153   -60.947755
 0.985000   2.335234   -44.020293
 0.990000   2.153951   -30.191341
 0.995000   2.033320   -19.516760
 1.000000   1.958783   -10.298129
201 psinorm omegp(kRad/s) domegp/dpsiN
 0.000000   0.015984   158.299779
 0.005000   0.647518   94.313591
 0.010000   0.959120   58.799486
 0.015000   1.235513   53.962009
 0.020000   1.498740   51.736229
 0.025000   1.752875   49.683313
 0.030000   1.995573   47.125645
 0.035000   2.224131   44.476853
 0.040000   2.440342   41.857022
 0.045000   2.642701   39.026564
 0.050000   2.830608   36.242369
 0.055000   3.005125   33.673007
 0.060000   3.167338   31.235201
 0.065000   3.317477   28.982115
 0.070000   3.457159   27.048289
 0.075000   3.587960   25.325058
 0.080000   3.710409   23.636521
 0.085000   3.824325   22.008360
 0.090000   3.930493   20.564984
 0.095000   4.029975   19.219848
 0.100000   4.122691   18.063194
 0.105000   4.210607   17.199976
 0.110000   4.294691   16.761750
 0.115000   4.378225   16.766733
 0.120000   4.462358   17.291721
 0.125000   4.551142   18.075637
 0.130000   4.643115   18.915335
 0.135000   4.740295   19.777755
 0.140000   4.840892   20.601253
 0.145000   4.946308   21.409485
 0.150000   5.054987   21.878467
 0.155000   5.165092   21.919665
 0.160000   5.274184   21.585147
 0.165000   5.380944   21.003448
 0.170000   5.484218   20.010189
 0.175000   5.581046   18.724297
 0.180000   5.671461   17.074817
 0.185000   5.751794   15.132707
 0.190000   5.822788   13.123319
 0.195000   5.883027   10.955981
 0.200000   5.932348   8.916246
 0.205000   5.972189   6.873900
 0.210000   6.001087   5.079861
 0.215000   6.022988   3.684147
 0.220000   6.037929   2.279094
 0.225000   6.045779   1.030567
 0.230000   6.048234   -0.308615
 0.235000   6.042693   -1.899184
 0.240000   6.029243   -3.574140
 0.245000   6.006951   -5.535992
 0.250000   5.973883   -7.586843
 0.255000   5.931083   -9.671842
 0.260000   5.877164   -11.945624
 0.265000   5.811627   -14.059981
 0.270000   5.736564   -16.080248
 0.275000   5.650824   -18.168521
 0.280000   5.554879   -20.014704
 0.285000   5.450677   -21.775951
 0.290000   5.337120   -23.591746
 0.295000   5.214760   -25.260844
 0.300000   5.084511   -27.024694
 0.305000   4.944513   -28.983618
 0.310000   4.794675   -30.974403
 0.315000   4.634769   -33.191241
 0.320000   4.462763   -35.704813
 0.325000   4.277721   -38.239584
 0.330000   4.080367   -40.643905
 0.335000   3.871282   -42.788286
 0.340000   3.652484   -44.468608
 0.345000   3.426596   -45.748818
 0.350000   3.194996   -46.570150
 0.355000   2.960894   -46.946816
 0.360000   2.725528   -47.217164
 0.365000   2.488722   -47.463647
 0.370000   2.250891   -47.619778
 0.375000   2.012525   -47.820634
 0.380000   1.772685   -48.219043
 0.385000   1.530334   -48.911707
 0.390000   1.283568   -49.896720
 0.395000   1.031367   -50.958015
 0.400000   0.773988   -51.883707
 0.405000   0.512530   -52.526347
 0.410000   0.248724   -52.939041
 0.415000   -0.016860   -53.775795
 0.420000   -0.289034   -55.783896
 0.425000   -0.574699   -59.190821
 0.430000   -0.880942   -64.006172
 0.435000   -1.214761   -70.350828
 0.440000   -1.584450   -78.619222
 0.445000   -2.000953   -87.317253
 0.450000   -2.457623   -95.101918
 0.455000   -2.951973   -102.031416
 0.460000   -3.477937   -107.432748
 0.465000   -4.026300   -110.809135
 0.470000   -4.586028   -111.202114
 0.475000   -5.138321   -107.736107
 0.480000   -5.663389   -101.001044
 0.485000   -6.148332   -92.067694
 0.490000   -6.584066   -81.549579
 0.495000   -6.963827   -69.707026
 0.500000   -7.281137   -57.488249
 0.505000   -7.538710   -46.537036
 0.510000   -7.746507   -37.317695
 0.515000   -7.911887   -29.632129
 0.520000   -8.042828   -23.596194
 0.525000   -8.147849   -19.087728
 0.530000   -8.233706   -16.195768
 0.535000   -8.309806   -14.686460
 0.540000   -8.380570   -13.656416
 0.545000   -8.446371   -12.646501
 0.550000   -8.507035   -11.595363
 0.555000   -8.562324   -10.538541
 0.560000   -8.612421   -9.265122
 0.565000   -8.654975   -7.658541
 0.570000   -8.689006   -5.950159
 0.575000   -8.714477   -4.130154
 0.580000   -8.730308   -2.165329
 0.585000   -8.736130   -0.210356
 0.590000   -8.732411   1.607477
 0.595000   -8.720056   3.298817
 0.600000   -8.699423   4.840996
 0.605000   -8.671646   6.097187
 0.610000   -8.638451   7.090411
 0.615000   -8.600741   7.888703
 0.620000   -8.559564   8.494457
 0.625000   -8.515797   8.908321
 0.630000   -8.470481   9.238554
 0.635000   -8.423411   9.553046
 0.640000   -8.374950   9.787179
 0.645000   -8.325540   9.998158
 0.650000   -8.274969   10.217034
 0.655000   -8.223369   10.402217
 0.660000   -8.170947   10.488180
 0.665000   -8.118487   10.528783
 0.670000   -8.065659   10.570859
 0.675000   -8.012779   10.560964
 0.680000   -7.960049   10.518345
 0.685000   -7.907595   10.475716
 0.690000   -7.855292   10.436207
 0.695000   -7.803233   10.334948
 0.700000   -7.751942   10.198375
 0.705000   -7.701250   10.034700
 0.710000   -7.651595   9.778662
 0.715000   -7.603463   9.411522
 0.720000   -7.557480   8.945862
 0.725000   -7.514004   8.420610
 0.730000   -7.473274   7.797531
 0.735000   -7.436029   7.070890
 0.740000   -7.402565   6.301520
 0.745000   -7.373014   5.514747
 0.750000   -7.347418   4.698729
 0.755000   -7.326027   3.881218
 0.760000   -7.308606   3.112383
 0.765000   -7.294903   2.378771
 0.770000   -7.284818   1.624810
 0.775000   -7.278655   0.839411
 0.780000   -7.276424   0.015645
 0.785000   -7.278498   -0.929544
 0.790000   -7.285719   -2.082452
 0.795000   -7.299323   -3.389280
 0.800000   -7.319612   -4.782356
 0.805000   -7.347146   -6.280710
 0.810000   -7.382419   -7.837774
 0.815000   -7.425524   -9.395001
 0.820000   -7.476369   -10.993052
 0.825000   -7.535454   -12.610439
 0.830000   -7.602474   -14.118870
 0.835000   -7.676643   -15.456451
 0.840000   -7.757038   -16.584085
 0.845000   -7.842484   -17.459884
 0.850000   -7.931637   -17.960269
 0.855000   -8.022087   -18.008663
 0.860000   -8.111724   -17.699842
 0.865000   -8.199085   -17.140546
 0.870000   -8.283129   -16.367094
 0.875000   -8.362756   -15.432846
 0.880000   -8.437457   -14.369908
 0.885000   -8.506455   -13.000187
 0.890000   -8.567459   -11.179715
 0.895000   -8.618252   -8.923205
 0.900000   -8.656691   -6.198640
 0.905000   -8.680239   -2.891969
 0.910000   -8.685611   1.203413
 0.915000   -8.668205   6.309558
 0.920000   -8.622515   12.602414
 0.925000   -8.542180   20.249794
 0.930000   -8.420018   29.508396
 0.935000   -8.247097   41.633520
 0.940000   -8.003682   56.156864
 0.945000   -7.685528   66.089551
 0.950000   -7.342787   64.586942
 0.955000   -7.039658   49.078658
 0.960000   -6.852000   21.833152
 0.965000   -6.821327   1.595946
 0.970000   -6.836041   34.457956
 0.975000   -6.476747   174.054902
 0.980000   -5.095492   432.435117
 0.985000   -2.152396   731.184332
 0.990000   2.216352   905.630988
 0.995000   6.903914   805.987568
 1.000000   10.276227   542.937855
201 psinorm omgvb(kRad/s) domgvb/dpsiN
 0.000000   63.867589   158.323115
 0.005000   64.498833   94.174648
 0.010000   64.809335   58.458434
 0.015000   65.083418   53.329356
 0.020000   65.342629   50.705035
 0.025000   65.590468   48.133214
 0.030000   65.823961   44.927723
 0.035000   66.039745   41.500734
 0.040000   66.238968   37.989169
 0.045000   66.419637   34.173754
 0.050000   66.580706   30.329633
 0.055000   66.722933   26.654151
 0.060000   66.847248   23.093815
 0.065000   66.953871   19.728699
 0.070000   67.044534   16.748600
 0.075000   67.121357   14.031877
 0.080000   67.184853   11.352561
 0.085000   67.234883   8.742096
 0.090000   67.272274   6.314875
 0.095000   67.298032   3.964372
 0.100000   67.311918   1.779641
 0.105000   67.315828   -0.149195
 0.110000   67.310426   -1.700479
 0.115000   67.298823   -2.835882
 0.120000   67.282067   -3.472792
 0.125000   67.264095   -3.872922
 0.130000   67.243338   -4.230965
 0.135000   67.221786   -4.584810
 0.140000   67.197490   -5.014734
 0.145000   67.171638   -5.501146
 0.150000   67.142478   -6.371222
 0.155000   67.107926   -7.722120
 0.160000   67.065257   -9.515828
 0.165000   67.012768   -11.625150
 0.170000   66.949006   -14.184293
 0.175000   66.870925   -17.054315
 0.180000   66.778463   -20.304341
 0.185000   66.667882   -23.855335
 0.190000   66.539909   -27.469476
 0.195000   66.393187   -31.188071
 0.200000   66.228028   -34.664320
 0.205000   66.046544   -38.004073
 0.210000   65.847988   -40.943788
 0.215000   65.637106   -43.319659
 0.220000   65.414791   -45.503928
 0.225000   65.182067   -47.270383
 0.230000   64.942087   -48.957595
 0.235000   64.692491   -50.801290
 0.240000   64.434074   -52.596867
 0.245000   64.166522   -54.566134
 0.250000   63.888413   -56.509951
 0.255000   63.601422   -58.309867
 0.260000   63.305314   -60.231781
 0.265000   62.999105   -62.010602
 0.270000   62.685208   -63.644759
 0.275000   62.362657   -65.325079
 0.280000   62.031958   -66.766563
 0.285000   61.694991   -68.125471
 0.290000   61.350703   -69.669686
 0.295000   60.998295   -71.258356
 0.300000   60.638119   -73.040799
 0.305000   60.267887   -75.084697
 0.310000   59.887272   -77.181526
 0.315000   59.496071   -79.474475
 0.320000   59.092528   -82.013264
 0.325000   58.675939   -84.527383
 0.330000   58.247254   -86.866479
 0.335000   57.807274   -88.902580
 0.340000   57.358228   -90.433729
 0.345000   56.902937   -91.511096
 0.350000   56.443117   -92.092031
 0.355000   55.982016   -92.214487
 0.360000   55.520972   -92.210480
 0.365000   55.059911   -92.164756
 0.370000   54.599325   -92.015296
 0.375000   54.139758   -91.892870
 0.380000   53.680396   -91.962838
 0.385000   53.220130   -92.331486
 0.390000   52.757081   -92.983364
 0.395000   52.290296   -93.698550
 0.400000   51.820096   -94.266496
 0.405000   51.347631   -94.539462
 0.410000   50.874701   -94.629734
 0.415000   50.401334   -95.325866
 0.420000   49.921442   -97.488672
 0.425000   49.426447   -101.402587
 0.430000   48.907416   -107.094470
 0.435000   48.355503   -114.817048
 0.440000   47.759246   -124.945083
 0.445000   47.106052   -135.659583
 0.450000   46.402650   -145.508219
 0.455000   45.650970   -154.580376
 0.460000   44.856846   -162.136701
 0.465000   44.029603   -167.747822
 0.470000   43.179368   -170.362767
 0.475000   42.325975   -168.704055
 0.480000   41.492328   -163.299534
 0.485000   40.692980   -155.349418
 0.490000   39.938833   -145.438994
 0.495000   39.238590   -133.825537
 0.500000   38.600578   -121.409736
 0.505000   38.024492   -109.852493
 0.510000   37.502053   -99.801109
 0.515000   37.026481   -91.191510
 0.520000   36.590138   -84.179777
 0.525000   36.184684   -78.658346
 0.530000   35.803554   -74.705125
 0.535000   35.437632   -72.151341
 0.540000   35.082041   -70.152200
 0.545000   34.736110   -68.241459
 0.550000   34.399626   -66.374961
 0.555000   34.072361   -64.596253
 0.560000   33.753664   -62.682575
 0.565000   33.445535   -60.593519
 0.570000   33.147729   -58.606551
 0.575000   32.859469   -56.674962
 0.580000   32.580979   -54.774240
 0.585000   32.311727   -53.066327
 0.590000   32.050316   -51.680633
 0.595000   31.794921   -50.558475
 0.600000   31.544731   -49.652406
 0.605000   31.298397   -49.069233
 0.610000   31.054039   -48.774112
 0.615000   30.810655   -48.690632
 0.620000   30.567132   -48.766376
 0.625000   30.322992   -49.025205
 0.630000   30.076880   -49.405658
 0.635000   29.828935   -49.812606
 0.640000   29.578754   -50.307596
 0.645000   29.325859   -50.833723
 0.650000   29.070417   -51.328913
 0.655000   28.812570   -51.903756
 0.660000   28.551380   -52.701550
 0.665000   28.285555   -53.642233
 0.670000   28.014957   -54.678241
 0.675000   27.738772   -55.863581
 0.680000   27.456321   -57.174478
 0.685000   27.167027   -58.409036
 0.690000   26.872231   -59.327189
 0.695000   26.573755   -59.919665
 0.700000   26.273034   -60.169340
 0.705000   25.972062   -60.116313
 0.710000   25.671871   -59.842507
 0.715000   25.373637   -59.524052
 0.720000   25.076631   -59.348379
 0.725000   24.780153   -59.269429
 0.730000   24.483936   -59.306099
 0.735000   24.187092   -59.486754
 0.740000   23.889069   -59.769769
 0.745000   23.589395   -60.201712
 0.750000   23.287052   -60.878667
 0.755000   22.980608   -61.840451
 0.760000   22.668647   -63.117480
 0.765000   22.349433   -64.764615
 0.770000   22.021001   -66.956611
 0.775000   21.679867   -69.625222
 0.780000   21.324749   -72.183836
 0.785000   20.958029   -74.435345
 0.790000   20.580395   -76.558934
 0.795000   20.192439   -78.459104
 0.800000   19.795804   -80.130139
 0.805000   19.391138   -81.700928
 0.810000   18.978795   -83.038891
 0.815000   18.560749   -84.141551
 0.820000   18.137380   -85.255255
 0.825000   17.708196   -86.421089
 0.830000   17.273169   -87.614669
 0.835000   16.832050   -88.888212
 0.840000   16.384287   -90.209167
 0.845000   15.929958   -91.756055
 0.850000   15.466726   -93.778535
 0.855000   14.992173   -96.416161
 0.860000   14.502564   -99.986203
 0.865000   13.992311   -105.016864
 0.870000   13.452396   -111.493201
 0.875000   12.877379   -119.405931
 0.880000   12.258337   -129.122069
 0.885000   11.586158   -140.495002
 0.890000   10.853386   -153.273489
 0.895000   10.053423   -167.653359
 0.900000   9.176853   -182.540277
 0.905000   8.228020   -196.587533
 0.910000   7.210978   -209.208262
 0.915000   6.135938   -219.156188
 0.920000   5.019416   -225.163406
 0.925000   3.884304   -226.054655
 0.930000   2.758869   -220.180327
 0.935000   1.682500   -205.315710
 0.940000   0.705712   -181.900348
 0.945000   -0.136503   -157.224013
 0.950000   -0.866528   -138.997730
 0.955000   -1.526480   -130.585948
 0.960000   -2.172388   -131.782412
 0.965000   -2.844305   -126.211548
 0.970000   -3.434503   -68.773172
 0.975000   -3.532036   93.316474
 0.980000   -2.501338   371.487362
 0.985000   0.182837   687.164039
 0.990000   4.370302   875.439647
 0.995000   8.937234   786.470808
 1.000000   12.235010   532.639725
201 psinorm omgpp(kRad/s) domgpp/dpsiN
 0.000000   -0.052702   -26.316063
 0.005000   -0.213122   -37.852102
 0.010000   -0.431223   -44.085915
 0.015000   -0.653982   -44.954908
 0.020000   -0.880772   -45.687137
 0.025000   -1.110853   -46.265868
 0.030000   -1.343431   -46.696369
 0.035000   -1.577817   -46.970707
 0.040000   -1.813138   -47.073567
 0.045000   -2.048552   -47.008516
 0.050000   -2.283223   -46.756888
 0.055000   -2.516121   -46.322385
 0.060000   -2.746447   -45.817051
 0.065000   -2.974292   -45.220728
 0.070000   -3.198654   -44.456952
 0.075000   -3.418861   -43.564674
 0.080000   -3.634301   -42.524557
 0.085000   -3.844107   -41.335827
 0.090000   -4.047659   -40.172135
 0.095000   -4.245828   -38.993094
 0.100000   -4.437590   -37.684101
 0.105000   -4.622669   -36.320850
 0.110000   -4.800799   -34.906721
 0.115000   -4.971736   -33.459848
 0.120000   -5.135397   -31.943767
 0.125000   -5.291174   -30.274631
 0.130000   -5.438143   -28.468843
 0.135000   -5.575863   -26.583952
 0.140000   -5.703983   -24.636703
 0.145000   -5.822230   -22.617558
 0.150000   -5.930159   -20.571192
 0.155000   -6.027941   -18.506982
 0.160000   -6.115228   -16.378777
 0.165000   -6.191729   -14.197065
 0.170000   -6.257199   -11.970930
 0.175000   -6.311439   -9.612253
 0.180000   -6.353322   -7.320019
 0.185000   -6.384639   -5.099115
 0.190000   -6.404313   -2.650262
 0.195000   -6.411141   -0.032169
 0.200000   -6.404634   2.611029
 0.205000   -6.385031   5.185856
 0.210000   -6.352776   6.712670
 0.215000   -6.317904   7.346629
 0.220000   -6.279310   8.060599
 0.225000   -6.237298   8.672383
 0.230000   -6.192586   9.160980
 0.235000   -6.145689   9.172974
 0.240000   -6.100856   9.205458
 0.245000   -6.053634   9.885641
 0.250000   -6.002000   10.765038
 0.255000   -5.945984   11.742510
 0.260000   -5.884574   12.913539
 0.265000   -5.816848   13.869175
 0.270000   -5.745883   15.257955
 0.275000   -5.664269   17.435258
 0.280000   -5.571530   19.422562
 0.285000   -5.470043   21.165894
 0.290000   -5.359871   22.889467
 0.295000   -5.241148   24.627422
 0.300000   -5.113597   26.756013
 0.305000   -4.973588   28.975071
 0.310000   -4.823846   30.534359
 0.315000   -4.668245   31.375532
 0.320000   -4.510091   31.594707
 0.325000   -4.352298   31.458268
 0.330000   -4.195508   30.960820
 0.335000   -4.042689   29.949443
 0.340000   -3.896014   28.924313
 0.345000   -3.753446   28.099057
 0.350000   -3.615023   27.276442
 0.355000   -3.480682   26.431462
 0.360000   -3.350709   25.488506
 0.365000   -3.225797   24.690188
 0.370000   -3.103807   24.086714
 0.375000   -2.984930   23.541316
 0.380000   -2.868394   23.178735
 0.385000   -2.753142   23.073218
 0.390000   -2.637661   23.448382
 0.395000   -2.518658   23.966995
 0.400000   -2.397991   24.068224
 0.405000   -2.277976   23.782888
 0.410000   -2.160163   23.170001
 0.415000   -2.046276   22.239004
 0.420000   -1.937773   21.146754
 0.425000   -1.834809   19.359494
 0.430000   -1.744178   17.351267
 0.435000   -1.661296   15.857521
 0.440000   -1.585602   14.466508
 0.445000   -1.516631   13.152484
 0.450000   -1.454078   12.048448
 0.455000   -1.396146   10.730762
 0.460000   -1.346770   9.251114
 0.465000   -1.303635   7.999225
 0.470000   -1.266778   6.724771
 0.475000   -1.236388   5.399002
 0.480000   -1.212788   3.908944
 0.485000   -1.197298   2.368559
 0.490000   -1.189102   1.140466
 0.495000   -1.185893   0.244255
 0.500000   -1.186660   -0.503060
 0.505000   -1.190924   -1.205538
 0.510000   -1.198715   -1.922002
 0.515000   -1.210144   -2.662347
 0.520000   -1.225338   -3.376064
 0.525000   -1.243905   -4.009025
 0.530000   -1.265429   -4.565875
 0.535000   -1.289563   -5.057504
 0.540000   -1.316004   -5.414287
 0.545000   -1.343706   -5.768459
 0.550000   -1.373688   -6.221865
 0.555000   -1.405925   -6.639000
 0.560000   -1.440078   -7.023320
 0.565000   -1.476158   -7.413490
 0.570000   -1.514213   -7.781544
 0.575000   -1.553974   -8.208141
 0.580000   -1.596295   -8.675600
 0.585000   -1.640730   -9.028527
 0.590000   -1.686580   -9.270918
 0.595000   -1.733439   -9.432333
 0.600000   -1.780903   -9.532236
 0.605000   -1.828761   -9.581222
 0.610000   -1.876715   -9.548240
 0.615000   -1.924244   -9.452160
 0.620000   -1.971237   -9.325952
 0.625000   -2.017503   -9.163284
 0.630000   -2.062870   -9.004444
 0.635000   -2.107548   -8.844938
 0.640000   -2.151319   -8.553694
 0.645000   -2.193085   -8.213554
 0.650000   -2.233455   -7.964906
 0.655000   -2.272734   -7.779165
 0.660000   -2.311246   -7.733069
 0.665000   -2.350064   -8.060662
 0.670000   -2.391853   -8.741772
 0.675000   -2.437482   -9.937412
 0.680000   -2.491227   -11.649252
 0.685000   -2.553974   -13.449775
 0.690000   -2.625725   -15.438684
 0.695000   -2.708361   -18.209095
 0.700000   -2.807816   -19.003843
 0.705000   -2.898400   -18.074369
 0.710000   -2.988560   -17.678311
 0.715000   -3.075183   -16.621485
 0.720000   -3.154774   -14.946262
 0.725000   -3.224645   -13.034042
 0.730000   -3.285115   -9.045117
 0.735000   -3.315097   -3.800852
 0.740000   -3.323123   0.777598
 0.745000   -3.307321   5.622444
 0.750000   -3.266899   10.493185
 0.755000   -3.202389   16.278834
 0.760000   -3.104111   20.661747
 0.765000   -2.995771   22.777770
 0.770000   -2.876333   24.557682
 0.775000   -2.750195   25.466148
 0.780000   -2.621671   25.548807
 0.785000   -2.494706   25.694465
 0.790000   -2.364727   24.060650
 0.795000   -2.254100   20.932179
 0.800000   -2.155405   18.563670
 0.805000   -2.068463   16.222375
 0.810000   -1.993181   13.992398
 0.815000   -1.928539   11.941340
 0.820000   -1.873768   10.599342
 0.825000   -1.822546   9.943454
 0.830000   -1.774333   9.265005
 0.835000   -1.729896   8.451883
 0.840000   -1.689814   7.491799
 0.845000   -1.654978   5.951077
 0.850000   -1.630304   4.029090
 0.855000   -1.614687   2.256675
 0.860000   -1.607737   0.385618
 0.865000   -1.610831   -1.641472
 0.870000   -1.624152   -3.724434
 0.875000   -1.648075   -6.481431
 0.880000   -1.688966   -9.394796
 0.885000   -1.742023   -11.676385
 0.890000   -1.805730   -14.677501
 0.895000   -1.888798   -19.105054
 0.900000   -1.996780   -24.763676
 0.905000   -2.136435   -33.195956
 0.910000   -2.328740   -44.817497
 0.915000   -2.584610   -57.711909
 0.920000   -2.905859   -75.067399
 0.925000   -3.335284   -101.305883
 0.930000   -3.918918   -138.769964
 0.935000   -4.722983   -196.475370
 0.940000   -5.883671   -282.072970
 0.945000   -7.543713   -379.756597
 0.950000   -9.681237   -485.411342
 0.955000   -12.397827   -594.916639
 0.960000   -15.630404   -674.218080
 0.965000   -19.140007   -692.282521
 0.970000   -22.553229   -612.588558
 0.975000   -25.265893   -383.380781
 0.980000   -26.387037   -63.268031
 0.985000   -25.898573   239.763463
 0.990000   -23.989402   472.621455
 0.995000   -21.172359   588.078615
 1.000000   -18.108616   637.418423
201 psinorm omgeb(kRad/s) domgeb/dpsiN
 0.000000   63.814887   132.007052
 0.005000   64.285711   56.322547
 0.010000   64.378112   14.372519
 0.015000   64.429436   8.374448
 0.020000   64.461857   5.017898
 0.025000   64.479615   1.867345
 0.030000   64.480530   -1.768646
 0.035000   64.461929   -5.469973
 0.040000   64.425831   -9.084397
 0.045000   64.371085   -12.834762
 0.050000   64.297483   -16.427256
 0.055000   64.206812   -19.668234
 0.060000   64.100801   -22.723236
 0.065000   63.979580   -25.492030
 0.070000   63.845880   -27.708352
 0.075000   63.702496   -29.532798
 0.080000   63.550552   -31.171996
 0.085000   63.390776   -32.593731
 0.090000   63.224615   -33.857260
 0.095000   63.052204   -35.028722
 0.100000   62.874328   -35.904460
 0.105000   62.693159   -36.470045
 0.110000   62.509627   -36.607200
 0.115000   62.327087   -36.295730
 0.120000   62.146670   -35.416559
 0.125000   61.972921   -34.147553
 0.130000   61.805194   -32.699808
 0.135000   61.645923   -31.168762
 0.140000   61.493507   -29.651436
 0.145000   61.349409   -28.118704
 0.150000   61.212320   -26.942415
 0.155000   61.079985   -26.229102
 0.160000   60.950029   -25.894606
 0.165000   60.821039   -25.822215
 0.170000   60.691807   -26.155223
 0.175000   60.559487   -26.666568
 0.180000   60.425141   -27.624360
 0.185000   60.283243   -28.954450
 0.190000   60.135596   -30.119739
 0.195000   59.982046   -31.220240
 0.200000   59.823394   -32.053292
 0.205000   59.661513   -32.818217
 0.210000   59.495212   -34.231119
 0.215000   59.319201   -35.973029
 0.220000   59.135482   -37.443329
 0.225000   58.944768   -38.598000
 0.230000   58.749502   -39.796615
 0.235000   58.546802   -41.628316
 0.240000   58.333218   -43.391409
 0.245000   58.112888   -44.680492
 0.250000   57.886414   -45.744913
 0.255000   57.655439   -46.567357
 0.260000   57.420740   -47.318241
 0.265000   57.182256   -48.141427
 0.270000   56.939326   -48.386804
 0.275000   56.698388   -47.889820
 0.280000   56.460427   -47.344001
 0.285000   56.224948   -46.959577
 0.290000   55.990832   -46.780219
 0.295000   55.757146   -46.630935
 0.300000   55.524522   -46.284787
 0.305000   55.294298   -46.109626
 0.310000   55.063426   -46.647167
 0.315000   54.827827   -48.098943
 0.320000   54.582437   -50.418557
 0.325000   54.323641   -53.069116
 0.330000   54.051746   -55.905659
 0.335000   53.764584   -58.953137
 0.340000   53.462214   -61.509416
 0.345000   53.149490   -63.412040
 0.350000   52.828094   -64.815589
 0.355000   52.501334   -65.783025
 0.360000   52.170264   -66.721974
 0.365000   51.834115   -67.474568
 0.370000   51.495518   -67.928582
 0.375000   51.154829   -68.351553
 0.380000   50.812002   -68.784104
 0.385000   50.466988   -69.258269
 0.390000   50.119420   -69.534982
 0.395000   49.771638   -69.731555
 0.400000   49.422104   -70.198271
 0.405000   49.069655   -70.756574
 0.410000   48.714538   -71.459733
 0.415000   48.355058   -73.086863
 0.420000   47.983670   -76.341918
 0.425000   47.591639   -82.043092
 0.430000   47.163239   -89.743204
 0.435000   46.694207   -98.959528
 0.440000   46.173643   -110.478575
 0.445000   45.589421   -122.507099
 0.450000   44.948573   -133.459770
 0.455000   44.254823   -143.849615
 0.460000   43.510076   -152.885587
 0.465000   42.725967   -159.748597
 0.470000   41.912590   -163.637996
 0.475000   41.089587   -163.305053
 0.480000   40.279540   -159.390590
 0.485000   39.495682   -152.980859
 0.490000   38.749731   -144.298528
 0.495000   38.052696   -133.581281
 0.500000   37.413918   -121.912796
 0.505000   36.833568   -111.058031
 0.510000   36.303338   -101.723111
 0.515000   35.816337   -93.853857
 0.520000   35.364800   -87.555841
 0.525000   34.940779   -82.667371
 0.530000   34.538126   -79.271000
 0.535000   34.148069   -77.208845
 0.540000   33.766037   -75.566487
 0.545000   33.392404   -74.009918
 0.550000   33.025938   -72.596825
 0.555000   32.666436   -71.235253
 0.560000   32.313586   -69.705894
 0.565000   31.969377   -68.007009
 0.570000   31.633516   -66.388094
 0.575000   31.305496   -64.883103
 0.580000   30.984685   -63.449840
 0.585000   30.670997   -62.094854
 0.590000   30.363736   -60.951551
 0.595000   30.061482   -59.990808
 0.600000   29.763828   -59.184642
 0.605000   29.469635   -58.650455
 0.610000   29.177323   -58.322352
 0.615000   28.886412   -58.142791
 0.620000   28.595895   -58.092329
 0.625000   28.305489   -58.188489
 0.630000   28.014011   -58.410102
 0.635000   27.721388   -58.657545
 0.640000   27.427435   -58.861291
 0.645000   27.132775   -59.047277
 0.650000   26.836962   -59.293819
 0.655000   26.539837   -59.682922
 0.660000   26.240133   -60.434619
 0.665000   25.935490   -61.702895
 0.670000   25.623104   -63.420013
 0.675000   25.301290   -65.800994
 0.680000   24.965094   -68.823730
 0.685000   24.613053   -71.858811
 0.690000   24.246506   -74.765872
 0.695000   23.865394   -78.128760
 0.700000   23.465219   -79.173184
 0.705000   23.073662   -78.190682
 0.710000   22.683312   -77.520818
 0.715000   22.298454   -76.145537
 0.720000   21.921856   -74.294641
 0.725000   21.555508   -72.303471
 0.730000   21.198822   -68.351216
 0.735000   20.871996   -63.287607
 0.740000   20.565946   -58.992171
 0.745000   20.282074   -54.579268
 0.750000   20.020153   -50.385482
 0.755000   19.778219   -45.561617
 0.760000   19.564537   -42.455734
 0.765000   19.353662   -41.986845
 0.770000   19.144668   -42.398929
 0.775000   18.929672   -44.159074
 0.780000   18.703078   -46.635029
 0.785000   18.463322   -48.740880
 0.790000   18.215669   -52.498284
 0.795000   17.938339   -57.526925
 0.800000   17.640400   -61.566469
 0.805000   17.322675   -65.478553
 0.810000   16.985614   -69.046492
 0.815000   16.632210   -72.200211
 0.820000   16.263612   -74.655912
 0.825000   15.885651   -76.477636
 0.830000   15.498836   -78.349664
 0.835000   15.102154   -80.436329
 0.840000   14.694472   -82.717368
 0.845000   14.274980   -85.804978
 0.850000   13.836422   -89.749445
 0.855000   13.377486   -94.159487
 0.860000   12.894828   -99.600585
 0.865000   12.381480   -106.658336
 0.870000   11.828244   -115.217634
 0.875000   11.229304   -125.887362
 0.880000   10.569371   -138.516865
 0.885000   9.844135   -152.171388
 0.890000   9.047657   -167.950990
 0.895000   8.164625   -186.758413
 0.900000   7.180073   -207.303953
 0.905000   6.091585   -229.783489
 0.910000   4.882238   -254.025759
 0.915000   3.551328   -276.868097
 0.920000   2.113557   -300.230806
 0.925000   0.549020   -327.360538
 0.930000   -1.160049   -358.950292
 0.935000   -3.040483   -401.791079
 0.940000   -5.177959   -463.973317
 0.945000   -7.680216   -536.980610
 0.950000   -10.547766   -624.409072
 0.955000   -13.924307   -725.502587
 0.960000   -17.802791   -806.000492
 0.965000   -21.984312   -818.494069
 0.970000   -25.987732   -681.361730
 0.975000   -28.797929   -290.064307
 0.980000   -28.888375   308.219331
 0.985000   -25.715736   926.927501
 0.990000   -19.619100   1348.061102
 0.995000   -12.235125   1374.549423
 1.000000   -5.873606   1170.058148
201 psinorm er(kV/m) der/dpsiN
 0.000000   0.710072   1213.683399
 0.005000   5.555504   724.489529
 0.010000   7.954967   424.914404
 0.015000   9.804648   341.265249
 0.020000   11.367620   295.058639
 0.025000   12.755235   263.881989
 0.030000   14.006439   239.494035
 0.035000   15.150175   220.145635
 0.040000   16.207896   204.525114
 0.045000   17.195426   190.697122
 0.050000   18.114867   179.555059
 0.055000   18.990977   170.583647
 0.060000   19.820703   160.450317
 0.065000   20.595480   149.984372
 0.070000   21.320547   144.225979
 0.075000   22.037740   137.763653
 0.080000   22.698184   129.076273
 0.085000   23.328502   125.555532
 0.090000   23.953739   117.657386
 0.095000   24.505076   113.164224
 0.100000   25.085381   109.119765
 0.105000   25.596274   103.733861
 0.110000   26.122720   100.185225
 0.115000   26.598126   95.926604
 0.120000   27.081986   92.832826
 0.125000   27.526454   89.897597
 0.130000   27.980962   86.893047
 0.135000   28.395385   85.092723
 0.140000   28.831889   81.861598
 0.145000   29.214001   81.045277
 0.150000   29.642342   77.331454
 0.155000   29.987315   76.287663
 0.160000   30.405218   73.406094
 0.165000   30.721376   69.740126
 0.170000   31.102620   70.844913
 0.175000   31.429825   64.599292
 0.180000   31.748613   65.423322
 0.185000   32.084059   59.048163
 0.190000   32.339094   57.630615
 0.195000   32.660365   56.332593
 0.200000   32.902420   50.729680
 0.205000   33.167662   53.290104
 0.210000   33.435321   45.902479
 0.215000   33.626686   44.223980
 0.220000   33.877561   44.084102
 0.225000   34.067527   37.579184
 0.230000   34.253353   39.907568
 0.235000   34.466603   33.102918
 0.240000   34.584382   29.329891
 0.245000   34.759902   33.085582
 0.250000   34.915238   25.121470
 0.255000   35.011117   24.162600
 0.260000   35.156864   25.405690
 0.265000   35.265174   18.890608
 0.270000   35.345770   19.870326
 0.275000   35.463877   19.243275
 0.280000   35.538203   15.050149
 0.285000   35.614378   17.598585
 0.290000   35.714189   14.991862
 0.295000   35.764297   11.598441
 0.300000   35.830173   14.682782
 0.305000   35.911125   11.282555
 0.310000   35.942999   8.066408
 0.315000   35.991789   9.951422
 0.320000   36.042513   4.931351
 0.325000   36.041102   0.585744
 0.330000   36.048370   1.064287
 0.335000   36.051745   -3.923962
 0.340000   36.009131   -8.182915
 0.345000   35.969916   -7.783048
 0.350000   35.931300   -10.825179
 0.355000   35.861664   -14.081879
 0.360000   35.790481   -13.782963
 0.365000   35.723835   -15.372312
 0.370000   35.636758   -18.380971
 0.375000   35.540025   -18.479623
 0.380000   35.451962   -18.921367
 0.385000   35.350811   -21.942101
 0.390000   35.232541   -22.547635
 0.395000   35.125335   -22.148578
 0.400000   35.011055   -25.050539
 0.405000   34.874829   -26.329358
 0.410000   34.747762   -25.940399
 0.415000   34.615425   -29.307992
 0.420000   34.454682   -32.899717
 0.425000   34.286428   -36.396552
 0.430000   34.090716   -43.232130
 0.435000   33.854107   -51.483323
 0.440000   33.575883   -60.111610
 0.445000   33.252991   -69.333970
 0.450000   32.882543   -79.098470
 0.455000   32.462006   -87.588279
 0.460000   32.006660   -94.280314
 0.465000   31.519203   -101.106467
 0.470000   30.995596   -105.188788
 0.475000   30.467315   -105.002981
 0.480000   29.945566   -103.235527
 0.485000   29.434960   -99.832133
 0.490000   28.947245   -93.857595
 0.495000   28.496384   -86.191643
 0.500000   28.085328   -78.757078
 0.505000   27.708813   -71.289278
 0.510000   27.372435   -64.172157
 0.515000   27.067092   -59.196610
 0.520000   26.780469   -55.262733
 0.525000   26.514464   -51.552729
 0.530000   26.264942   -49.283866
 0.535000   26.021626   -48.699456
 0.540000   25.777947   -47.796355
 0.545000   25.543662   -46.401228
 0.550000   25.313935   -46.223110
 0.555000   25.081431   -45.792562
 0.560000   24.856010   -44.401891
 0.565000   24.637412   -43.407089
 0.570000   24.421939   -43.036156
 0.575000   24.207051   -42.068728
 0.580000   24.001251   -40.672674
 0.585000   23.800324   -40.467615
 0.590000   23.596575   -40.102675
 0.595000   23.399297   -39.030457
 0.600000   23.206271   -38.617357
 0.605000   23.013123   -39.060890
 0.610000   22.815662   -38.930208
 0.615000   22.623821   -38.389180
 0.620000   22.431770   -39.095292
 0.625000   22.232868   -39.707759
 0.630000   22.034692   -39.556448
 0.635000   21.837304   -39.756864
 0.640000   21.637124   -40.851397
 0.645000   21.428790   -41.160641
 0.650000   21.225517   -40.808540
 0.655000   21.020705   -41.697207
 0.660000   20.808545   -42.935807
 0.665000   20.591347   -43.722090
 0.670000   20.371324   -44.804561
 0.675000   20.143301   -47.681751
 0.680000   19.894507   -50.390016
 0.685000   19.639401   -52.179905
 0.690000   19.372708   -54.840032
 0.695000   19.091000   -58.390712
 0.700000   18.788801   -59.170773
 0.705000   18.499293   -57.858527
 0.710000   18.210215   -58.124193
 0.715000   17.918051   -57.592022
 0.720000   17.634295   -55.625973
 0.725000   17.361791   -53.770961
 0.730000   17.096586   -51.799772
 0.735000   16.843793   -47.903108
 0.740000   16.617554   -43.504063
 0.745000   16.408753   -40.365921
 0.750000   16.213895   -37.817975
 0.755000   16.030573   -33.732310
 0.760000   15.876572   -30.626946
 0.765000   15.724303   -30.921179
 0.770000   15.567360   -31.727564
 0.775000   15.407028   -32.734753
 0.780000   15.240013   -34.532403
 0.785000   15.061704   -37.047609
 0.790000   14.869537   -40.330715
 0.795000   14.658397   -43.918900
 0.800000   14.430348   -47.407103
 0.805000   14.184326   -51.222963
 0.810000   13.918118   -54.199630
 0.815000   13.642329   -56.465284
 0.820000   13.353465   -58.836748
 0.825000   13.053962   -60.767496
 0.830000   12.745790   -62.248123
 0.835000   12.431481   -63.829524
 0.840000   12.107495   -66.159117
 0.845000   11.769889   -68.990347
 0.850000   11.417592   -72.088862
 0.855000   11.049001   -75.740734
 0.860000   10.660184   -80.776524
 0.865000   10.241236   -86.800065
 0.870000   9.792184   -93.656459
 0.875000   9.304671   -102.715404
 0.880000   8.765030   -113.690919
 0.885000   8.167762   -125.141182
 0.890000   7.513618   -138.110795
 0.895000   6.786654   -154.133836
 0.900000   5.972279   -171.735868
 0.905000   5.069295   -190.513168
 0.910000   4.067148   -210.676760
 0.915000   2.962528   -230.376653
 0.920000   1.763381   -250.399466
 0.925000   0.458533   -272.942727
 0.930000   -0.966046   -299.362280
 0.935000   -2.535090   -336.518453
 0.940000   -4.331231   -389.259193
 0.945000   -6.427682   -449.762493
 0.950000   -8.828856   -523.759056
 0.955000   -11.665272   -640.734764
 0.960000   -15.236203   -717.504211
 0.965000   -18.840314   -706.814784
 0.970000   -22.304351   -596.594875
 0.975000   -24.806263   -302.262905
 0.980000   -25.326980   222.271391
 0.985000   -22.583549   805.281642
 0.990000   -17.274164   1178.596369
 0.995000   -10.797586   1208.599147
 1.000000   -5.188172   1035.166239
201 psinorm ommvb() dommvb/dpsiN
 0.000000   56.676480   21809.864028
 0.005000   146.437826   14094.674502
 0.010000   197.623225   9492.977476
 0.015000   241.367601   8100.941079
 0.020000   278.632635   6930.443342
 0.025000   310.672034   5844.067691
 0.030000   337.073312   4877.939636
 0.035000   359.451430   4416.200497
 0.040000   381.235317   4018.421611
 0.045000   399.635647   3504.782375
 0.050000   416.283141   3303.263471
 0.055000   432.668281   2838.417950
 0.060000   444.667321   2319.026828
 0.065000   455.858550   2049.103251
 0.070000   465.158353   1733.354822
 0.075000   473.192098   1446.973213
 0.080000   479.628085   1236.581663
 0.085000   485.557914   1092.047846
 0.090000   490.548564   858.154262
 0.095000   494.139457   623.592590
 0.100000   496.784490   474.650722
 0.105000   498.885964   344.812720
 0.110000   500.232617   184.730937
 0.115000   500.733274   25.724924
 0.120000   500.489866   -124.727572
 0.125000   499.485998   -262.399965
 0.130000   497.865866   -388.299350
 0.135000   495.603004   -514.629293
 0.140000   492.719573   -629.910404
 0.145000   489.303900   -728.819170
 0.150000   485.431382   -822.056196
 0.155000   481.083338   -906.651359
 0.160000   476.364868   -980.362164
 0.165000   471.279717   -1049.200425
 0.170000   465.872864   -1108.432381
 0.175000   460.195393   -1150.172283
 0.180000   454.371141   -1186.227817
 0.185000   448.333115   -1232.998434
 0.190000   442.041157   -1275.301041
 0.195000   435.580104   -1302.614300
 0.200000   429.015014   -1369.555166
 0.205000   421.884553   -1542.657173
 0.210000   413.588442   -1501.483281
 0.215000   406.869720   -1341.052509
 0.220000   400.177917   -1346.540551
 0.225000   393.404314   -1353.389072
 0.230000   386.644026   -1332.147616
 0.235000   380.082838   -1348.472997
 0.240000   373.159296   -1524.720575
 0.245000   364.835632   -1439.678203
 0.250000   358.762514   -1197.641198
 0.255000   352.859221   -1167.371863
 0.260000   347.088796   -1139.120756
 0.265000   341.468013   -1214.275704
 0.270000   334.946039   -1311.713267
 0.275000   328.350880   -1150.342755
 0.280000   323.442611   -962.983106
 0.285000   318.721049   -927.524952
 0.290000   314.167361   -949.358592
 0.295000   309.227463   -1067.625844
 0.300000   303.491103   -946.759116
 0.305000   299.759872   -727.707727
 0.310000   296.214026   -692.440917
 0.315000   292.835463   -736.547358
 0.320000   288.848552   -792.781094
 0.325000   284.907652   -653.810944
 0.330000   282.310443   -505.788939
 0.335000   279.849763   -478.476192
 0.340000   277.525681   -571.040797
 0.345000   274.139355   -552.043316
 0.350000   272.005248   -383.052894
 0.355000   270.308826   -328.645636
 0.360000   268.718791   -348.686133
 0.365000   266.821964   -393.322719
 0.370000   264.785564   -310.153171
 0.375000   263.720433   -203.989877
 0.380000   262.745665   -185.223674
 0.385000   261.868196   -255.619954
 0.390000   260.189466   -221.664568
 0.395000   259.651550   -106.178691
 0.400000   259.127679   -104.499587
 0.405000   258.606554   -164.558469
 0.410000   257.482094   -181.550135
 0.415000   256.791053   -108.811969
 0.420000   256.393974   -79.961800
 0.425000   255.991435   -120.316221
 0.430000   255.190812   -165.281264
 0.435000   254.338622   -125.317023
 0.440000   253.937642   -83.623512
 0.445000   253.502387   -105.361204
 0.450000   252.884030   -172.290337
 0.455000   251.779484   -153.044404
 0.460000   251.353586   -85.296795
 0.465000   250.926516   -84.731764
 0.470000   250.506268   -143.731287
 0.475000   249.489203   -126.431186
 0.480000   249.241956   -43.783029
 0.485000   249.051373   -31.855823
 0.490000   248.923398   -65.483369
 0.495000   248.396539   -63.457632
 0.500000   248.288822   0.446901
 0.505000   248.401008   27.726250
 0.510000   248.566084   10.196129
 0.515000   248.502969   -8.134037
 0.520000   248.484744   26.961483
 0.525000   248.772584   60.306207
 0.530000   249.087806   59.264154
 0.535000   249.365226   26.534941
 0.540000   249.353156   46.707145
 0.545000   249.832297   96.607950
 0.550000   250.319235   98.869286
 0.555000   250.820990   68.348582
 0.560000   251.002721   67.161998
 0.565000   251.492610   117.287029
 0.570000   252.175591   142.846320
 0.575000   252.921073   146.969377
 0.580000   253.645285   132.372816
 0.585000   254.244801   158.478097
 0.590000   255.230066   207.004037
 0.595000   256.314842   229.862159
 0.600000   257.528687   252.953266
 0.605000   258.844374   266.251174
 0.610000   260.191199   289.861166
 0.615000   261.742986   321.651846
 0.620000   263.407718   346.011620
 0.625000   265.203102   361.893287
 0.630000   267.026651   393.125338
 0.635000   269.134356   437.840262
 0.640000   271.405053   467.998737
 0.645000   273.814343   495.250349
 0.650000   276.357557   528.891053
 0.655000   279.103254   568.142630
 0.660000   282.038983   607.129910
 0.665000   285.174553   646.539888
 0.670000   288.504382   685.204862
 0.675000   292.026601   741.402927
 0.680000   295.918411   787.835414
 0.685000   299.904955   819.661845
 0.690000   304.115030   864.293859
 0.695000   308.547894   907.567824
 0.700000   313.190708   962.669034
 0.705000   318.174584   1028.148443
 0.710000   323.472192   1068.109005
 0.715000   328.855674   1102.094185
 0.720000   334.493134   1152.912689
 0.725000   340.384801   1202.321697
 0.730000   346.516351   1263.763450
 0.735000   353.022436   1323.301946
 0.740000   359.749371   1362.205273
 0.745000   366.644489   1410.811663
 0.750000   373.857487   1477.338481
 0.755000   381.417873   1549.084521
 0.760000   389.348332   1624.789128
 0.765000   397.665765   1695.936684
 0.770000   406.307699   1770.461633
 0.775000   415.370381   1853.606779
 0.780000   424.843767   1936.638361
 0.785000   434.736765   2021.466255
 0.790000   445.058430   2104.550742
 0.795000   455.782272   2184.611438
 0.800000   466.904544   2250.704596
 0.805000   478.289318   2333.551972
 0.810000   490.240064   2436.341900
 0.815000   502.652737   2537.006266
 0.820000   515.610126   2646.992869
 0.825000   529.122666   2757.354187
 0.830000   543.183668   2867.838346
 0.835000   557.801049   2976.446414
 0.840000   572.948132   3045.230392
 0.845000   588.253353   3123.138861
 0.850000   604.179521   3269.733439
 0.855000   620.950687   3418.026175
 0.860000   638.359783   3543.089760
 0.865000   656.381585   3695.581240
 0.870000   675.315595   3907.881377
 0.875000   695.460399   4169.506800
 0.880000   717.010663   4473.432575
 0.885000   740.194725   4831.989466
 0.890000   765.330558   5257.531377
 0.895000   792.770038   5767.943789
 0.900000   823.009996   6430.698815
 0.905000   857.077026   7279.404239
 0.910000   895.804038   8361.590053
 0.915000   940.692927   9967.290189
 0.920000   995.476940   12402.333552
 0.925000   1064.716263   15899.228935
 0.930000   1154.469229   20655.252901
 0.935000   1271.268792   26843.079259
 0.940000   1422.900022   34502.717170
 0.945000   1616.295963   42209.626355
 0.950000   1844.996285   45082.657544
 0.955000   2067.122539   38691.821124
 0.960000   2231.914497   41800.277170
 0.965000   2485.125310   85656.187803
 0.970000   3088.476375   143263.893940
 0.975000   3917.764250   151166.756440
 0.980000   4600.143939   122167.607004
 0.985000   5139.440320   105243.171410
 0.990000   5652.575653   72139.022595
 0.995000   5860.830546   280857.571972
 1.000000   8461.151373   759270.758867
201 psinorm ommpp() dommpp/dpsiN
 0.000000   7.138407   -21677.856976
 0.005000   -82.152115   -14038.351955
 0.010000   -133.245112   -9478.604958
 0.015000   -176.938165   -8092.566631
 0.020000   -214.170779   -6925.425444
 0.025000   -246.192419   -5842.200345
 0.030000   -272.592782   -4879.708282
 0.035000   -294.989502   -4421.670469
 0.040000   -316.809487   -4027.506008
 0.045000   -335.264562   -3517.617137
 0.050000   -351.985658   -3319.690726
 0.055000   -368.461469   -2858.086185
 0.060000   -380.566520   -2341.750064
 0.065000   -391.878970   -2074.595281
 0.070000   -401.312473   -1761.063174
 0.075000   -409.489602   -1476.506011
 0.080000   -416.077533   -1267.753659
 0.085000   -422.167138   -1124.641577
 0.090000   -427.323949   -892.011523
 0.095000   -431.087253   -658.621312
 0.100000   -433.910162   -510.555183
 0.105000   -436.192805   -381.282765
 0.110000   -437.722989   -221.338137
 0.115000   -438.406187   -62.020654
 0.120000   -438.343196   89.311013
 0.125000   -437.513077   228.252412
 0.130000   -436.060672   355.599542
 0.135000   -433.957081   483.460532
 0.140000   -431.226067   600.258968
 0.145000   -427.954491   700.700466
 0.150000   -424.219062   795.113781
 0.155000   -420.003354   880.422257
 0.160000   -415.414839   954.467558
 0.165000   -410.458678   1023.378210
 0.170000   -405.181057   1082.277159
 0.175000   -399.635906   1123.505715
 0.180000   -393.946000   1158.603457
 0.185000   -388.049872   1204.043984
 0.190000   -381.905560   1245.181302
 0.195000   -375.598059   1271.394060
 0.200000   -369.191620   1337.501874
 0.205000   -362.223040   1509.838956
 0.210000   -354.093230   1467.252163
 0.215000   -347.550518   1305.079480
 0.220000   -341.042435   1309.097222
 0.225000   -334.459546   1314.791071
 0.230000   -327.894525   1292.351001
 0.235000   -321.536036   1306.844682
 0.240000   -314.826078   1481.329166
 0.245000   -306.722745   1394.997710
 0.250000   -300.876101   1151.896285
 0.255000   -295.203782   1120.804506
 0.260000   -289.668056   1091.802514
 0.265000   -284.285757   1166.134277
 0.270000   -278.006713   1263.326463
 0.275000   -271.652492   1102.452935
 0.280000   -266.982183   915.639105
 0.285000   -262.496101   880.565375
 0.290000   -258.176530   902.578373
 0.295000   -253.470317   1020.994909
 0.300000   -247.966581   900.474329
 0.305000   -244.465574   681.598102
 0.310000   -241.150600   645.793750
 0.315000   -238.007636   688.448415
 0.320000   -234.266115   742.362536
 0.325000   -230.584011   600.741828
 0.330000   -228.258697   449.883281
 0.335000   -226.085178   419.523055
 0.340000   -224.063467   509.531381
 0.345000   -220.989864   488.631276
 0.350000   -219.177154   318.237305
 0.355000   -217.807491   262.862610
 0.360000   -216.548528   281.964159
 0.365000   -214.987850   325.848151
 0.370000   -213.290046   242.224589
 0.375000   -212.565604   135.638323
 0.380000   -211.933663   116.439570
 0.385000   -211.401208   186.361686
 0.390000   -210.070046   152.129586
 0.395000   -209.879912   36.447136
 0.400000   -209.705575   34.301315
 0.405000   -209.536899   93.801895
 0.410000   -208.767556   110.090403
 0.415000   -208.435995   35.725106
 0.420000   -208.410305   3.619883
 0.425000   -208.399796   38.273129
 0.430000   -208.027574   75.538060
 0.435000   -207.644416   26.357495
 0.440000   -207.763999   -26.855063
 0.445000   -207.912966   -17.145894
 0.450000   -207.935457   38.830567
 0.455000   -207.524661   9.194789
 0.460000   -207.843510   -67.588792
 0.465000   -208.200549   -75.016833
 0.470000   -208.593678   -19.906708
 0.475000   -208.399616   -36.873868
 0.480000   -208.962417   -115.607561
 0.485000   -209.555691   -121.125036
 0.490000   -210.173667   -78.815159
 0.495000   -210.343843   -70.123650
 0.500000   -210.874903   -122.359697
 0.505000   -211.567440   -138.784281
 0.510000   -212.262746   -111.919240
 0.515000   -212.686632   -85.719821
 0.520000   -213.119944   -114.517324
 0.525000   -213.831805   -142.973578
 0.530000   -214.549680   -138.535154
 0.535000   -215.217157   -103.743785
 0.540000   -215.587118   -122.273631
 0.545000   -216.439893   -170.617868
 0.550000   -217.293297   -171.466112
 0.555000   -218.154554   -139.583835
 0.560000   -218.689135   -136.867892
 0.565000   -219.523233   -185.294038
 0.570000   -220.542076   -209.234414
 0.575000   -221.615578   -211.852480
 0.580000   -222.660600   -195.822656
 0.585000   -223.573804   -220.572951
 0.590000   -224.866330   -267.955588
 0.595000   -226.253360   -289.852967
 0.600000   -227.764860   -312.137908
 0.605000   -229.374739   -324.901629
 0.610000   -231.013876   -348.183518
 0.615000   -232.856574   -379.794637
 0.620000   -234.811822   -404.103949
 0.625000   -236.897614   -420.081776
 0.630000   -239.012640   -451.535440
 0.635000   -241.412968   -496.497806
 0.640000   -243.977618   -526.860027
 0.645000   -246.681568   -554.297626
 0.650000   -249.520594   -588.184872
 0.655000   -252.563417   -627.825552
 0.660000   -255.798850   -667.564529
 0.665000   -259.239062   -708.242783
 0.670000   -262.881278   -748.624875
 0.675000   -266.725311   -807.203920
 0.680000   -270.953317   -856.659144
 0.685000   -275.291903   -891.520656
 0.690000   -279.868523   -939.059732
 0.695000   -284.682500   -985.696584
 0.700000   -289.725489   -1041.842218
 0.705000   -295.100922   -1106.339125
 0.710000   -300.788880   -1145.629823
 0.715000   -306.557220   -1178.239722
 0.720000   -312.571278   -1227.207330
 0.725000   -318.829294   -1274.625168
 0.730000   -325.317529   -1332.114666
 0.735000   -332.150440   -1386.589552
 0.740000   -339.183425   -1421.197444
 0.745000   -346.362415   -1465.390932
 0.750000   -353.837334   -1527.723963
 0.755000   -361.639654   -1594.646139
 0.760000   -369.783796   -1667.244861
 0.765000   -378.312103   -1737.923528
 0.770000   -387.163031   -1812.860563
 0.775000   -396.440709   -1897.765853
 0.780000   -406.140689   -1983.273390
 0.785000   -416.273442   -2070.207134
 0.790000   -426.842761   -2157.049027
 0.795000   -437.843933   -2242.138362
 0.800000   -449.264144   -2312.271065
 0.805000   -460.966643   -2399.030525
 0.810000   -473.254450   -2505.388392
 0.815000   -486.020527   -2609.206477
 0.820000   -499.346514   -2721.648781
 0.825000   -513.237015   -2833.831822
 0.830000   -527.684833   -2946.188010
 0.835000   -542.698895   -3056.882743
 0.840000   -558.253660   -3127.947760
 0.845000   -573.978373   -3208.943839
 0.850000   -590.343098   -3359.482884
 0.855000   -607.573202   -3512.185662
 0.860000   -625.464955   -3642.690345
 0.865000   -644.000105   -3802.239576
 0.870000   -663.487351   -4023.099011
 0.875000   -684.231095   -4295.394162
 0.880000   -706.441292   -4611.949439
 0.885000   -730.350590   -4984.160854
 0.890000   -756.282901   -5425.482367
 0.895000   -784.605413   -5954.702202
 0.900000   -815.829923   -6638.002769
 0.905000   -850.985441   -7509.187728
 0.910000   -890.921800   -8615.615812
 0.915000   -937.141599   -10244.158286
 0.920000   -993.363383   -12702.564358
 0.925000   -1064.167243   -16226.589473
 0.930000   -1155.629278   -21014.203193
 0.935000   -1274.309275   -27244.870338
 0.940000   -1428.077981   -34966.690487
 0.945000   -1623.976179   -42746.606965
 0.950000   -1855.544051   -45707.066616
 0.955000   -2081.046846   -39417.323711
 0.960000   -2249.717288   -42606.277662
 0.965000   -2507.109622   -86474.681872
 0.970000   -3114.464107   -143945.255670
 0.975000   -3946.562179   -151456.820747
 0.980000   -4629.032314   -121859.387673
 0.985000   -5165.156056   -104316.243909
 0.990000   -5672.194753   -70790.961492
 0.995000   -5873.065671   -279483.022549
 1.000000   -8467.024979   -758100.700718
201 psinorm omevb() domevb/dpsiN
 0.000000   36.194068   151.181635
 0.005000   36.776316   81.717556
 0.010000   37.011244   42.857609
 0.015000   37.204892   36.818818
 0.020000   37.379432   33.420641
 0.025000   37.539099   30.227561
 0.030000   37.681707   26.548148
 0.035000   37.804580   22.802514
 0.040000   37.909733   19.142904
 0.045000   37.996009   15.346482
 0.050000   38.063197   11.707067
 0.055000   38.113080   8.418311
 0.060000   38.147380   5.314682
 0.065000   38.166227   2.496420
 0.070000   38.172345   0.229794
 0.075000   38.168524   -1.645781
 0.080000   38.155887   -3.336929
 0.085000   38.135155   -4.811425
 0.090000   38.107773   -6.128519
 0.095000   38.073870   -7.354342
 0.100000   38.034229   -8.285231
 0.105000   37.991018   -8.906748
 0.110000   37.945162   -9.100609
 0.115000   37.900012   -8.846610
 0.120000   37.856696   -8.025669
 0.125000   37.819755   -6.815644
 0.130000   37.788539   -5.427622
 0.135000   37.765479   -3.957035
 0.140000   37.748969   -2.500896
 0.145000   37.740470   -1.030069
 0.150000   37.738668   0.083603
 0.155000   37.741306   0.733593
 0.160000   37.746004   1.004071
 0.165000   37.751346   1.011755
 0.170000   37.756122   0.613360
 0.175000   37.757480   0.035954
 0.180000   37.756481   -0.988563
 0.185000   37.747594   -2.386037
 0.190000   37.732621   -3.619357
 0.195000   37.711401   -4.788532
 0.200000   37.684735   -5.690891
 0.205000   37.654492   -6.525750
 0.210000   37.619478   -8.009203
 0.215000   37.574400   -9.822275
 0.220000   37.521255   -11.364339
 0.225000   37.460757   -12.591369
 0.230000   37.395341   -13.862928
 0.235000   37.322127   -15.768152
 0.240000   37.237660   -17.605340
 0.245000   37.146074   -18.969081
 0.250000   37.047969   -20.108714
 0.255000   36.944987   -21.006918
 0.260000   36.837900   -21.834102
 0.265000   36.726646   -22.734118
 0.270000   36.610559   -23.056850
 0.275000   36.496077   -22.637738
 0.280000   36.384181   -22.170298
 0.285000   36.274374   -21.864753
 0.290000   36.165534   -21.764768
 0.295000   36.056727   -21.695340
 0.300000   35.948580   -21.429526
 0.305000   35.842431   -21.335169
 0.310000   35.735229   -21.953975
 0.315000   35.622892   -23.487470
 0.320000   35.500354   -25.889249
 0.325000   35.363999   -28.622411
 0.330000   35.214130   -31.541988
 0.335000   35.048579   -34.672923
 0.340000   34.867401   -37.313074
 0.345000   34.675448   -39.299978
 0.350000   34.474401   -40.788208
 0.355000   34.267566   -41.840717
 0.360000   34.055994   -42.865123
 0.365000   33.838915   -43.703552
 0.370000   33.618958   -44.243771
 0.375000   33.396477   -44.753309
 0.380000   33.171425   -45.272781
 0.385000   32.943750   -45.834215
 0.390000   32.713083   -46.198538
 0.395000   32.481764   -46.483051
 0.400000   32.248253   -47.038034
 0.405000   32.011384   -47.684920
 0.410000   31.771403   -48.476973
 0.415000   31.526614   -50.193300
 0.420000   31.269470   -53.537847
 0.425000   30.991236   -59.328802
 0.430000   30.676182   -67.118975
 0.435000   30.320046   -76.425635
 0.440000   29.911926   -88.035284
 0.445000   29.439693   -100.154669
 0.450000   28.910379   -111.198454
 0.455000   28.327709   -121.679657
 0.460000   27.693583   -130.807225
 0.465000   27.019636   -137.762063
 0.470000   26.315962   -141.743513
 0.475000   25.602201   -141.502839
 0.480000   24.900934   -137.680854
 0.485000   24.225393   -131.363805
 0.490000   23.587296   -122.774351
 0.495000   22.997649   -112.150171
 0.500000   22.465794   -100.574935
 0.505000   21.991900   -89.813595
 0.510000   21.567658   -80.572268
 0.515000   21.186177   -72.796770
 0.520000   20.839690   -66.592665
 0.525000   20.520250   -61.798256
 0.530000   20.221708   -58.496087
 0.535000   19.935290   -56.528270
 0.540000   19.656425   -54.980378
 0.545000   19.385486   -53.518399
 0.550000   19.121241   -52.200012
 0.555000   18.863486   -50.933254
 0.560000   18.611908   -49.498814
 0.565000   18.368497   -47.894944
 0.570000   18.132959   -46.371135
 0.575000   17.904786   -44.961334
 0.580000   17.683346   -43.623339
 0.585000   17.468553   -42.363693
 0.590000   17.259709   -41.315796
 0.595000   17.055395   -40.450517
 0.600000   16.855204   -39.739871
 0.605000   16.657996   -39.301249
 0.610000   16.462191   -39.068754
 0.615000   16.267309   -38.984836
 0.620000   16.072343   -39.030046
 0.625000   15.877008   -39.221903
 0.630000   15.680124   -39.539230
 0.635000   15.481616   -39.882399
 0.640000   15.281300   -40.181878
 0.645000   15.079797   -40.463598
 0.650000   14.876664   -40.805869
 0.655000   14.671738   -41.290689
 0.660000   14.463757   -42.138088
 0.665000   14.250357   -43.502044
 0.670000   14.028736   -45.314815
 0.675000   13.797209   -47.791417
 0.680000   13.550822   -50.909736
 0.685000   13.288112   -54.040355
 0.690000   13.010419   -57.042908
 0.695000   12.717683   -60.501232
 0.700000   12.405406   -61.641034
 0.705000   12.101273   -60.753845
 0.710000   11.797868   -60.179225
 0.715000   11.499480   -58.899114
 0.720000   11.208877   -57.143308
 0.725000   10.928047   -55.247143
 0.730000   10.656405   -51.389804
 0.735000   10.414149   -46.421015
 0.740000   10.192195   -42.220300
 0.745000   9.991946   -37.902012
 0.750000   9.813175   -33.802730
 0.755000   9.653919   -29.073253
 0.760000   9.522443   -26.061634
 0.765000   9.393302   -25.686881
 0.770000   9.265574   -26.192963
 0.775000   9.131373   -28.046959
 0.780000   8.985104   -30.616609
 0.785000   8.825207   -32.815986
 0.790000   8.656944   -36.666731
 0.795000   8.458539   -41.788508
 0.800000   8.239059   -45.920966
 0.805000   7.999330   -49.925714
 0.810000   7.739802   -53.586047
 0.815000   7.463469   -56.831873
 0.820000   7.171483   -59.379408
 0.825000   6.869675   -61.292757
 0.830000   6.558556   -63.256387
 0.835000   6.237111   -65.435037
 0.840000   5.904205   -67.809285
 0.845000   5.559019   -70.992949
 0.850000   5.194276   -75.039351
 0.855000   4.808625   -79.562759
 0.860000   4.398648   -85.138612
 0.865000   3.957239   -92.370132
 0.870000   3.474947   -101.173070
 0.875000   2.945508   -112.209830
 0.880000   2.352849   -125.421893
 0.885000   1.691289   -140.032044
 0.890000   0.952528   -157.408192
 0.895000   0.117207   -178.906300
 0.900000   -0.836535   -204.000997
 0.905000   -1.922803   -234.176019
 0.910000   -3.178295   -271.438202
 0.915000   -4.637185   -316.353908
 0.920000   -6.341834   -377.400558
 0.925000   -8.411190   -469.922974
 0.930000   -11.041064   -618.603632
 0.935000   -14.597227   -882.008343
 0.940000   -19.861147   -1387.507880
 0.945000   -28.472305   -2398.338141
 0.950000   -43.844529   -4417.072242
 0.955000   -72.643028   -7690.173931
 0.960000   -120.746268   -10211.453383
 0.965000   -174.757562   -7786.199376
 0.970000   -198.608262   -1081.999929
 0.975000   -185.577561   4154.137591
 0.980000   -157.066886   6392.194825
 0.985000   -121.655613   7309.456126
 0.990000   -83.972325   7010.879174
 0.995000   -51.546821   5516.476283
 1.000000   -28.807562   3579.227389
201 psinorm omepp() domepp/dpsiN
 0.000000   27.620819   -19.174583
 0.005000   27.509395   -25.395009
 0.010000   27.366869   -28.485090
 0.015000   27.224544   -28.444371
 0.020000   27.082425   -28.402743
 0.025000   26.940517   -28.360215
 0.030000   26.798823   -28.316794
 0.035000   26.657349   -28.272487
 0.040000   26.516098   -28.227301
 0.045000   26.375076   -28.181244
 0.050000   26.234286   -28.134323
 0.055000   26.093732   -28.086545
 0.060000   25.953420   -28.037918
 0.065000   25.813353   -27.988449
 0.070000   25.673536   -27.938146
 0.075000   25.533972   -27.887016
 0.080000   25.394665   -27.835067
 0.085000   25.255621   -27.782306
 0.090000   25.116842   -27.728741
 0.095000   24.978334   -27.674380
 0.100000   24.840099   -27.619229
 0.105000   24.702141   -27.563297
 0.110000   24.564466   -27.506592
 0.115000   24.427075   -27.449120
 0.120000   24.289974   -27.390890
 0.125000   24.153167   -27.331909
 0.130000   24.016655   -27.272186
 0.135000   23.880445   -27.211727
 0.140000   23.744538   -27.150541
 0.145000   23.608939   -27.088635
 0.150000   23.473652   -27.026017
 0.155000   23.338679   -26.962695
 0.160000   23.204025   -26.898677
 0.165000   23.069692   -26.833970
 0.170000   22.935685   -26.768583
 0.175000   22.802006   -26.702522
 0.180000   22.668660   -26.635797
 0.185000   22.535649   -26.568414
 0.190000   22.402976   -26.500382
 0.195000   22.270645   -26.431708
 0.200000   22.138659   -26.362400
 0.205000   22.007021   -26.292467
 0.210000   21.875734   -26.221916
 0.215000   21.744802   -26.150754
 0.220000   21.614226   -26.078990
 0.225000   21.484012   -26.006632
 0.230000   21.354160   -25.933687
 0.235000   21.224675   -25.860164
 0.240000   21.095558   -25.786069
 0.245000   20.966814   -25.711412
 0.250000   20.838444   -25.636199
 0.255000   20.710452   -25.560439
 0.260000   20.582840   -25.484140
 0.265000   20.455611   -25.407308
 0.270000   20.328767   -25.329953
 0.275000   20.202311   -25.252082
 0.280000   20.076246   -25.173703
 0.285000   19.950574   -25.094824
 0.290000   19.825298   -25.015452
 0.295000   19.700420   -24.935594
 0.300000   19.575942   -24.855260
 0.305000   19.451867   -24.774457
 0.310000   19.328197   -24.693192
 0.315000   19.204935   -24.611473
 0.320000   19.082083   -24.529308
 0.325000   18.959642   -24.446705
 0.330000   18.837616   -24.363671
 0.335000   18.716005   -24.280214
 0.340000   18.594813   -24.196342
 0.345000   18.474042   -24.112062
 0.350000   18.353693   -24.027381
 0.355000   18.233768   -23.942309
 0.360000   18.114270   -23.856851
 0.365000   17.995200   -23.771016
 0.370000   17.876560   -23.684811
 0.375000   17.758351   -23.598244
 0.380000   17.640577   -23.511323
 0.385000   17.523238   -23.424053
 0.390000   17.406337   -23.336445
 0.395000   17.289874   -23.248503
 0.400000   17.173852   -23.160237
 0.405000   17.058271   -23.071654
 0.410000   16.943135   -22.982760
 0.415000   16.828444   -22.893563
 0.420000   16.714199   -22.804071
 0.425000   16.600403   -22.714290
 0.430000   16.487056   -22.624228
 0.435000   16.374161   -22.533893
 0.440000   16.261718   -22.443291
 0.445000   16.149728   -22.352430
 0.450000   16.038193   -22.261317
 0.455000   15.927115   -22.169958
 0.460000   15.816494   -22.078361
 0.465000   15.706331   -21.986534
 0.470000   15.596628   -21.894482
 0.475000   15.487386   -21.802214
 0.480000   15.378606   -21.709736
 0.485000   15.270289   -21.617054
 0.490000   15.162436   -21.524177
 0.495000   15.055047   -21.431110
 0.500000   14.948125   -21.337861
 0.505000   14.841669   -21.244436
 0.510000   14.735680   -21.150842
 0.515000   14.630160   -21.057087
 0.520000   14.525109   -20.963175
 0.525000   14.420528   -20.869115
 0.530000   14.316418   -20.774913
 0.535000   14.212779   -20.680575
 0.540000   14.109612   -20.586108
 0.545000   14.006918   -20.491519
 0.550000   13.904697   -20.396813
 0.555000   13.802950   -20.301998
 0.560000   13.701677   -20.207080
 0.565000   13.600879   -20.112065
 0.570000   13.500557   -20.016959
 0.575000   13.400710   -19.921769
 0.580000   13.301339   -19.826501
 0.585000   13.202445   -19.731161
 0.590000   13.104027   -19.635756
 0.595000   13.006087   -19.540290
 0.600000   12.908624   -19.444772
 0.605000   12.811639   -19.349206
 0.610000   12.715132   -19.253598
 0.615000   12.619103   -19.157955
 0.620000   12.523553   -19.062282
 0.625000   12.428481   -18.966586
 0.630000   12.333887   -18.870872
 0.635000   12.239772   -18.775145
 0.640000   12.146135   -18.679413
 0.645000   12.052978   -18.583679
 0.650000   11.960299   -18.487951
 0.655000   11.868098   -18.392233
 0.660000   11.776376   -18.296531
 0.665000   11.685133   -18.200851
 0.670000   11.594368   -18.105198
 0.675000   11.504081   -18.009577
 0.680000   11.414272   -17.913995
 0.685000   11.324941   -17.818455
 0.690000   11.236087   -17.722965
 0.695000   11.147711   -17.627528
 0.700000   11.059812   -17.532150
 0.705000   10.972390   -17.436837
 0.710000   10.885444   -17.341593
 0.715000   10.798974   -17.246423
 0.720000   10.712980   -17.151333
 0.725000   10.627461   -17.056328
 0.730000   10.542416   -16.961412
 0.735000   10.457846   -16.866592
 0.740000   10.373750   -16.771871
 0.745000   10.290128   -16.677256
 0.750000   10.206978   -16.582752
 0.755000   10.124300   -16.488364
 0.760000   10.042094   -16.394099
 0.765000   9.960359   -16.299964
 0.770000   9.879095   -16.205966
 0.775000   9.798300   -16.112115
 0.780000   9.717973   -16.018420
 0.785000   9.638115   -15.924894
 0.790000   9.558724   -15.831554
 0.795000   9.479800   -15.738416
 0.800000   9.401340   -15.645503
 0.805000   9.323345   -15.552839
 0.810000   9.245812   -15.460446
 0.815000   9.168740   -15.368338
 0.820000   9.092129   -15.276504
 0.825000   9.015975   -15.184878
 0.830000   8.940280   -15.093277
 0.835000   8.865043   -15.001291
 0.840000   8.790267   -14.908083
 0.845000   8.715962   -14.812029
 0.850000   8.642147   -14.710094
 0.855000   8.568861   -14.596728
 0.860000   8.496179   -14.461973
 0.865000   8.424241   -14.288204
 0.870000   8.353297   -14.044565
 0.875000   8.283795   -13.677532
 0.880000   8.216522   -13.094972
 0.885000   8.152846   -12.139343
 0.890000   8.095129   -10.542798
 0.895000   8.047418   -7.852113
 0.900000   8.016607   -3.302956
 0.905000   8.014388   4.392530
 0.910000   8.060533   17.412443
 0.915000   8.188513   39.485811
 0.920000   8.455391   77.169752
 0.925000   8.960210   142.562436
 0.930000   9.881015   259.653340
 0.935000   11.556743   480.217263
 0.940000   14.683188   923.534563
 0.945000   20.792089   1861.357531
 0.950000   33.296763   3792.663171
 0.955000   58.718721   6964.671344
 0.960000   102.943477   9405.452891
 0.965000   152.773250   6967.705307
 0.970000   172.620530   400.638199
 0.975000   156.779632   -4444.201897
 0.980000   128.178511   -6083.975494
 0.985000   95.939877   -6382.528624
 0.990000   64.353224   -5662.818071
 0.995000   39.311696   -4141.926860
 1.000000   22.933956   -2409.169240
201 psinorm kpol(km/s/T) dkpol/dpsiN
 0.000000   0.015706   160.125525
 0.005000   0.660563   97.817298
 0.010000   0.993879   63.499464
 0.015000   1.295557   59.317197
 0.020000   1.587051   57.646536
 0.025000   1.872023   56.061751
 0.030000   2.147668   53.854362
 0.035000   2.410566   51.443001
 0.040000   2.662098   48.983960
 0.045000   2.900406   46.240273
 0.050000   3.124501   43.481025
 0.055000   3.335216   40.891317
 0.060000   3.533414   38.401448
 0.065000   3.719231   36.088348
 0.070000   3.894298   34.088219
 0.075000   4.060113   32.289286
 0.080000   4.217190   30.512723
 0.085000   4.365240   28.782953
 0.090000   4.505020   27.232078
 0.095000   4.637561   25.777736
 0.100000   4.762797   24.531731
 0.105000   4.882878   23.609059
 0.110000   4.998888   23.166444
 0.115000   5.114543   23.242652
 0.120000   5.231314   23.934478
 0.125000   5.353888   24.929359
 0.130000   5.480608   26.003232
 0.135000   5.613920   27.118564
 0.140000   5.751794   28.194135
 0.145000   5.895861   29.257478
 0.150000   6.044368   29.928050
 0.155000   6.195142   30.090799
 0.160000   6.345276   29.797652
 0.165000   6.493118   29.198132
 0.170000   6.637258   28.099576
 0.175000   6.774114   26.633366
 0.180000   6.903591   24.707086
 0.185000   7.021185   22.409547
 0.190000   7.127687   20.010095
 0.195000   7.221286   17.397027
 0.200000   7.301657   14.916120
 0.205000   7.370447   12.415930
 0.210000   7.425817   10.206159
 0.215000   7.472509   8.469054
 0.220000   7.510507   6.712210
 0.225000   7.539631   5.137533
 0.230000   7.561882   3.436706
 0.235000   7.573998   1.411285
 0.240000   7.575995   -0.736235
 0.245000   7.566635   -3.256362
 0.250000   7.543432   -5.908689
 0.255000   7.507548   -8.624009
 0.260000   7.457192   -11.590721
 0.265000   7.391641   -14.378284
 0.270000   7.313409   -17.064789
 0.275000   7.220993   -19.848619
 0.280000   7.114922   -22.342458
 0.285000   6.997569   -24.743477
 0.290000   6.867488   -27.224937
 0.295000   6.725319   -29.534632
 0.300000   6.572141   -31.980119
 0.305000   6.405518   -34.689834
 0.310000   6.225243   -37.458898
 0.315000   6.030929   -40.536176
 0.320000   5.819881   -44.017104
 0.325000   5.590758   -47.549550
 0.330000   5.344386   -50.928989
 0.335000   5.081468   -53.982613
 0.340000   4.804560   -56.444953
 0.345000   4.517019   -58.391432
 0.350000   4.220645   -59.737843
 0.355000   3.919640   -60.503143
 0.360000   3.615614   -61.128478
 0.365000   3.308356   -61.720536
 0.370000   2.998409   -62.195163
 0.375000   2.686404   -62.729980
 0.380000   2.371109   -63.527517
 0.385000   2.051129   -64.723075
 0.390000   1.723878   -66.316605
 0.395000   1.387963   -68.018645
 0.400000   1.043692   -69.545214
 0.405000   0.692511   -70.695509
 0.410000   0.336736   -71.538255
 0.415000   -0.022872   -72.959862
 0.420000   -0.392862   -75.981108
 0.425000   -0.782683   -80.924473
 0.430000   -1.202107   -87.818087
 0.435000   -1.660864   -96.841688
 0.440000   -2.170524   -108.553257
 0.445000   -2.746396   -120.918238
 0.450000   -3.379706   -132.093075
 0.455000   -4.067327   -142.148519
 0.460000   -4.801191   -150.146963
 0.465000   -5.568797   -155.382121
 0.470000   -6.355013   -156.502207
 0.475000   -7.133819   -152.262782
 0.480000   -7.877640   -143.445882
 0.485000   -8.568278   -131.505301
 0.490000   -9.192693   -117.279707
 0.495000   -9.741075   -101.121277
 0.500000   -10.203906   -84.339505
 0.505000   -10.584470   -69.242205
 0.510000   -10.896328   -56.501128
 0.515000   -11.149481   -45.852518
 0.520000   -11.354853   -37.470189
 0.525000   -11.524183   -31.204004
 0.530000   -11.666893   -27.201833
 0.535000   -11.796201   -25.135607
 0.540000   -11.918249   -23.736956
 0.545000   -12.033571   -22.365631
 0.550000   -12.141906   -20.927013
 0.555000   -12.242841   -19.466300
 0.560000   -12.336569   -17.689760
 0.565000   -12.419739   -15.430149
 0.570000   -12.490870   -13.005322
 0.575000   -12.549792   -10.405760
 0.580000   -12.594928   -7.588963
 0.585000   -12.625681   -4.770667
 0.590000   -12.642635   -2.131510
 0.595000   -12.646997   0.336362
 0.600000   -12.639271   2.594694
 0.605000   -12.621050   4.452755
 0.610000   -12.594743   5.939532
 0.615000   -12.561654   7.143166
 0.620000   -12.523312   8.069605
 0.625000   -12.480958   8.725792
 0.630000   -12.436054   9.260530
 0.635000   -12.388353   9.768616
 0.640000   -12.338368   10.164992
 0.645000   -12.286703   10.531217
 0.650000   -12.233055   10.906904
 0.655000   -12.177634   11.231358
 0.660000   -12.120742   11.416123
 0.665000   -12.063473   11.534768
 0.670000   -12.005394   11.648659
 0.675000   -11.946986   11.687773
 0.680000   -11.888516   11.682264
 0.685000   -11.830164   11.673348
 0.690000   -11.771783   11.665024
 0.695000   -11.713513   11.568246
 0.700000   -11.656101   11.418958
 0.705000   -11.599324   11.223320
 0.710000   -11.543867   10.885591
 0.715000   -11.490468   10.383625
 0.720000   -11.440031   9.729097
 0.725000   -11.393177   8.974585
 0.730000   -11.350285   8.070486
 0.735000   -11.312472   7.007116
 0.740000   -11.280214   5.870351
 0.745000   -11.253768   4.698084
 0.750000   -11.233233   3.479257
 0.755000   -11.218976   2.253751
 0.760000   -11.210696   1.092029
 0.765000   -11.208056   -0.022317
 0.770000   -11.210919   -1.168019
 0.775000   -11.219736   -2.368784
 0.780000   -11.234607   -3.639892
 0.785000   -11.256135   -5.103109
 0.790000   -11.285638   -6.892086
 0.795000   -11.325056   -8.930688
 0.800000   -11.374945   -11.117192
 0.805000   -11.436228   -13.474111
 0.810000   -11.509686   -15.932148
 0.815000   -11.595549   -18.406087
 0.820000   -11.693747   -20.957373
 0.825000   -11.805123   -23.546072
 0.830000   -11.929207   -25.975202
 0.835000   -12.064875   -28.152421
 0.840000   -12.210732   -30.008270
 0.845000   -12.364957   -31.470287
 0.850000   -12.525435   -32.346963
 0.855000   -12.688427   -32.516542
 0.860000   -12.850600   -32.117908
 0.865000   -13.009606   -31.315784
 0.870000   -13.163758   -30.171384
 0.875000   -13.311320   -28.768618
 0.880000   -13.451444   -27.149189
 0.885000   -13.582812   -25.029609
 0.890000   -13.701740   -22.182231
 0.895000   -13.804634   -18.624551
 0.900000   -13.887986   -14.293091
 0.905000   -13.947565   -9.003777
 0.910000   -13.978023   -2.424227
 0.915000   -13.971807   5.817533
 0.920000   -13.919848   16.020838
 0.925000   -13.811599   28.461770
 0.930000   -13.635230   43.564111
 0.935000   -13.375958   63.390033
 0.940000   -13.001330   87.209389
 0.945000   -12.503864   103.659940
 0.950000   -11.964731   101.541871
 0.955000   -11.488445   76.544021
 0.960000   -11.199290   32.242758
 0.965000   -11.166018   -0.761979
 0.970000   -11.206910   53.229172
 0.975000   -10.633726   282.859211
 0.980000   -8.378318   708.942061
 0.985000   -3.544305   1203.328575
 0.990000   3.654968   1494.616384
 0.995000   11.401858   1334.108824
 1.000000   16.996056   903.570172
201 psinorm omghb() domghb/dpsiN
 0.000000   -0.000083   0.021805
 0.005000   -0.000115   -0.034481
 0.010000   -0.000428   -0.028001
 0.015000   -0.000395   0.013411
 0.020000   -0.000294   0.028506
 0.025000   -0.000110   0.043959
 0.030000   0.000146   0.068118
 0.035000   0.000571   0.099526
 0.040000   0.001141   0.130134
 0.045000   0.001873   0.155296
 0.050000   0.002694   0.168130
 0.055000   0.003554   0.176929
 0.060000   0.004463   0.181474
 0.065000   0.005369   0.181617
 0.070000   0.006279   0.196459
 0.075000   0.007333   0.198570
 0.080000   0.008265   0.181920
 0.085000   0.009153   0.180870
 0.090000   0.010074   0.181661
 0.095000   0.010969   0.177419
 0.100000   0.011848   0.174530
 0.105000   0.012714   0.152882
 0.110000   0.013377   0.110626
 0.115000   0.013821   0.073687
 0.120000   0.014114   0.040212
 0.125000   0.014223   0.005690
 0.130000   0.014171   -0.039768
 0.135000   0.013825   -0.051117
 0.140000   0.013659   -0.036802
 0.145000   0.013457   -0.021074
 0.150000   0.013449   -0.005768
 0.155000   0.013399   0.021489
 0.160000   0.013664   0.049707
 0.165000   0.013896   0.090799
 0.170000   0.014572   0.142753
 0.175000   0.015324   0.175806
 0.180000   0.016330   0.223307
 0.185000   0.017557   0.229471
 0.190000   0.018624   0.212984
 0.195000   0.019687   0.212102
 0.200000   0.020745   0.235227
 0.205000   0.022039   0.270965
 0.210000   0.023455   0.268715
 0.215000   0.024726   0.283154
 0.220000   0.026287   0.324815
 0.225000   0.027974   0.328892
 0.230000   0.029575   0.332965
 0.235000   0.031304   0.306635
 0.240000   0.032642   0.303589
 0.245000   0.034340   0.363467
 0.250000   0.036276   0.408580
 0.255000   0.038426   0.248181
 0.260000   0.038758   0.124580
 0.265000   0.039672   0.144830
 0.270000   0.040207   0.118427
 0.275000   0.040856   0.105453
 0.280000   0.041261   0.108472
 0.285000   0.041941   0.031668
 0.290000   0.041578   -0.004255
 0.295000   0.041898   0.079335
 0.300000   0.042371   0.123918
 0.305000   0.043137   0.159637
 0.310000   0.043967   0.161836
 0.315000   0.044756   0.457344
 0.320000   0.048541   0.714255
 0.325000   0.051898   0.690845
 0.330000   0.055449   0.702517
 0.335000   0.058923   0.629761
 0.340000   0.061747   0.534039
 0.345000   0.064264   0.509777
 0.350000   0.066845   0.436671
 0.355000   0.068630   0.327245
 0.360000   0.070117   0.268746
 0.365000   0.071318   0.225255
 0.370000   0.072370   0.284964
 0.375000   0.074168   0.274593
 0.380000   0.075116   0.172437
 0.385000   0.075892   0.178016
 0.390000   0.076896   0.232455
 0.395000   0.078216   0.262092
 0.400000   0.079517   0.169894
 0.405000   0.079915   0.181296
 0.410000   0.081330   0.428106
 0.415000   0.084196   0.707328
 0.420000   0.088403   1.187620
 0.425000   0.096073   1.817775
 0.430000   0.106581   2.219668
 0.435000   0.118269   2.514429
 0.440000   0.131725   2.797914
 0.445000   0.146248   2.916912
 0.450000   0.160894   3.125184
 0.455000   0.177500   2.892182
 0.460000   0.189816   2.093132
 0.465000   0.198432   1.393633
 0.470000   0.203752   0.661285
 0.475000   0.205044   -0.162261
 0.480000   0.202130   -1.063488
 0.485000   0.194410   -1.852908
 0.490000   0.183601   -2.330215
 0.495000   0.171107   -2.591413
 0.500000   0.157686   -2.619236
 0.505000   0.144915   -2.453256
 0.510000   0.133154   -2.300675
 0.515000   0.121908   -1.840168
 0.520000   0.114752   -1.253164
 0.525000   0.109377   -0.926648
 0.530000   0.105486   -0.617040
 0.535000   0.103206   -0.376274
 0.540000   0.101723   -0.293285
 0.545000   0.100273   -0.306412
 0.550000   0.098659   -0.314285
 0.555000   0.097131   -0.343911
 0.560000   0.095220   -0.344636
 0.565000   0.093684   -0.328741
 0.570000   0.091932   -0.346824
 0.575000   0.090216   -0.350657
 0.580000   0.088426   -0.336351
 0.585000   0.086852   -0.270894
 0.590000   0.085717   -0.212758
 0.595000   0.084725   -0.181894
 0.600000   0.083898   -0.129711
 0.605000   0.083428   -0.059549
 0.610000   0.083302   -0.014231
 0.615000   0.083285   0.043774
 0.620000   0.083740   0.090870
 0.625000   0.084194   0.108703
 0.630000   0.084827   0.114070
 0.635000   0.085335   0.097664
 0.640000   0.085804   0.116970
 0.645000   0.086505   0.172625
 0.650000   0.087530   0.185795
 0.655000   0.088363   0.210115
 0.660000   0.089631   0.299598
 0.665000   0.091359   0.421821
 0.670000   0.093849   0.614607
 0.675000   0.097505   1.124933
 0.680000   0.105099   1.246019
 0.685000   0.109965   0.824618
 0.690000   0.113345   0.657765
 0.695000   0.116542   0.513248
 0.700000   0.118477   0.286863
 0.705000   0.119411   0.371313
 0.710000   0.122191   -0.079307
 0.715000   0.118618   -0.833201
 0.720000   0.113859   -0.863848
 0.725000   0.109979   -0.876008
 0.730000   0.105099   -1.028473
 0.735000   0.099695   -1.197921
 0.740000   0.093119   -1.531722
 0.745000   0.084378   -1.544613
 0.750000   0.077673   -1.213518
 0.755000   0.072242   -0.887949
 0.760000   0.068794   -0.512626
 0.765000   0.067116   -0.321768
 0.770000   0.065576   0.027825
 0.775000   0.067394   0.853296
 0.780000   0.074109   1.203754
 0.785000   0.079432   1.211325
 0.790000   0.086222   1.294063
 0.795000   0.092373   1.193821
 0.800000   0.098160   1.328828
 0.805000   0.105661   1.471535
 0.810000   0.112876   1.167778
 0.815000   0.117339   0.866746
 0.820000   0.121543   0.773161
 0.825000   0.125070   0.721041
 0.830000   0.128754   0.784943
 0.835000   0.132920   0.738701
 0.840000   0.136141   0.825755
 0.845000   0.141177   1.157110
 0.850000   0.147712   1.469061
 0.855000   0.155868   1.818000
 0.860000   0.165892   2.373553
 0.865000   0.179603   2.622230
 0.870000   0.192114   2.976142
 0.875000   0.209365   3.865797
 0.880000   0.230772   4.629073
 0.885000   0.255655   5.224798
 0.890000   0.283020   6.403226
 0.895000   0.319688   6.889005
 0.900000   0.351910   6.945987
 0.905000   0.389148   7.646549
 0.910000   0.428376   7.943104
 0.915000   0.468579   8.176571
 0.920000   0.510141   10.694964
 0.925000   0.575528   11.067129
 0.930000   0.620813   11.508432
 0.935000   0.690613   15.989623
 0.940000   0.780709   22.085449
 0.945000   0.911467   30.051740
 0.950000   1.081226   43.900910
 0.955000   1.350476   40.277843
 0.960000   1.484005   15.090896
 0.965000   1.501385   -23.908650
 0.970000   1.244918   -92.719680
 0.975000   0.574188   -176.617126
 0.980000   -0.521253   -232.991083
 0.985000   -1.755722   -215.942265
 0.990000   -2.680676   -98.559616
 0.995000   -2.741319   69.922565
 1.000000   -1.981450   234.024827
201 psinorm nz1(10^20/m^3) dnz1/dpsiN
 0.000000   0.017557   0.000001
 0.005000   0.017557   -0.000168
 0.010000   0.017555   -0.000338
 0.015000   0.017553   -0.000507
 0.020000   0.017550   -0.000678
 0.025000   0.017546   -0.000848
 0.030000   0.017542   -0.001018
 0.035000   0.017536   -0.001187
 0.040000   0.017530   -0.001355
 0.045000   0.017523   -0.001522
 0.050000   0.017515   -0.001687
 0.055000   0.017506   -0.001850
 0.060000   0.017496   -0.002011
 0.065000   0.017486   -0.002168
 0.070000   0.017475   -0.002323
 0.075000   0.017463   -0.002474
 0.080000   0.017450   -0.002621
 0.085000   0.017436   -0.002765
 0.090000   0.017422   -0.002906
 0.095000   0.017407   -0.003042
 0.100000   0.017392   -0.003175
 0.105000   0.017376   -0.003304
 0.110000   0.017359   -0.003429
 0.115000   0.017341   -0.003549
 0.120000   0.017323   -0.003665
 0.125000   0.017305   -0.003776
 0.130000   0.017285   -0.003881
 0.135000   0.017266   -0.003981
 0.140000   0.017246   -0.004075
 0.145000   0.017225   -0.004162
 0.150000   0.017204   -0.004243
 0.155000   0.017183   -0.004317
 0.160000   0.017161   -0.004384
 0.165000   0.017139   -0.004442
 0.170000   0.017116   -0.004493
 0.175000   0.017094   -0.004535
 0.180000   0.017071   -0.004568
 0.185000   0.017048   -0.004592
 0.190000   0.017025   -0.004607
 0.195000   0.017002   -0.004612
 0.200000   0.016979   -0.004607
 0.205000   0.016956   -0.004593
 0.210000   0.016933   -0.004569
 0.215000   0.016910   -0.004536
 0.220000   0.016888   -0.004494
 0.225000   0.016865   -0.004446
 0.230000   0.016843   -0.004393
 0.235000   0.016821   -0.004336
 0.240000   0.016800   -0.004274
 0.245000   0.016779   -0.004205
 0.250000   0.016758   -0.004128
 0.255000   0.016737   -0.004045
 0.260000   0.016717   -0.003950
 0.265000   0.016698   -0.003840
 0.270000   0.016679   -0.003716
 0.275000   0.016661   -0.003576
 0.280000   0.016643   -0.003421
 0.285000   0.016627   -0.003250
 0.290000   0.016611   -0.003062
 0.295000   0.016596   -0.002856
 0.300000   0.016582   -0.002636
 0.305000   0.016570   -0.002402
 0.310000   0.016558   -0.002157
 0.315000   0.016548   -0.001902
 0.320000   0.016539   -0.001639
 0.325000   0.016532   -0.001374
 0.330000   0.016525   -0.001107
 0.335000   0.016521   -0.000840
 0.340000   0.016517   -0.000573
 0.345000   0.016515   -0.000306
 0.350000   0.016514   -0.000037
 0.355000   0.016514   0.000237
 0.360000   0.016516   0.000517
 0.365000   0.016520   0.000805
 0.370000   0.016524   0.001102
 0.375000   0.016531   0.001408
 0.380000   0.016538   0.001720
 0.385000   0.016548   0.002033
 0.390000   0.016559   0.002344
 0.395000   0.016571   0.002651
 0.400000   0.016585   0.002948
 0.405000   0.016601   0.003232
 0.410000   0.016618   0.003495
 0.415000   0.016636   0.003737
 0.420000   0.016655   0.003954
 0.425000   0.016675   0.004145
 0.430000   0.016696   0.004310
 0.435000   0.016718   0.004446
 0.440000   0.016741   0.004559
 0.445000   0.016764   0.004659
 0.450000   0.016787   0.004747
 0.455000   0.016811   0.004822
 0.460000   0.016836   0.004886
 0.465000   0.016860   0.004940
 0.470000   0.016885   0.004987
 0.475000   0.016910   0.005018
 0.480000   0.016935   0.005022
 0.485000   0.016960   0.004997
 0.490000   0.016985   0.004936
 0.495000   0.017010   0.004837
 0.500000   0.017034   0.004698
 0.505000   0.017057   0.004515
 0.510000   0.017079   0.004292
 0.515000   0.017100   0.004030
 0.520000   0.017119   0.003732
 0.525000   0.017137   0.003400
 0.530000   0.017153   0.003036
 0.535000   0.017167   0.002648
 0.540000   0.017180   0.002238
 0.545000   0.017190   0.001806
 0.550000   0.017198   0.001354
 0.555000   0.017203   0.000882
 0.560000   0.017206   0.000390
 0.565000   0.017207   -0.000124
 0.570000   0.017205   -0.000660
 0.575000   0.017201   -0.001220
 0.580000   0.017193   -0.001804
 0.585000   0.017182   -0.002409
 0.590000   0.017169   -0.003032
 0.595000   0.017152   -0.003669
 0.600000   0.017132   -0.004316
 0.605000   0.017109   -0.004968
 0.610000   0.017083   -0.005623
 0.615000   0.017053   -0.006279
 0.620000   0.017020   -0.006932
 0.625000   0.016983   -0.007583
 0.630000   0.016944   -0.008235
 0.635000   0.016901   -0.008884
 0.640000   0.016855   -0.009530
 0.645000   0.016806   -0.010172
 0.650000   0.016753   -0.010811
 0.655000   0.016698   -0.011447
 0.660000   0.016639   -0.012075
 0.665000   0.016577   -0.012700
 0.670000   0.016512   -0.013340
 0.675000   0.016444   -0.014036
 0.680000   0.016372   -0.014893
 0.685000   0.016295   -0.015971
 0.690000   0.016212   -0.017215
 0.695000   0.016122   -0.018601
 0.700000   0.016026   -0.020114
 0.705000   0.015921   -0.021720
 0.710000   0.015809   -0.023449
 0.715000   0.015687   -0.025186
 0.720000   0.015557   -0.026724
 0.725000   0.015420   -0.028044
 0.730000   0.015276   -0.029137
 0.735000   0.015128   -0.029949
 0.740000   0.014977   -0.030438
 0.745000   0.014824   -0.030514
 0.750000   0.014672   -0.030141
 0.755000   0.014522   -0.029381
 0.760000   0.014378   -0.028285
 0.765000   0.014240   -0.026905
 0.770000   0.014109   -0.025258
 0.775000   0.013987   -0.023412
 0.780000   0.013875   -0.021571
 0.785000   0.013771   -0.019829
 0.790000   0.013676   -0.018172
 0.795000   0.013590   -0.016630
 0.800000   0.013510   -0.015213
 0.805000   0.013437   -0.013946
 0.810000   0.013371   -0.012857
 0.815000   0.013309   -0.011883
 0.820000   0.013252   -0.010946
 0.825000   0.013199   -0.010023
 0.830000   0.013152   -0.009107
 0.835000   0.013108   -0.008201
 0.840000   0.013070   -0.007323
 0.845000   0.013035   -0.006486
 0.850000   0.013005   -0.005693
 0.855000   0.012978   -0.004949
 0.860000   0.012955   -0.004261
 0.865000   0.012936   -0.003636
 0.870000   0.012919   -0.003077
 0.875000   0.012905   -0.002577
 0.880000   0.012893   -0.002131
 0.885000   0.012883   -0.001743
 0.890000   0.012876   -0.001421
 0.895000   0.012869   -0.001187
 0.900000   0.012864   -0.001059
 0.905000   0.012859   -0.001072
 0.910000   0.012853   -0.001317
 0.915000   0.012846   -0.001951
 0.920000   0.012834   -0.003265
 0.925000   0.012813   -0.005907
 0.930000   0.012774   -0.010792
 0.935000   0.012705   -0.019229
 0.940000   0.012582   -0.033149
 0.945000   0.012373   -0.054758
 0.950000   0.012035   -0.085858
 0.955000   0.011515   -0.128141
 0.960000   0.010753   -0.177603
 0.965000   0.009739   -0.223997
 0.970000   0.008513   -0.256423
 0.975000   0.007175   -0.265823
 0.980000   0.005855   -0.250023
 0.985000   0.004674   -0.215435
 0.990000   0.003701   -0.172310
 0.995000   0.002951   -0.130729
 1.000000   0.002393   -0.092430
201 psinorm vtor1(km/s) dvtor1/dpsiN
 0.000000   111.980737   546.555427
 0.005000   114.100749   301.449356
 0.010000   114.995230   157.404346
 0.015000   115.674792   124.028762
 0.020000   116.235518   104.477726
 0.025000   116.719569   91.670734
 0.030000   117.152225   82.248343
 0.035000   117.542053   74.000484
 0.040000   117.892230   66.851750
 0.045000   118.210570   60.786525
 0.050000   118.500095   55.173573
 0.055000   118.762306   49.783917
 0.060000   118.997934   44.845757
 0.065000   119.210764   40.445351
 0.070000   119.402388   36.253116
 0.075000   119.573295   32.318655
 0.080000   119.725575   28.697186
 0.085000   119.860267   25.261333
 0.090000   119.978188   21.826282
 0.095000   120.078529   18.477763
 0.100000   120.162965   15.294879
 0.105000   120.231478   12.066545
 0.110000   120.283631   8.761474
 0.115000   120.319093   5.521002
 0.120000   120.338841   2.340029
 0.125000   120.342493   -0.929249
 0.130000   120.329548   -4.153266
 0.135000   120.300961   -7.314937
 0.140000   120.256399   -10.564424
 0.145000   120.195316   -13.882685
 0.150000   120.117572   -17.221731
 0.155000   120.023099   -20.615601
 0.160000   119.911416   -24.167445
 0.165000   119.781425   -27.851935
 0.170000   119.632897   -31.552285
 0.175000   119.465902   -35.271157
 0.180000   119.280185   -39.037814
 0.185000   119.075524   -42.801082
 0.190000   118.852174   -46.524022
 0.195000   118.610283   -50.157717
 0.200000   118.350597   -53.567501
 0.205000   118.074608   -56.675257
 0.210000   117.783845   -59.473494
 0.215000   117.479873   -61.959883
 0.220000   117.164246   -64.037185
 0.225000   116.839502   -65.567604
 0.230000   116.508570   -66.764968
 0.235000   116.171852   -67.772346
 0.240000   115.830846   -68.493256
 0.245000   115.486919   -68.969574
 0.250000   115.141151   -69.225636
 0.255000   114.794663   -69.115174
 0.260000   114.449999   -68.846254
 0.265000   114.106200   -68.607555
 0.270000   113.763923   -68.259908
 0.275000   113.423601   -67.847249
 0.280000   113.085451   -67.421149
 0.285000   112.749390   -67.001123
 0.290000   112.415440   -66.835130
 0.295000   112.081039   -67.037633
 0.300000   111.745063   -67.438265
 0.305000   111.406656   -67.969485
 0.310000   111.065369   -68.529243
 0.315000   110.721363   -69.014624
 0.320000   110.375222   -69.401039
 0.325000   110.027353   -69.700006
 0.330000   109.678222   -69.895169
 0.335000   109.328401   -69.988010
 0.340000   108.978342   -69.999095
 0.345000   108.628410   -69.897794
 0.350000   108.279364   -69.712373
 0.355000   107.931287   -69.494546
 0.360000   107.584419   -69.227237
 0.365000   107.239014   -68.914076
 0.370000   106.895278   -68.571673
 0.375000   106.553298   -68.194404
 0.380000   106.213334   -67.793773
 0.385000   105.875360   -67.389467
 0.390000   105.539439   -66.971795
 0.395000   105.205642   -66.525335
 0.400000   104.874186   -66.039220
 0.405000   104.545250   -65.521956
 0.410000   104.218966   -65.108481
 0.415000   103.894165   -65.063116
 0.420000   103.568335   -65.612415
 0.425000   103.238041   -66.894986
 0.430000   102.899385   -68.948582
 0.435000   102.548555   -72.035037
 0.440000   102.179035   -76.121685
 0.445000   101.787338   -80.551540
 0.450000   101.373520   -85.088824
 0.455000   100.936450   -89.791294
 0.460000   100.475607   -94.535577
 0.465000   99.991094   -99.460642
 0.470000   99.481000   -104.363103
 0.475000   98.947463   -108.412441
 0.480000   98.396876   -111.479850
 0.485000   97.832665   -113.823458
 0.490000   97.258641   -115.385010
 0.495000   96.678814   -116.157637
 0.500000   96.097065   -116.036041
 0.505000   95.518454   -115.053523
 0.510000   94.946530   -113.592201
 0.515000   94.382532   -111.929397
 0.520000   93.827236   -110.151095
 0.525000   93.281021   -108.290112
 0.530000   92.744335   -106.315947
 0.535000   92.217862   -104.370734
 0.540000   91.700627   -102.581148
 0.545000   91.192050   -100.924080
 0.550000   90.691386   -99.441289
 0.555000   90.197637   -98.154971
 0.560000   89.709837   -97.032592
 0.565000   89.227311   -96.239309
 0.570000   88.747444   -95.878334
 0.575000   88.268528   -95.866986
 0.580000   87.788774   -96.227364
 0.585000   87.306254   -96.977276
 0.590000   86.819001   -98.120995
 0.595000   86.325044   -99.559734
 0.600000   85.823404   -101.142130
 0.605000   85.313623   -102.804699
 0.610000   84.795357   -104.527428
 0.615000   84.268349   -106.287062
 0.620000   83.732486   -107.976087
 0.625000   83.188588   -109.653336
 0.630000   82.635953   -111.413115
 0.635000   82.074457   -113.198061
 0.640000   81.503972   -115.004564
 0.645000   80.924411   -116.830338
 0.650000   80.335669   -118.610571
 0.655000   79.738305   -120.492267
 0.660000   79.130746   -122.644100
 0.665000   78.511864   -125.012572
 0.670000   77.880620   -127.592371
 0.675000   77.235941   -130.388214
 0.680000   76.576738   -133.392582
 0.685000   75.902015   -136.235703
 0.690000   75.214381   -138.406228
 0.695000   74.517953   -139.741321
 0.700000   73.816968   -140.257416
 0.705000   73.115378   -140.057732
 0.710000   72.416391   -139.173978
 0.715000   71.723639   -137.949680
 0.720000   71.036894   -136.817791
 0.725000   70.355461   -135.760393
 0.730000   69.679290   -134.739971
 0.735000   69.008061   -133.803788
 0.740000   68.341252   -132.993804
 0.745000   67.678123   -132.468665
 0.750000   67.016565   -132.413027
 0.755000   66.353993   -132.978004
 0.760000   65.686785   -134.339712
 0.765000   65.010596   -136.592927
 0.770000   64.320856   -140.003658
 0.775000   63.610559   -144.398330
 0.780000   62.876873   -148.476271
 0.785000   62.125796   -151.620264
 0.790000   61.360670   -154.031234
 0.795000   60.585484   -155.614989
 0.800000   59.804520   -156.504801
 0.805000   59.020436   -156.943209
 0.810000   58.235088   -156.736562
 0.815000   57.453070   -156.006816
 0.820000   56.675020   -155.209364
 0.825000   55.900977   -154.480848
 0.830000   55.130211   -154.052877
 0.835000   54.360448   -154.178879
 0.840000   53.588423   -154.876201
 0.845000   52.811686   -156.636378
 0.850000   52.022059   -160.291496
 0.855000   51.208771   -166.330629
 0.860000   50.358753   -175.255966
 0.865000   49.456211   -188.016369
 0.870000   48.478589   -204.509119
 0.875000   47.411120   -224.606849
 0.880000   46.232520   -249.069196
 0.885000   44.920428   -277.978652
 0.890000   43.452734   -311.109916
 0.895000   41.809329   -348.881689
 0.900000   39.963917   -388.924841
 0.905000   37.920081   -428.482764
 0.910000   35.679089   -466.699295
 0.915000   33.253088   -501.268862
 0.920000   30.666401   -529.722352
 0.925000   27.955864   -549.772178
 0.930000   25.168679   -558.254209
 0.935000   22.373322   -552.948260
 0.940000   19.639196   -533.749596
 0.945000   17.035826   -501.296961
 0.950000   14.626227   -457.508892
 0.955000   12.460737   -404.141025
 0.960000   10.584817   -345.830500
 0.965000   9.002432   -287.927779
 0.970000   7.705539   -232.677860
 0.975000   6.675654   -182.024806
 0.980000   5.885291   -137.387138
 0.985000   5.301782   -99.150148
 0.990000   4.893789   -67.868796
 0.995000   4.623094   -43.691452
 1.000000   4.456875   -22.796374
201 psinorm vpol1(km/s) dvpol1/dpsiN
 0.000000   0.000109   5.896875
 0.005000   0.031867   6.806250
 0.010000   0.068172   7.712500
 0.015000   0.108992   8.579687
 0.020000   0.153969   9.361719
 0.025000   0.202609   10.024609
 0.030000   0.254215   10.509766
 0.035000   0.307707   10.829687
 0.040000   0.362512   11.037109
 0.045000   0.418078   11.131250
 0.050000   0.473824   11.134375
 0.055000   0.529422   11.071875
 0.060000   0.584543   10.958203
 0.065000   0.639004   10.834375
 0.070000   0.692887   10.707813
 0.075000   0.746082   10.559766
 0.080000   0.798484   10.394922
 0.085000   0.850031   10.210156
 0.090000   0.900586   10.011719
 0.095000   0.950148   9.817578
 0.100000   0.998762   9.644922
 0.105000   1.046598   9.525391
 0.110000   1.094016   9.483984
 0.115000   1.141438   9.562891
 0.120000   1.189645   9.782031
 0.125000   1.239258   10.070312
 0.130000   1.290348   10.388672
 0.135000   1.343145   10.731250
 0.140000   1.397660   11.071484
 0.145000   1.453859   11.408594
 0.150000   1.511746   11.666797
 0.155000   1.570527   11.789844
 0.160000   1.629645   11.802344
 0.165000   1.688551   11.708203
 0.170000   1.746727   11.499609
 0.175000   1.803547   11.155078
 0.180000   1.858277   10.671875
 0.185000   1.910266   10.085938
 0.190000   1.959137   9.428906
 0.195000   2.004555   8.723437
 0.200000   2.046371   7.995703
 0.205000   2.084512   7.261719
 0.210000   2.118988   6.600391
 0.215000   2.150516   6.031250
 0.220000   2.179301   5.492578
 0.225000   2.205441   4.950781
 0.230000   2.228809   4.366797
 0.235000   2.249109   3.714453
 0.240000   2.265953   2.969727
 0.245000   2.278807   2.135156
 0.250000   2.287305   1.235547
 0.255000   2.291162   0.280273
 0.260000   2.290107   -0.710156
 0.265000   2.284061   -1.706250
 0.270000   2.273045   -2.689063
 0.275000   2.257170   -3.651562
 0.280000   2.236529   -4.590625
 0.285000   2.211264   -5.504297
 0.290000   2.181486   -6.403711
 0.295000   2.147227   -7.306445
 0.300000   2.108422   -8.247461
 0.305000   2.064752   -9.247461
 0.310000   2.015947   -10.316211
 0.315000   1.961590   -11.477539
 0.320000   1.901172   -12.753906
 0.325000   1.834051   -14.093750
 0.330000   1.760234   -15.378125
 0.335000   1.680270   -16.538281
 0.340000   1.594852   -17.540625
 0.345000   1.504863   -18.364844
 0.350000   1.411203   -18.965625
 0.355000   1.315207   -19.399023
 0.360000   1.217213   -19.777148
 0.365000   1.117436   -20.116406
 0.370000   1.016049   -20.437109
 0.375000   0.913064   -20.773828
 0.380000   0.808311   -21.175781
 0.385000   0.701307   -21.726367
 0.390000   0.591047   -22.413867
 0.395000   0.477168   -23.126758
 0.400000   0.359779   -23.783789
 0.405000   0.239330   -24.311719
 0.410000   0.116662   -24.727344
 0.415000   -0.007943   -25.342383
 0.420000   -0.136762   -26.512891
 0.425000   -0.273072   -28.357422
 0.430000   -0.420336   -30.894336
 0.435000   -0.582016   -34.181055
 0.440000   -0.762146   -38.427148
 0.445000   -0.966287   -42.933203
 0.450000   -1.191479   -47.025195
 0.455000   -1.436539   -50.731445
 0.460000   -1.698793   -53.739258
 0.465000   -1.973932   -55.768555
 0.470000   -2.256479   -56.318555
 0.475000   -2.537117   -54.969922
 0.480000   -2.806178   -51.994922
 0.485000   -3.057066   -47.843750
 0.490000   -3.284615   -42.852539
 0.495000   -3.485592   -37.185156
 0.500000   -3.656467   -31.233594
 0.505000   -3.797928   -25.841602
 0.510000   -3.914883   -21.306836
 0.515000   -4.010996   -17.510938
 0.520000   -4.089992   -14.476562
 0.525000   -4.155762   -12.205859
 0.530000   -4.212051   -10.784375
 0.535000   -4.263605   -10.017383
 0.540000   -4.312225   -9.477734
 0.545000   -4.358383   -8.986133
 0.550000   -4.402086   -8.464062
 0.555000   -4.443023   -7.898438
 0.560000   -4.481070   -7.231055
 0.565000   -4.515334   -6.419336
 0.570000   -4.545264   -5.508398
 0.575000   -4.570418   -4.522656
 0.580000   -4.590490   -3.491797
 0.585000   -4.605336   -2.454687
 0.590000   -4.615037   -1.450977
 0.595000   -4.619846   -0.519531
 0.600000   -4.620232   0.307422
 0.605000   -4.616771   1.017188
 0.610000   -4.610061   1.601953
 0.615000   -4.600752   2.056055
 0.620000   -4.589500   2.405469
 0.625000   -4.576697   2.683398
 0.630000   -4.562666   2.910937
 0.635000   -4.547588   3.101758
 0.640000   -4.531648   3.268945
 0.645000   -4.514898   3.436523
 0.650000   -4.497283   3.590430
 0.655000   -4.478994   3.714063
 0.660000   -4.460143   3.810742
 0.665000   -4.440887   3.883008
 0.670000   -4.421312   3.928906
 0.675000   -4.401598   3.955078
 0.680000   -4.381762   3.977344
 0.685000   -4.361824   3.990234
 0.690000   -4.341859   3.990625
 0.695000   -4.321918   3.970898
 0.700000   -4.302150   3.935742
 0.705000   -4.282561   3.870703
 0.710000   -4.263443   3.750293
 0.715000   -4.245058   3.581348
 0.720000   -4.227630   3.354297
 0.725000   -4.211515   3.077637
 0.730000   -4.196854   2.750977
 0.735000   -4.184005   2.372070
 0.740000   -4.173133   1.960059
 0.745000   -4.164404   1.527539
 0.750000   -4.157857   1.087793
 0.755000   -4.153526   0.648437
 0.760000   -4.151373   0.221973
 0.765000   -4.151307   -0.189355
 0.770000   -4.153267   -0.598242
 0.775000   -4.157289   -1.028906
 0.780000   -4.163556   -1.500195
 0.785000   -4.172291   -2.036816
 0.790000   -4.183924   -2.683789
 0.795000   -4.199129   -3.429688
 0.800000   -4.218221   -4.241406
 0.805000   -4.241543   -5.105273
 0.810000   -4.269273   -6.000586
 0.815000   -4.301549   -6.913281
 0.820000   -4.338406   -7.861133
 0.825000   -4.380160   -8.806836
 0.830000   -4.426475   -9.691699
 0.835000   -4.477077   -10.499219
 0.840000   -4.531467   -11.186230
 0.845000   -4.588939   -11.712793
 0.850000   -4.648595   -12.024658
 0.855000   -4.709186   -12.088086
 0.860000   -4.769476   -11.934326
 0.865000   -4.828529   -11.621631
 0.870000   -4.885692   -11.187842
 0.875000   -4.940408   -10.666992
 0.880000   -4.992362   -10.058203
 0.885000   -5.040990   -9.259521
 0.890000   -5.084957   -8.198145
 0.895000   -5.122971   -6.877368
 0.900000   -5.153731   -5.264380
 0.905000   -5.175615   -3.295313
 0.910000   -5.186684   -0.852917
 0.915000   -5.184144   2.202869
 0.920000   -5.164655   5.960570
 0.925000   -5.124538   10.550891
 0.930000   -5.059146   16.154610
 0.935000   -4.962992   23.125562
 0.940000   -4.827891   30.658026
 0.945000   -4.656412   35.959375
 0.950000   -4.468297   35.390234
 0.955000   -4.302510   25.760449
 0.960000   -4.210692   8.269629
 0.965000   -4.219813   -4.613574
 0.970000   -4.256828   16.038770
 0.975000   -4.059426   104.828906
 0.980000   -3.208539   269.975977
 0.985000   -1.359666   461.307031
 0.990000   1.404531   574.869336
 0.995000   4.389027   513.531250
 1.000000   6.539844   346.795312
3 N Z A of ION SPECIES
 6.000000   6.000000   12.010700
 1.000000   1.000000   2.000000
 1.000000   1.000000   2.000000
