201 psinorm ne(10^20/m^3) dne/dpsiN
 0.000000   0.508065   -0.256313
 0.005000   0.506786   -0.255593
 0.010000   0.505509   -0.254874
 0.015000   0.504237   -0.254158
 0.020000   0.502968   -0.253443
 0.025000   0.501702   -0.252731
 0.030000   0.500441   -0.252021
 0.035000   0.499182   -0.251313
 0.040000   0.497927   -0.250608
 0.045000   0.496676   -0.249904
 0.050000   0.495428   -0.249203
 0.055000   0.494184   -0.248503
 0.060000   0.492943   -0.247806
 0.065000   0.491706   -0.247111
 0.070000   0.490472   -0.246418
 0.075000   0.489242   -0.245727
 0.080000   0.488015   -0.245039
 0.085000   0.486792   -0.244352
 0.090000   0.485571   -0.243667
 0.095000   0.484355   -0.242985
 0.100000   0.483142   -0.242304
 0.105000   0.481932   -0.241626
 0.110000   0.480725   -0.240950
 0.115000   0.479522   -0.240276
 0.120000   0.478323   -0.239603
 0.125000   0.477126   -0.238933
 0.130000   0.475933   -0.238265
 0.135000   0.474744   -0.237599
 0.140000   0.473557   -0.236935
 0.145000   0.472374   -0.236273
 0.150000   0.471195   -0.235613
 0.155000   0.470018   -0.234955
 0.160000   0.468845   -0.234299
 0.165000   0.467675   -0.233644
 0.170000   0.466509   -0.232992
 0.175000   0.465345   -0.232342
 0.180000   0.464185   -0.231694
 0.185000   0.463028   -0.231048
 0.190000   0.461875   -0.230403
 0.195000   0.460724   -0.229761
 0.200000   0.459577   -0.229121
 0.205000   0.458433   -0.228482
 0.210000   0.457292   -0.227846
 0.215000   0.456155   -0.227211
 0.220000   0.455020   -0.226578
 0.225000   0.453889   -0.225948
 0.230000   0.452761   -0.225319
 0.235000   0.451636   -0.224692
 0.240000   0.450514   -0.224067
 0.245000   0.449395   -0.223444
 0.250000   0.448279   -0.222822
 0.255000   0.447167   -0.222203
 0.260000   0.446057   -0.221585
 0.265000   0.444951   -0.220969
 0.270000   0.443848   -0.220356
 0.275000   0.442747   -0.219744
 0.280000   0.441650   -0.219133
 0.285000   0.440556   -0.218525
 0.290000   0.439465   -0.217919
 0.295000   0.438377   -0.217314
 0.300000   0.437292   -0.216711
 0.305000   0.436210   -0.216110
 0.310000   0.435131   -0.215511
 0.315000   0.434055   -0.214913
 0.320000   0.432982   -0.214318
 0.325000   0.431911   -0.213724
 0.330000   0.430844   -0.213132
 0.335000   0.429780   -0.212541
 0.340000   0.428719   -0.211953
 0.345000   0.427661   -0.211366
 0.350000   0.426605   -0.210781
 0.355000   0.425553   -0.210198
 0.360000   0.424503   -0.209616
 0.365000   0.423457   -0.209037
 0.370000   0.422413   -0.208459
 0.375000   0.421372   -0.207882
 0.380000   0.420334   -0.207308
 0.385000   0.419299   -0.206735
 0.390000   0.418267   -0.206164
 0.395000   0.417237   -0.205595
 0.400000   0.416211   -0.205027
 0.405000   0.415187   -0.204461
 0.410000   0.414166   -0.203897
 0.415000   0.413148   -0.203334
 0.420000   0.412133   -0.202773
 0.425000   0.411120   -0.202214
 0.430000   0.410111   -0.201656
 0.435000   0.409104   -0.201101
 0.440000   0.408100   -0.200546
 0.445000   0.407098   -0.199994
 0.450000   0.406100   -0.199443
 0.455000   0.405104   -0.198894
 0.460000   0.404111   -0.198346
 0.465000   0.403120   -0.197800
 0.470000   0.402133   -0.197256
 0.475000   0.401148   -0.196713
 0.480000   0.400166   -0.196172
 0.485000   0.399186   -0.195632
 0.490000   0.398209   -0.195094
 0.495000   0.397235   -0.194558
 0.500000   0.396264   -0.194023
 0.505000   0.395295   -0.193490
 0.510000   0.394329   -0.192959
 0.515000   0.393365   -0.192429
 0.520000   0.392405   -0.191901
 0.525000   0.391446   -0.191374
 0.530000   0.390491   -0.190849
 0.535000   0.389538   -0.190325
 0.540000   0.388588   -0.189803
 0.545000   0.387640   -0.189283
 0.550000   0.386695   -0.188764
 0.555000   0.385752   -0.188246
 0.560000   0.384812   -0.187730
 0.565000   0.383875   -0.187216
 0.570000   0.382940   -0.186703
 0.575000   0.382008   -0.186192
 0.580000   0.381078   -0.185682
 0.585000   0.380151   -0.185174
 0.590000   0.379226   -0.184667
 0.595000   0.378304   -0.184162
 0.600000   0.377385   -0.183658
 0.605000   0.376468   -0.183156
 0.610000   0.375553   -0.182655
 0.615000   0.374641   -0.182156
 0.620000   0.373732   -0.181658
 0.625000   0.372825   -0.181162
 0.630000   0.371920   -0.180667
 0.635000   0.371018   -0.180174
 0.640000   0.370118   -0.179682
 0.645000   0.369221   -0.179192
 0.650000   0.368326   -0.178703
 0.655000   0.367434   -0.178215
 0.660000   0.366544   -0.177729
 0.665000   0.365657   -0.177244
 0.670000   0.364772   -0.176761
 0.675000   0.363889   -0.176279
 0.680000   0.363009   -0.175799
 0.685000   0.362131   -0.175320
 0.690000   0.361256   -0.174843
 0.695000   0.360383   -0.174367
 0.700000   0.359512   -0.173892
 0.705000   0.358644   -0.173419
 0.710000   0.357778   -0.172947
 0.715000   0.356914   -0.172476
 0.720000   0.356053   -0.172007
 0.725000   0.355194   -0.171540
 0.730000   0.354338   -0.171073
 0.735000   0.353484   -0.170608
 0.740000   0.352632   -0.170145
 0.745000   0.351782   -0.169683
 0.750000   0.350935   -0.169222
 0.755000   0.350090   -0.168762
 0.760000   0.349247   -0.168304
 0.765000   0.348407   -0.167848
 0.770000   0.347569   -0.167392
 0.775000   0.346733   -0.166938
 0.780000   0.345899   -0.166485
 0.785000   0.345068   -0.166034
 0.790000   0.344239   -0.165584
 0.795000   0.343412   -0.165135
 0.800000   0.342588   -0.164688
 0.805000   0.341765   -0.164242
 0.810000   0.340945   -0.163797
 0.815000   0.340127   -0.163353
 0.820000   0.339312   -0.162911
 0.825000   0.338498   -0.162470
 0.830000   0.337687   -0.162031
 0.835000   0.336878   -0.161592
 0.840000   0.336071   -0.161155
 0.845000   0.335266   -0.160719
 0.850000   0.334464   -0.160284
 0.855000   0.333664   -0.159849
 0.860000   0.332865   -0.159414
 0.865000   0.332070   -0.158977
 0.870000   0.331276   -0.158536
 0.875000   0.330484   -0.158087
 0.880000   0.329695   -0.157624
 0.885000   0.328908   -0.157136
 0.890000   0.328123   -0.156616
 0.895000   0.327342   -0.156067
 0.900000   0.326563   -0.155552
 0.905000   0.325786   -0.155306
 0.910000   0.325010   -0.156078
 0.915000   0.324225   -0.159970
 0.920000   0.323410   -0.172556
 0.925000   0.322500   -0.207930
 0.930000   0.321331   -0.300070
 0.935000   0.319499   -0.525505
 0.940000   0.316076   -1.035787
 0.945000   0.309141   -2.054014
 0.950000   0.295536   -3.683007
 0.955000   0.272311   -5.460376
 0.960000   0.240932   -6.355072
 0.965000   0.208761   -5.840903
 0.970000   0.182523   -4.529796
 0.975000   0.163463   -3.284594
 0.980000   0.149677   -2.435527
 0.985000   0.139107   -1.926016
 0.990000   0.130417   -1.623689
 0.995000   0.122870   -1.432967
 1.000000   0.116087   -1.280403
201 psinorm te(KeV) dte/dpsiN
 0.000000   4.081831   -3.927621
 0.005000   4.062195   -3.926818
 0.010000   4.042563   -3.925928
 0.015000   4.022936   -3.924869
 0.020000   4.003314   -3.923639
 0.025000   3.983700   -3.922239
 0.030000   3.964092   -3.920672
 0.035000   3.944493   -3.918937
 0.040000   3.924903   -3.917037
 0.045000   3.905322   -3.914970
 0.050000   3.885753   -3.912740
 0.055000   3.866195   -3.910345
 0.060000   3.846650   -3.907789
 0.065000   3.827117   -3.905071
 0.070000   3.807599   -3.902192
 0.075000   3.788095   -3.899154
 0.080000   3.768607   -3.895958
 0.085000   3.749136   -3.892604
 0.090000   3.729681   -3.889094
 0.095000   3.710245   -3.885429
 0.100000   3.690827   -3.881609
 0.105000   3.671429   -3.877636
 0.110000   3.652051   -3.873511
 0.115000   3.632694   -3.869235
 0.120000   3.613358   -3.864809
 0.125000   3.594045   -3.860234
 0.130000   3.574756   -3.855512
 0.135000   3.555490   -3.850642
 0.140000   3.536249   -3.845628
 0.145000   3.517034   -3.840468
 0.150000   3.497845   -3.835166
 0.155000   3.478682   -3.829721
 0.160000   3.459548   -3.824136
 0.165000   3.440441   -3.818410
 0.170000   3.421363   -3.812546
 0.175000   3.402316   -3.806544
 0.180000   3.383298   -3.800406
 0.185000   3.364312   -3.794133
 0.190000   3.345357   -3.787725
 0.195000   3.326434   -3.781185
 0.200000   3.307545   -3.774513
 0.205000   3.288689   -3.767711
 0.210000   3.269868   -3.760780
 0.215000   3.251081   -3.753720
 0.220000   3.232331   -3.746534
 0.225000   3.213616   -3.739222
 0.230000   3.194938   -3.731785
 0.235000   3.176298   -3.724226
 0.240000   3.157696   -3.716544
 0.245000   3.139133   -3.708742
 0.250000   3.120609   -3.700820
 0.255000   3.102125   -3.692780
 0.260000   3.083681   -3.684623
 0.265000   3.065278   -3.676350
 0.270000   3.046917   -3.667962
 0.275000   3.028599   -3.659462
 0.280000   3.010323   -3.650849
 0.285000   2.992090   -3.642125
 0.290000   2.973901   -3.633292
 0.295000   2.955757   -3.624351
 0.300000   2.937658   -3.615302
 0.305000   2.919604   -3.606148
 0.310000   2.901597   -3.596889
 0.315000   2.883635   -3.587527
 0.320000   2.865721   -3.578063
 0.325000   2.847855   -3.568499
 0.330000   2.830036   -3.558835
 0.335000   2.812266   -3.549073
 0.340000   2.794546   -3.539213
 0.345000   2.776874   -3.529259
 0.350000   2.759253   -3.519210
 0.355000   2.741682   -3.509067
 0.360000   2.724162   -3.498833
 0.365000   2.706694   -3.488509
 0.370000   2.689277   -3.478095
 0.375000   2.671913   -3.467593
 0.380000   2.654601   -3.457005
 0.385000   2.637343   -3.446331
 0.390000   2.620138   -3.435572
 0.395000   2.602987   -3.424731
 0.400000   2.585891   -3.413808
 0.405000   2.568849   -3.402805
 0.410000   2.551863   -3.391723
 0.415000   2.534932   -3.380563
 0.420000   2.518057   -3.369326
 0.425000   2.501239   -3.358014
 0.430000   2.484477   -3.346628
 0.435000   2.467772   -3.335169
 0.440000   2.451125   -3.323638
 0.445000   2.434536   -3.312038
 0.450000   2.418005   -3.300368
 0.455000   2.401532   -3.288630
 0.460000   2.385118   -3.276826
 0.465000   2.368764   -3.264956
 0.470000   2.352469   -3.253023
 0.475000   2.336234   -3.241026
 0.480000   2.320059   -3.228968
 0.485000   2.303944   -3.216850
 0.490000   2.287890   -3.204672
 0.495000   2.271897   -3.192437
 0.500000   2.255966   -3.180145
 0.505000   2.240096   -3.167797
 0.510000   2.224288   -3.155395
 0.515000   2.208542   -3.142941
 0.520000   2.192858   -3.130434
 0.525000   2.177238   -3.117877
 0.530000   2.161680   -3.105270
 0.535000   2.146185   -3.092615
 0.540000   2.130753   -3.079913
 0.545000   2.115386   -3.067165
 0.550000   2.100082   -3.054373
 0.555000   2.084842   -3.041537
 0.560000   2.069666   -3.028658
 0.565000   2.054555   -3.015739
 0.570000   2.039509   -3.002780
 0.575000   2.024528   -2.989781
 0.580000   2.009611   -2.976745
 0.585000   1.994760   -2.963673
 0.590000   1.979975   -2.950565
 0.595000   1.965254   -2.937423
 0.600000   1.950600   -2.924248
 0.605000   1.936012   -2.911041
 0.610000   1.921490   -2.897803
 0.615000   1.907034   -2.884536
 0.620000   1.892645   -2.871239
 0.625000   1.878322   -2.857915
 0.630000   1.864065   -2.844565
 0.635000   1.849876   -2.831190
 0.640000   1.835753   -2.817790
 0.645000   1.821698   -2.804367
 0.650000   1.807710   -2.790922
 0.655000   1.793789   -2.777455
 0.660000   1.779935   -2.763969
 0.665000   1.766149   -2.750464
 0.670000   1.752431   -2.736941
 0.675000   1.738780   -2.723401
 0.680000   1.725197   -2.709845
 0.685000   1.711681   -2.696274
 0.690000   1.698234   -2.682689
 0.695000   1.684854   -2.669091
 0.700000   1.671543   -2.655480
 0.705000   1.658300   -2.641859
 0.710000   1.645124   -2.628226
 0.715000   1.632017   -2.614584
 0.720000   1.618979   -2.600933
 0.725000   1.606008   -2.587274
 0.730000   1.593106   -2.573606
 0.735000   1.580272   -2.559930
 0.740000   1.567506   -2.546247
 0.745000   1.554809   -2.532556
 0.750000   1.542181   -2.518857
 0.755000   1.529621   -2.505150
 0.760000   1.517129   -2.491432
 0.765000   1.504707   -2.477703
 0.770000   1.492352   -2.463961
 0.775000   1.480067   -2.450202
 0.780000   1.467850   -2.436423
 0.785000   1.455703   -2.422619
 0.790000   1.443624   -2.408787
 0.795000   1.431615   -2.394919
 0.800000   1.419675   -2.381008
 0.805000   1.407805   -2.367050
 0.810000   1.396004   -2.353038
 0.815000   1.384274   -2.338969
 0.820000   1.372615   -2.324845
 0.825000   1.361026   -2.310679
 0.830000   1.349508   -2.296499
 0.835000   1.338061   -2.282359
 0.840000   1.326684   -2.268357
 0.845000   1.315377   -2.254656
 0.850000   1.304138   -2.241521
 0.855000   1.292962   -2.229373
 0.860000   1.281844   -2.218865
 0.865000   1.270774   -2.210999
 0.870000   1.259734   -2.207293
 0.875000   1.248701   -2.210026
 0.880000   1.237634   -2.222590
 0.885000   1.226475   -2.249999
 0.890000   1.215134   -2.299602
 0.895000   1.203479   -2.382098
 0.900000   1.191313   -2.512917
 0.905000   1.178349   -2.714067
 0.910000   1.164172   -3.016493
 0.915000   1.148185   -3.462813
 0.920000   1.129544   -4.109995
 0.925000   1.107085   -5.030726
 0.930000   1.079237   -6.310905
 0.935000   1.043976   -8.038519
 0.940000   0.998852   -10.276818
 0.945000   0.941207   -13.014440
 0.950000   0.868707   -16.092901
 0.955000   0.780278   -19.135467
 0.960000   0.677353   -21.540128
 0.965000   0.564877   -22.619043
 0.970000   0.451162   -21.898763
 0.975000   0.345889   -19.424910
 0.980000   0.256913   -15.807855
 0.985000   0.187811   -11.917645
 0.990000   0.137737   -8.464631
 0.995000   0.103165   -5.781307
 1.000000   0.079924   -3.515136
201 psinorm ni(10^20/m^3) dni/dpsiN
 0.000000   0.305248   -0.316878
 0.005000   0.303877   -0.231423
 0.010000   0.302934   -0.162259
 0.015000   0.302255   -0.114965
 0.020000   0.301784   -0.075838
 0.025000   0.301496   -0.042203
 0.030000   0.301362   -0.014417
 0.035000   0.301352   0.008586
 0.040000   0.301448   0.028110
 0.045000   0.301633   0.044696
 0.050000   0.301895   0.058148
 0.055000   0.302215   0.068816
 0.060000   0.302583   0.076938
 0.065000   0.302984   0.082812
 0.070000   0.303411   0.086909
 0.075000   0.303853   0.089437
 0.080000   0.304306   0.090620
 0.085000   0.304760   0.090308
 0.090000   0.305209   0.088931
 0.095000   0.305649   0.086586
 0.100000   0.306075   0.083124
 0.105000   0.306480   0.078788
 0.110000   0.306863   0.074037
 0.115000   0.307220   0.068958
 0.120000   0.307552   0.063520
 0.125000   0.307856   0.057730
 0.130000   0.308129   0.051648
 0.135000   0.308372   0.045347
 0.140000   0.308583   0.038936
 0.145000   0.308762   0.032437
 0.150000   0.308907   0.025841
 0.155000   0.309020   0.019232
 0.160000   0.309100   0.012672
 0.165000   0.309147   0.006186
 0.170000   0.309162   -0.000195
 0.175000   0.309145   -0.006455
 0.180000   0.309097   -0.012591
 0.185000   0.309019   -0.018566
 0.190000   0.308911   -0.024329
 0.195000   0.308776   -0.029880
 0.200000   0.308612   -0.035724
 0.205000   0.308418   -0.041390
 0.210000   0.308199   -0.046361
 0.215000   0.307955   -0.051085
 0.220000   0.307688   -0.055559
 0.225000   0.307399   -0.059760
 0.230000   0.307090   -0.063700
 0.235000   0.306762   -0.067813
 0.240000   0.306412   -0.071886
 0.245000   0.306043   -0.075334
 0.250000   0.305659   -0.078395
 0.255000   0.305259   -0.081270
 0.260000   0.304846   -0.084006
 0.265000   0.304419   -0.087067
 0.270000   0.303975   -0.090064
 0.275000   0.303519   -0.092522
 0.280000   0.303050   -0.094849
 0.285000   0.302570   -0.097138
 0.290000   0.302079   -0.099688
 0.295000   0.301573   -0.102334
 0.300000   0.301055   -0.104651
 0.305000   0.300527   -0.106823
 0.310000   0.299987   -0.108998
 0.315000   0.299437   -0.111467
 0.320000   0.298872   -0.113916
 0.325000   0.298298   -0.115972
 0.330000   0.297713   -0.117915
 0.335000   0.297118   -0.119865
 0.340000   0.296514   -0.121923
 0.345000   0.295899   -0.123814
 0.350000   0.295276   -0.125466
 0.355000   0.294645   -0.127124
 0.360000   0.294005   -0.128965
 0.365000   0.293355   -0.130851
 0.370000   0.292696   -0.132622
 0.375000   0.292029   -0.134430
 0.380000   0.291352   -0.136381
 0.385000   0.290665   -0.138442
 0.390000   0.289967   -0.140450
 0.395000   0.289260   -0.142420
 0.400000   0.288543   -0.144441
 0.405000   0.287816   -0.146520
 0.410000   0.287078   -0.148520
 0.415000   0.286331   -0.150392
 0.420000   0.285574   -0.152208
 0.425000   0.284809   -0.154019
 0.430000   0.284034   -0.155727
 0.435000   0.283251   -0.157260
 0.440000   0.282461   -0.158711
 0.445000   0.281664   -0.160192
 0.450000   0.280859   -0.161635
 0.455000   0.280048   -0.162957
 0.460000   0.279230   -0.164244
 0.465000   0.278405   -0.165555
 0.470000   0.277574   -0.166807
 0.475000   0.276737   -0.167873
 0.480000   0.275896   -0.168776
 0.485000   0.275050   -0.169564
 0.490000   0.274200   -0.170171
 0.495000   0.273348   -0.170495
 0.500000   0.272495   -0.170535
 0.505000   0.271643   -0.170327
 0.510000   0.270792   -0.169860
 0.515000   0.269944   -0.169069
 0.520000   0.269101   -0.167965
 0.525000   0.268264   -0.166598
 0.530000   0.267435   -0.165004
 0.535000   0.266614   -0.163173
 0.540000   0.265803   -0.161108
 0.545000   0.265003   -0.158845
 0.550000   0.264215   -0.156442
 0.555000   0.263439   -0.153842
 0.560000   0.262676   -0.150999
 0.565000   0.261929   -0.147966
 0.570000   0.261197   -0.144761
 0.575000   0.260481   -0.141342
 0.580000   0.259783   -0.137658
 0.585000   0.259105   -0.133742
 0.590000   0.258446   -0.129636
 0.595000   0.257808   -0.125375
 0.600000   0.257192   -0.120951
 0.605000   0.256599   -0.116376
 0.610000   0.256028   -0.111697
 0.615000   0.255482   -0.106954
 0.620000   0.254959   -0.102166
 0.625000   0.254460   -0.097311
 0.630000   0.253986   -0.092400
 0.635000   0.253536   -0.087462
 0.640000   0.253111   -0.082509
 0.645000   0.252711   -0.077536
 0.650000   0.252336   -0.072540
 0.655000   0.251986   -0.067526
 0.660000   0.251661   -0.062509
 0.665000   0.251361   -0.057468
 0.670000   0.251086   -0.052262
 0.675000   0.250838   -0.046623
 0.680000   0.250620   -0.039796
 0.685000   0.250440   -0.031338
 0.690000   0.250306   -0.021568
 0.695000   0.250224   -0.010645
 0.700000   0.250200   0.001357
 0.705000   0.250238   0.014223
 0.710000   0.250342   0.028248
 0.715000   0.250520   0.042724
 0.720000   0.250769   0.056120
 0.725000   0.251082   0.068089
 0.730000   0.251450   0.078395
 0.735000   0.251865   0.086486
 0.740000   0.252315   0.091901
 0.745000   0.252784   0.093852
 0.750000   0.253254   0.091988
 0.755000   0.253704   0.086815
 0.760000   0.254122   0.078787
 0.765000   0.254492   0.068357
 0.770000   0.254805   0.055734
 0.775000   0.255050   0.041548
 0.780000   0.255221   0.027507
 0.785000   0.255325   0.014375
 0.790000   0.255364   0.002032
 0.795000   0.255345   -0.009302
 0.800000   0.255271   -0.019572
 0.805000   0.255149   -0.028599
 0.810000   0.254985   -0.036243
 0.815000   0.254787   -0.043045
 0.820000   0.254555   -0.049591
 0.825000   0.254291   -0.056062
 0.830000   0.253994   -0.062526
 0.835000   0.253666   -0.068955
 0.840000   0.253305   -0.075304
 0.845000   0.252913   -0.081537
 0.850000   0.252490   -0.087610
 0.855000   0.252036   -0.093481
 0.860000   0.251555   -0.099099
 0.865000   0.251045   -0.104412
 0.870000   0.250511   -0.109236
 0.875000   0.249953   -0.113431
 0.880000   0.249376   -0.117012
 0.885000   0.248783   -0.119989
 0.890000   0.248176   -0.122355
 0.895000   0.247559   -0.124136
 0.900000   0.246935   -0.125259
 0.905000   0.246307   -0.125502
 0.910000   0.245680   -0.124725
 0.915000   0.245060   -0.123378
 0.920000   0.244446   -0.124093
 0.925000   0.243819   -0.134927
 0.930000   0.243097   -0.181174
 0.935000   0.242007   -0.328449
 0.940000   0.239812   -0.715304
 0.945000   0.234854   -1.554275
 0.950000   0.224270   -2.947414
 0.955000   0.205380   -4.441116
 0.960000   0.179859   -5.054033
 0.965000   0.154839   -4.336828
 0.970000   0.136490   -2.954092
 0.975000   0.125299   -1.784143
 0.980000   0.118649   -1.125740
 0.985000   0.114041   -0.861559
 0.990000   0.110033   -0.801729
 0.995000   0.106024   -0.812495
 1.000000   0.101908   -0.833725
201 psinorm ti(KeV) dti/dpsiN
 0.000000   5.326338   0.002313
 0.005000   5.325807   -0.214964
 0.010000   5.324189   -0.435653
 0.015000   5.321450   -0.662853
 0.020000   5.317560   -0.895868
 0.025000   5.312492   -1.133808
 0.030000   5.306222   -1.375610
 0.035000   5.298735   -1.620108
 0.040000   5.290021   -1.865472
 0.045000   5.280081   -2.110660
 0.050000   5.268914   -2.355143
 0.055000   5.256529   -2.597706
 0.060000   5.242937   -2.837489
 0.065000   5.228154   -3.073891
 0.070000   5.212198   -3.305690
 0.075000   5.195097   -3.533633
 0.080000   5.176862   -3.759096
 0.085000   5.157507   -3.981690
 0.090000   5.137045   -4.201579
 0.095000   5.115491   -4.419178
 0.100000   5.092853   -4.635005
 0.105000   5.069141   -4.849481
 0.110000   5.044359   -5.062228
 0.115000   5.018518   -5.272680
 0.120000   4.991632   -5.480590
 0.125000   4.963712   -5.685501
 0.130000   4.934777   -5.887229
 0.135000   4.904840   -6.084601
 0.140000   4.873931   -6.275798
 0.145000   4.842082   -6.460332
 0.150000   4.809327   -6.637891
 0.155000   4.775703   -6.807738
 0.160000   4.741250   -6.968983
 0.165000   4.706013   -7.120123
 0.170000   4.670049   -7.260207
 0.175000   4.633411   -7.389046
 0.180000   4.596158   -7.506215
 0.185000   4.558349   -7.611493
 0.190000   4.520043   -7.704606
 0.195000   4.481303   -7.788758
 0.200000   4.442156   -7.870682
 0.205000   4.402596   -7.952470
 0.210000   4.362631   -8.032915
 0.215000   4.322267   -8.111867
 0.220000   4.281513   -8.190255
 0.225000   4.240365   -8.270601
 0.230000   4.198807   -8.349042
 0.235000   4.156874   -8.421953
 0.240000   4.114587   -8.490577
 0.245000   4.071968   -8.553832
 0.250000   4.029049   -8.611255
 0.255000   3.985856   -8.663180
 0.260000   3.942417   -8.700754
 0.265000   3.898848   -8.718847
 0.270000   3.855228   -8.720843
 0.275000   3.811640   -8.705834
 0.280000   3.768170   -8.673056
 0.285000   3.724909   -8.619660
 0.290000   3.681973   -8.545449
 0.295000   3.639455   -8.453818
 0.300000   3.597435   -8.347399
 0.305000   3.555981   -8.229625
 0.310000   3.515139   -8.104588
 0.315000   3.474935   -7.974643
 0.320000   3.435393   -7.846719
 0.325000   3.396468   -7.724102
 0.330000   3.358152   -7.603432
 0.335000   3.320434   -7.484904
 0.340000   3.283303   -7.368595
 0.345000   3.246748   -7.257822
 0.350000   3.210724   -7.150745
 0.355000   3.175240   -7.042394
 0.360000   3.140300   -6.932885
 0.365000   3.105911   -6.821318
 0.370000   3.072087   -6.705696
 0.375000   3.038854   -6.584135
 0.380000   3.006246   -6.446313
 0.385000   2.974391   -6.285999
 0.390000   2.943386   -6.108419
 0.395000   2.913307   -5.916433
 0.400000   2.884222   -5.712172
 0.405000   2.856185   -5.492826
 0.410000   2.829293   -5.262600
 0.415000   2.803559   -5.034307
 0.420000   2.778950   -4.812182
 0.425000   2.755437   -4.596911
 0.430000   2.732981   -4.390327
 0.435000   2.711534   -4.190376
 0.440000   2.691077   -3.999569
 0.445000   2.671539   -3.824395
 0.450000   2.652833   -3.663574
 0.455000   2.634903   -3.514709
 0.460000   2.617686   -3.377890
 0.465000   2.601124   -3.253173
 0.470000   2.585155   -3.142006
 0.475000   2.569704   -3.043790
 0.480000   2.554717   -2.954615
 0.485000   2.540158   -2.871214
 0.490000   2.526005   -2.791140
 0.495000   2.512246   -2.712699
 0.500000   2.498878   -2.634812
 0.505000   2.485898   -2.558074
 0.510000   2.473297   -2.484607
 0.515000   2.461052   -2.415688
 0.520000   2.449140   -2.351699
 0.525000   2.437535   -2.292731
 0.530000   2.426213   -2.238647
 0.535000   2.415149   -2.189951
 0.540000   2.404313   -2.147004
 0.545000   2.393679   -2.109580
 0.550000   2.383217   -2.077682
 0.555000   2.372902   -2.051229
 0.560000   2.362705   -2.029972
 0.565000   2.352602   -2.014324
 0.570000   2.342562   -2.004462
 0.575000   2.332557   -1.999905
 0.580000   2.322563   -2.000520
 0.585000   2.312552   -2.006155
 0.590000   2.302501   -2.016833
 0.595000   2.292384   -2.032933
 0.600000   2.282172   -2.054750
 0.605000   2.271836   -2.082291
 0.610000   2.261349   -2.115471
 0.615000   2.250682   -2.154100
 0.620000   2.239808   -2.199505
 0.625000   2.228687   -2.250165
 0.630000   2.217306   -2.303802
 0.635000   2.205649   -2.360886
 0.640000   2.193697   -2.420873
 0.645000   2.181440   -2.483084
 0.650000   2.168867   -2.548528
 0.655000   2.155955   -2.615831
 0.660000   2.142708   -2.683313
 0.665000   2.129121   -2.752040
 0.670000   2.115188   -2.821607
 0.675000   2.100905   -2.891102
 0.680000   2.086277   -2.960744
 0.685000   2.071298   -3.026232
 0.690000   2.056015   -3.082372
 0.695000   2.040474   -3.129178
 0.700000   2.024723   -3.166490
 0.705000   2.008809   -3.193760
 0.710000   1.992785   -3.209055
 0.715000   1.976719   -3.211624
 0.720000   1.960669   -3.203889
 0.725000   1.944680   -3.186990
 0.730000   1.928799   -3.160998
 0.735000   1.913070   -3.126742
 0.740000   1.897532   -3.082885
 0.745000   1.882241   -3.031311
 0.750000   1.867219   -2.979121
 0.755000   1.852450   -2.929430
 0.760000   1.837924   -2.883157
 0.765000   1.823618   -2.842308
 0.770000   1.809501   -2.808371
 0.775000   1.795535   -2.781074
 0.780000   1.781690   -2.755719
 0.785000   1.767977   -2.728614
 0.790000   1.754404   -2.699646
 0.795000   1.740981   -2.668716
 0.800000   1.727717   -2.636924
 0.805000   1.714612   -2.607268
 0.810000   1.701644   -2.579929
 0.815000   1.688812   -2.554423
 0.820000   1.676100   -2.531796
 0.825000   1.663494   -2.511534
 0.830000   1.650985   -2.494130
 0.835000   1.638553   -2.480550
 0.840000   1.626179   -2.464124
 0.845000   1.613912   -2.442524
 0.850000   1.601754   -2.421942
 0.855000   1.589692   -2.405987
 0.860000   1.577694   -2.399474
 0.865000   1.565698   -2.410816
 0.870000   1.553586   -2.438684
 0.875000   1.541311   -2.480832
 0.880000   1.528778   -2.543266
 0.885000   1.515878   -2.629325
 0.890000   1.502484   -2.743971
 0.895000   1.488439   -2.910831
 0.900000   1.473376   -3.138747
 0.905000   1.457051   -3.429718
 0.910000   1.439079   -3.805260
 0.915000   1.418998   -4.282720
 0.920000   1.396252   -4.883075
 0.925000   1.370168   -5.675901
 0.930000   1.339493   -6.648351
 0.935000   1.303684   -7.752990
 0.940000   1.261963   -9.005349
 0.945000   1.213631   -10.371700
 0.950000   1.158246   -11.784321
 0.955000   1.095788   -13.188811
 0.960000   1.026358   -14.406209
 0.965000   0.951725   -15.247381
 0.970000   0.873884   -15.659895
 0.975000   0.795126   -15.596679
 0.980000   0.717917   -15.052430
 0.985000   0.644602   -14.071593
 0.990000   0.577201   -12.735053
 0.995000   0.517252   -11.180079
 1.000000   0.465400   -9.560404
201 psinorm nb(10^20/m^3) dnb/dpsiN
 0.000000   0.093767   0.060567
 0.005000   0.093858   -0.024167
 0.010000   0.093526   -0.092609
 0.015000   0.092932   -0.139177
 0.020000   0.092134   -0.177571
 0.025000   0.091157   -0.210463
 0.030000   0.090029   -0.237494
 0.035000   0.088782   -0.259724
 0.040000   0.087432   -0.278458
 0.045000   0.085997   -0.294230
 0.050000   0.084490   -0.306844
 0.055000   0.082929   -0.316646
 0.060000   0.081323   -0.323874
 0.065000   0.079690   -0.328824
 0.070000   0.078035   -0.331963
 0.075000   0.076370   -0.333499
 0.080000   0.074700   -0.333653
 0.085000   0.073034   -0.332277
 0.090000   0.071377   -0.329796
 0.095000   0.069736   -0.326312
 0.100000   0.068114   -0.321671
 0.105000   0.066519   -0.316117
 0.110000   0.064953   -0.310112
 0.115000   0.063418   -0.303738
 0.120000   0.061916   -0.296970
 0.125000   0.060448   -0.289812
 0.130000   0.059017   -0.282326
 0.135000   0.057625   -0.274585
 0.140000   0.056272   -0.266699
 0.145000   0.054958   -0.258694
 0.150000   0.053685   -0.250563
 0.155000   0.052452   -0.242394
 0.160000   0.051261   -0.234253
 0.165000   0.050110   -0.226171
 0.170000   0.048999   -0.218187
 0.175000   0.047928   -0.210318
 0.180000   0.046896   -0.202575
 0.185000   0.045902   -0.194999
 0.190000   0.044946   -0.187649
 0.195000   0.044026   -0.180531
 0.200000   0.043141   -0.173142
 0.205000   0.042294   -0.165954
 0.210000   0.041481   -0.159484
 0.215000   0.040699   -0.153281
 0.220000   0.039948   -0.147338
 0.225000   0.039226   -0.141661
 0.230000   0.038532   -0.136242
 0.235000   0.037864   -0.130660
 0.240000   0.037225   -0.125138
 0.245000   0.036612   -0.120269
 0.250000   0.036022   -0.115824
 0.255000   0.035454   -0.111605
 0.260000   0.034906   -0.107602
 0.265000   0.034378   -0.103383
 0.270000   0.033872   -0.099331
 0.275000   0.033385   -0.095935
 0.280000   0.032913   -0.092798
 0.285000   0.032457   -0.089848
 0.290000   0.032015   -0.086794
 0.295000   0.031589   -0.083798
 0.300000   0.031177   -0.081278
 0.305000   0.030776   -0.079048
 0.310000   0.030386   -0.076949
 0.315000   0.030006   -0.074706
 0.320000   0.029639   -0.072580
 0.325000   0.029281   -0.070892
 0.330000   0.028930   -0.069363
 0.335000   0.028587   -0.067865
 0.340000   0.028252   -0.066296
 0.345000   0.027924   -0.064914
 0.350000   0.027602   -0.063808
 0.355000   0.027286   -0.062770
 0.360000   0.026975   -0.061650
 0.365000   0.026670   -0.060596
 0.370000   0.026369   -0.059776
 0.375000   0.026072   -0.059033
 0.380000   0.025778   -0.058265
 0.385000   0.025489   -0.057498
 0.390000   0.025203   -0.056871
 0.395000   0.024920   -0.056344
 0.400000   0.024640   -0.055806
 0.405000   0.024362   -0.055228
 0.410000   0.024088   -0.054717
 0.415000   0.023815   -0.054296
 0.420000   0.023545   -0.053874
 0.425000   0.023276   -0.053383
 0.430000   0.023011   -0.052911
 0.435000   0.022747   -0.052523
 0.440000   0.022486   -0.052137
 0.445000   0.022226   -0.051665
 0.450000   0.021969   -0.051187
 0.455000   0.021714   -0.050788
 0.460000   0.021461   -0.050384
 0.465000   0.021210   -0.049921
 0.470000   0.020962   -0.049466
 0.475000   0.020716   -0.049091
 0.480000   0.020471   -0.048733
 0.485000   0.020228   -0.048328
 0.490000   0.019988   -0.047912
 0.495000   0.019749   -0.047563
 0.500000   0.019512   -0.047244
 0.505000   0.019277   -0.046897
 0.510000   0.019043   -0.046525
 0.515000   0.018811   -0.046197
 0.520000   0.018581   -0.045907
 0.525000   0.018352   -0.045609
 0.530000   0.018125   -0.045276
 0.535000   0.017900   -0.044961
 0.540000   0.017675   -0.044685
 0.545000   0.017453   -0.044409
 0.550000   0.017231   -0.044085
 0.555000   0.017012   -0.043773
 0.560000   0.016794   -0.043522
 0.565000   0.016577   -0.043275
 0.570000   0.016361   -0.042999
 0.575000   0.016147   -0.042721
 0.580000   0.015934   -0.042490
 0.585000   0.015722   -0.042279
 0.590000   0.015511   -0.042065
 0.595000   0.015301   -0.041838
 0.600000   0.015093   -0.041634
 0.605000   0.014885   -0.041467
 0.610000   0.014678   -0.041315
 0.615000   0.014472   -0.041161
 0.620000   0.014266   -0.041020
 0.625000   0.014061   -0.040913
 0.630000   0.013857   -0.040823
 0.635000   0.013653   -0.040743
 0.640000   0.013450   -0.040668
 0.645000   0.013247   -0.040611
 0.650000   0.013044   -0.040577
 0.655000   0.012841   -0.040552
 0.660000   0.012638   -0.040538
 0.665000   0.012435   -0.040535
 0.670000   0.012233   -0.040545
 0.675000   0.012030   -0.040565
 0.680000   0.011827   -0.040594
 0.685000   0.011624   -0.040633
 0.690000   0.011421   -0.040692
 0.695000   0.011217   -0.040761
 0.700000   0.011013   -0.040832
 0.705000   0.010809   -0.040909
 0.710000   0.010604   -0.040990
 0.715000   0.010399   -0.041084
 0.720000   0.010193   -0.041184
 0.725000   0.009987   -0.041275
 0.730000   0.009780   -0.041360
 0.735000   0.009573   -0.041443
 0.740000   0.009366   -0.041523
 0.745000   0.009158   -0.041608
 0.750000   0.008950   -0.041686
 0.755000   0.008741   -0.041749
 0.760000   0.008532   -0.041800
 0.765000   0.008323   -0.041840
 0.770000   0.008114   -0.041868
 0.775000   0.007905   -0.041884
 0.780000   0.007695   -0.041886
 0.785000   0.007486   -0.041872
 0.790000   0.007276   -0.041845
 0.795000   0.007067   -0.041807
 0.800000   0.006858   -0.041754
 0.805000   0.006650   -0.041683
 0.810000   0.006442   -0.041593
 0.815000   0.006234   -0.041469
 0.820000   0.006027   -0.041311
 0.825000   0.005821   -0.041130
 0.830000   0.005616   -0.040922
 0.835000   0.005412   -0.040683
 0.840000   0.005209   -0.040411
 0.845000   0.005007   -0.040102
 0.850000   0.004808   -0.039755
 0.855000   0.004610   -0.039366
 0.860000   0.004414   -0.038929
 0.865000   0.004221   -0.038431
 0.870000   0.004030   -0.037945
 0.875000   0.003841   -0.037537
 0.880000   0.003654   -0.037190
 0.885000   0.003469   -0.036904
 0.890000   0.003285   -0.036680
 0.895000   0.003102   -0.036522
 0.900000   0.002920   -0.036438
 0.905000   0.002738   -0.036442
 0.910000   0.002556   -0.036544
 0.915000   0.002373   -0.036732
 0.920000   0.002188   -0.036941
 0.925000   0.002003   -0.037075
 0.930000   0.001818   -0.037015
 0.935000   0.001633   -0.036590
 0.940000   0.001452   -0.035578
 0.945000   0.001277   -0.033838
 0.950000   0.001113   -0.031581
 0.955000   0.000961   -0.029422
 0.960000   0.000819   -0.027713
 0.965000   0.000684   -0.025898
 0.970000   0.000560   -0.023199
 0.975000   0.000452   -0.019674
 0.980000   0.000363   -0.016134
 0.985000   0.000291   -0.013580
 0.990000   0.000228   -0.012295
 0.995000   0.000168   -0.012138
 1.000000   0.000106   -0.012578
201 psinorm pb(KPa) dpb/dpsiN
 0.000000   37.938833   10.204577
 0.005000   37.912907   -20.575167
 0.010000   37.733081   -46.505678
 0.015000   37.447850   -65.249172
 0.020000   37.080590   -80.598968
 0.025000   36.641860   -93.650712
 0.030000   36.144082   -104.159302
 0.035000   35.600267   -112.671406
 0.040000   35.017368   -119.823707
 0.045000   34.402030   -125.767556
 0.050000   33.759693   -130.428121
 0.055000   33.097749   -133.953754
 0.060000   32.420155   -136.433655
 0.065000   31.733412   -137.991992
 0.070000   31.040235   -138.821376
 0.075000   30.345198   -139.140777
 0.080000   29.648828   -138.936987
 0.085000   28.955829   -138.013923
 0.090000   28.268688   -136.643685
 0.095000   27.589392   -134.888608
 0.100000   26.919802   -132.680042
 0.105000   26.262591   -130.052526
 0.110000   25.619277   -127.255839
 0.115000   24.990033   -124.416379
 0.120000   24.375113   -121.475751
 0.125000   23.775275   -118.398825
 0.130000   23.191125   -115.210219
 0.135000   22.623173   -111.941349
 0.140000   22.071712   -108.666801
 0.145000   21.536505   -105.367826
 0.150000   21.018033   -101.995982
 0.155000   20.516545   -98.607791
 0.160000   20.031955   -95.243612
 0.165000   19.564109   -91.916785
 0.170000   19.112788   -88.640209
 0.175000   18.677707   -85.413198
 0.180000   18.258656   -82.229917
 0.185000   17.855408   -79.117029
 0.190000   17.467485   -76.120689
 0.195000   17.094201   -73.238690
 0.200000   16.735098   -70.261814
 0.205000   16.391583   -67.372000
 0.210000   16.061378   -64.768058
 0.215000   15.743902   -62.275308
 0.220000   15.438625   -59.896252
 0.225000   15.144940   -57.637756
 0.230000   14.862248   -55.488260
 0.235000   14.590057   -53.272608
 0.240000   14.329522   -51.075453
 0.245000   14.079303   -49.133704
 0.250000   13.838185   -47.359194
 0.255000   13.605711   -45.674446
 0.260000   13.381440   -44.076831
 0.265000   13.164942   -42.401691
 0.270000   12.957423   -40.791821
 0.275000   12.757024   -39.427144
 0.280000   12.563152   -38.160251
 0.285000   12.375422   -36.972386
 0.290000   12.193428   -35.751399
 0.295000   12.017908   -34.553285
 0.300000   11.847895   -33.535866
 0.305000   11.682549   -32.628650
 0.310000   11.521609   -31.772564
 0.315000   11.364823   -30.863406
 0.320000   11.212974   -30.000528
 0.325000   11.064818   -29.305243
 0.330000   10.919922   -28.673858
 0.335000   10.778080   -28.057475
 0.340000   10.639347   -27.412108
 0.345000   10.503959   -26.834895
 0.350000   10.370998   -26.362963
 0.355000   10.240329   -25.917882
 0.360000   10.111820   -25.443136
 0.365000   9.985898   -24.994477
 0.370000   9.861875   -24.635270
 0.375000   9.739545   -24.305854
 0.380000   9.618816   -23.968339
 0.385000   9.499861   -23.632472
 0.390000   9.382492   -23.347748
 0.395000   9.266384   -23.101110
 0.400000   9.151480   -22.853542
 0.405000   9.037849   -22.593987
 0.410000   8.925541   -22.360113
 0.415000   8.814247   -22.159275
 0.420000   8.703948   -21.958052
 0.425000   8.594667   -21.729556
 0.430000   8.486652   -21.506355
 0.435000   8.379603   -21.313477
 0.440000   8.273517   -21.121132
 0.445000   8.168392   -20.895586
 0.450000   8.064562   -20.666598
 0.455000   7.961726   -20.466734
 0.460000   7.859894   -20.265356
 0.465000   7.759072   -20.044337
 0.470000   7.659451   -19.830472
 0.475000   7.560768   -19.649225
 0.480000   7.462959   -19.476021
 0.485000   7.366008   -19.288681
 0.490000   7.270072   -19.101838
 0.495000   7.174989   -18.942284
 0.500000   7.080649   -18.796069
 0.505000   6.987028   -18.643486
 0.510000   6.894214   -18.486656
 0.515000   6.802162   -18.345425
 0.520000   6.710760   -18.217839
 0.525000   6.619984   -18.092015
 0.530000   6.529840   -17.958642
 0.535000   6.440397   -17.828284
 0.540000   6.351557   -17.707860
 0.545000   6.263318   -17.586922
 0.550000   6.175688   -17.453080
 0.555000   6.088788   -17.325232
 0.560000   6.002435   -17.215709
 0.565000   5.916631   -17.106198
 0.570000   5.831373   -16.987297
 0.575000   5.746758   -16.868309
 0.580000   5.662690   -16.762897
 0.585000   5.579129   -16.662630
 0.590000   5.496064   -16.561289
 0.595000   5.413516   -16.457065
 0.600000   5.331493   -16.359821
 0.605000   5.249918   -16.272711
 0.610000   5.168766   -16.190177
 0.615000   5.088016   -16.106915
 0.620000   5.007697   -16.028748
 0.625000   4.927728   -15.961770
 0.630000   4.848079   -15.898891
 0.635000   4.768739   -15.837553
 0.640000   4.689704   -15.776785
 0.645000   4.610972   -15.720793
 0.650000   4.532496   -15.670206
 0.655000   4.454269   -15.621350
 0.660000   4.376282   -15.575092
 0.665000   4.298519   -15.531958
 0.670000   4.220963   -15.490999
 0.675000   4.143609   -15.451734
 0.680000   4.066446   -15.414880
 0.685000   3.989460   -15.381495
 0.690000   3.912631   -15.352704
 0.695000   3.835933   -15.325454
 0.700000   3.759376   -15.298092
 0.705000   3.682952   -15.272076
 0.710000   3.606655   -15.246790
 0.715000   3.530484   -15.224649
 0.720000   3.454409   -15.203336
 0.725000   3.378451   -15.178735
 0.730000   3.302621   -15.152084
 0.735000   3.226930   -15.123682
 0.740000   3.151385   -15.093741
 0.745000   3.075992   -15.063722
 0.750000   3.000747   -15.030122
 0.755000   2.925691   -14.990627
 0.760000   2.850841   -14.946703
 0.765000   2.776224   -14.897137
 0.770000   2.701870   -14.841989
 0.775000   2.627804   -14.782048
 0.780000   2.554049   -14.716151
 0.785000   2.480643   -14.645686
 0.790000   2.407592   -14.573047
 0.795000   2.334912   -14.497220
 0.800000   2.262620   -14.417345
 0.805000   2.190739   -14.332693
 0.810000   2.119293   -14.242616
 0.815000   2.048313   -14.140952
 0.820000   1.977884   -14.029251
 0.825000   1.908020   -13.913515
 0.830000   1.838749   -13.791013
 0.835000   1.770110   -13.660219
 0.840000   1.702146   -13.520647
 0.845000   1.634903   -13.371359
 0.850000   1.568433   -13.211136
 0.855000   1.502792   -13.039416
 0.860000   1.438039   -12.853852
 0.865000   1.374254   -12.647658
 0.870000   1.311562   -12.441279
 0.875000   1.249841   -12.252626
 0.880000   1.189036   -12.075546
 0.885000   1.129085   -11.910867
 0.890000   1.069927   -11.759680
 0.895000   1.011489   -11.625021
 0.900000   0.953677   -11.511971
 0.905000   0.896369   -11.427745
 0.910000   0.839400   -11.380844
 0.915000   0.782560   -11.375298
 0.920000   0.725647   -11.403605
 0.925000   0.668524   -11.447709
 0.930000   0.611169   -11.476340
 0.935000   0.553761   -11.427774
 0.940000   0.496892   -11.202349
 0.945000   0.441737   -10.702983
 0.950000   0.389862   -9.959044
 0.955000   0.342147   -9.252078
 0.960000   0.297341   -8.928293
 0.965000   0.252864   -8.925146
 0.970000   0.208090   -8.757933
 0.975000   0.165285   -8.076491
 0.980000   0.127325   -6.930792
 0.985000   0.095977   -5.655855
 0.990000   0.070766   -4.513794
 0.995000   0.050839   -3.738276
 1.000000   0.033383   -3.243914
201 psinorm ptot(KPa) dptot/dpsiN
 0.000000   98.765448   -65.561705
 0.005000   98.376670   -89.949373
 0.010000   97.865954   -110.892499
 0.015000   97.267745   -126.544099
 0.020000   96.600513   -139.528141
 0.025000   95.872464   -150.710319
 0.030000   95.093410   -159.872440
 0.035000   94.273739   -167.465792
 0.040000   93.418752   -174.007587
 0.045000   92.533664   -179.598743
 0.050000   91.622765   -184.178106
 0.055000   90.691883   -187.858006
 0.060000   89.744185   -190.702030
 0.065000   88.784862   -192.805162
 0.070000   87.816133   -194.312916
 0.075000   86.841733   -195.429452
 0.080000   85.861838   -196.128535
 0.085000   84.880448   -196.222885
 0.090000   83.899610   -195.948387
 0.095000   82.920964   -195.359669
 0.100000   81.946013   -194.401485
 0.105000   80.976949   -193.088913
 0.110000   80.015124   -191.630721
 0.115000   79.060642   -190.142426
 0.120000   78.113700   -188.565446
 0.125000   77.174987   -186.860702
 0.130000   76.245093   -185.045678
 0.135000   75.324531   -183.138815
 0.140000   74.413704   -181.195602
 0.145000   73.512575   -179.192052
 0.150000   72.621784   -177.077902
 0.155000   71.741796   -174.898584
 0.160000   70.872798   -172.684428
 0.165000   70.014951   -170.438396
 0.170000   69.168414   -168.165717
 0.175000   68.333294   -165.863362
 0.180000   67.509780   -163.522796
 0.185000   66.698066   -161.166860
 0.190000   65.898112   -158.836618
 0.195000   65.109700   -156.546954
 0.200000   64.332642   -154.159834
 0.205000   63.568102   -151.834605
 0.210000   62.814296   -149.727617
 0.215000   62.070825   -147.696094
 0.220000   61.337335   -145.747818
 0.225000   60.613347   -143.901803
 0.230000   59.898317   -142.127814
 0.235000   59.192069   -140.260868
 0.240000   58.495709   -138.377843
 0.245000   57.808291   -136.671886
 0.250000   57.128990   -135.069286
 0.255000   56.457598   -133.508298
 0.260000   55.793907   -131.943800
 0.265000   55.138160   -130.213659
 0.270000   54.491770   -128.454517
 0.275000   53.853615   -126.812912
 0.280000   53.223641   -125.164125
 0.285000   52.601973   -123.481103
 0.290000   51.988830   -121.669061
 0.295000   51.385283   -119.792098
 0.300000   50.790909   -117.997582
 0.305000   50.205307   -116.244454
 0.310000   49.628464   -114.503913
 0.315000   49.060268   -112.699985
 0.320000   48.501465   -110.950298
 0.325000   47.950765   -109.372974
 0.330000   47.407735   -107.863399
 0.335000   46.872131   -106.380303
 0.340000   46.343932   -104.885426
 0.345000   45.823277   -103.478423
 0.350000   45.309148   -102.183398
 0.355000   44.801443   -100.909863
 0.360000   44.300049   -99.610527
 0.365000   43.805337   -98.329762
 0.370000   43.316751   -97.113001
 0.375000   42.834207   -95.899360
 0.380000   42.357758   -94.605364
 0.385000   41.888154   -93.209061
 0.390000   41.425667   -91.779164
 0.395000   40.970362   -90.318561
 0.400000   40.522482   -88.803863
 0.405000   40.082323   -87.211451
 0.410000   39.650367   -85.594275
 0.415000   39.226381   -84.020741
 0.420000   38.810160   -82.481558
 0.425000   38.401565   -80.955542
 0.430000   38.000604   -79.479659
 0.435000   37.606769   -78.065844
 0.440000   37.219946   -76.700290
 0.445000   36.839766   -75.384630
 0.450000   36.466099   -74.138847
 0.455000   36.098377   -72.980011
 0.460000   35.736299   -71.881079
 0.465000   35.379566   -70.826101
 0.470000   35.028038   -69.844798
 0.475000   34.681118   -68.954366
 0.480000   34.338495   -68.112685
 0.485000   33.999992   -67.284009
 0.490000   33.665655   -66.468925
 0.495000   33.335302   -65.682342
 0.500000   33.008831   -64.905731
 0.505000   32.686245   -64.123821
 0.510000   32.367593   -63.348273
 0.515000   32.052762   -62.602244
 0.520000   31.741571   -61.885815
 0.525000   31.433904   -61.189430
 0.530000   31.129676   -60.504329
 0.535000   30.828861   -59.842568
 0.540000   30.531251   -59.212454
 0.545000   30.236736   -58.603819
 0.550000   29.945212   -58.006148
 0.555000   29.656675   -57.435619
 0.560000   29.370856   -56.901503
 0.565000   29.087660   -56.389183
 0.570000   28.806964   -55.890675
 0.575000   28.528753   -55.411473
 0.580000   28.252850   -54.962629
 0.585000   27.979127   -54.536149
 0.590000   27.707488   -54.127243
 0.595000   27.437854   -53.736843
 0.600000   27.170120   -53.375504
 0.605000   26.904099   -53.046607
 0.610000   26.639654   -52.745689
 0.615000   26.376642   -52.467838
 0.620000   26.114975   -52.225020
 0.625000   25.854392   -52.015857
 0.630000   25.594817   -51.823765
 0.635000   25.336155   -51.649092
 0.640000   25.078326   -51.488988
 0.645000   24.821265   -51.344534
 0.650000   24.564880   -51.220646
 0.655000   24.309058   -51.108078
 0.660000   24.053800   -51.000945
 0.665000   23.799049   -50.903902
 0.670000   23.544761   -50.810454
 0.675000   23.290944   -50.708968
 0.680000   23.037671   -50.580700
 0.685000   22.785137   -50.397177
 0.690000   22.533699   -50.147544
 0.695000   22.283662   -49.834630
 0.700000   22.035353   -49.459374
 0.705000   21.789068   -49.027827
 0.710000   21.545075   -48.524281
 0.715000   21.303825   -47.967415
 0.720000   21.065400   -47.405646
 0.725000   20.829769   -46.847830
 0.730000   20.596922   -46.300129
 0.735000   20.366767   -45.778787
 0.740000   20.139134   -45.287817
 0.745000   19.913889   -44.853933
 0.750000   19.690595   -44.510006
 0.755000   19.468789   -44.251674
 0.760000   19.248078   -44.070704
 0.765000   19.028082   -43.961534
 0.770000   18.808463   -43.923959
 0.775000   18.588843   -43.941157
 0.780000   18.369051   -43.950328
 0.785000   18.149339   -43.919056
 0.790000   17.929861   -43.852861
 0.795000   17.710811   -43.745876
 0.800000   17.492402   -43.601561
 0.805000   17.274795   -43.428870
 0.810000   17.058113   -43.225688
 0.815000   16.842538   -42.996919
 0.820000   16.628144   -42.762335
 0.825000   16.414915   -42.529919
 0.830000   16.202845   -42.300756
 0.835000   15.991907   -42.077137
 0.840000   15.782074   -41.829699
 0.845000   15.573610   -41.547806
 0.850000   15.366595   -41.257307
 0.855000   15.161037   -40.974340
 0.860000   14.956852   -40.719364
 0.865000   14.753844   -40.525110
 0.870000   14.551601   -40.409836
 0.875000   14.349745   -40.390209
 0.880000   14.147699   -40.502929
 0.885000   13.944716   -40.788246
 0.890000   13.739816   -41.304928
 0.895000   13.531667   -42.209146
 0.900000   13.317725   -43.620115
 0.905000   13.095466   -45.664601
 0.910000   12.861079   -48.609443
 0.915000   12.609371   -52.797248
 0.920000   12.333106   -58.754352
 0.925000   12.021828   -67.527545
 0.930000   11.657831   -80.505677
 0.935000   11.216771   -100.182538
 0.940000   10.656006   -131.001617
 0.945000   9.906755   -177.403674
 0.950000   8.881969   -236.155208
 0.955000   7.545203   -284.720105
 0.960000   6.034768   -290.664993
 0.965000   4.638553   -249.019469
 0.970000   3.544573   -189.110777
 0.975000   2.747445   -137.762864
 0.980000   2.166945   -101.246178
 0.985000   1.734983   -75.974745
 0.990000   1.407197   -57.936780
 0.995000   1.155615   -44.779087
 1.000000   0.959406   -33.704541
201 psinorm omeg(kRad/s) domeg/dpsiN
 0.000000   71.122627   0.012378
 0.005000   71.122226   -0.172810
 0.010000   71.120899   -0.377596
 0.015000   71.118450   -0.622888
 0.020000   71.114670   -0.910294
 0.025000   71.109347   -1.239507
 0.030000   71.102275   -1.608364
 0.035000   71.093263   -2.012796
 0.040000   71.082147   -2.442694
 0.045000   71.068836   -2.891124
 0.050000   71.053235   -3.354190
 0.055000   71.035294   -3.823483
 0.060000   71.015001   -4.292247
 0.065000   70.992372   -4.755588
 0.070000   70.967445   -5.201741
 0.075000   70.940354   -5.638475
 0.080000   70.911060   -6.081729
 0.085000   70.879537   -6.530691
 0.090000   70.845753   -6.989773
 0.095000   70.809639   -7.466250
 0.100000   70.771090   -7.966474
 0.105000   70.729975   -8.498225
 0.110000   70.686108   -9.063561
 0.115000   70.639339   -9.660616
 0.120000   70.589502   -10.292849
 0.125000   70.536410   -10.965165
 0.130000   70.479850   -11.691337
 0.135000   70.419497   -12.480717
 0.140000   70.355043   -13.326935
 0.145000   70.286228   -14.231567
 0.150000   70.212728   -15.202240
 0.155000   70.134205   -16.241315
 0.160000   70.050314   -17.363093
 0.165000   69.960574   -18.565424
 0.170000   69.864660   -19.812029
 0.175000   69.762454   -21.092060
 0.180000   69.653740   -22.410730
 0.185000   69.538347   -23.757904
 0.190000   69.416161   -25.124521
 0.195000   69.287102   -26.485758
 0.200000   69.151303   -27.806007
 0.205000   69.009042   -29.065372
 0.210000   68.860649   -30.244854
 0.215000   68.706593   -31.318466
 0.220000   68.547465   -32.243248
 0.225000   68.384160   -32.950048
 0.230000   68.217964   -33.493873
 0.235000   68.049222   -33.930676
 0.240000   67.878657   -34.226832
 0.245000   67.706953   -34.392469
 0.250000   67.534733   -34.419915
 0.255000   67.362754   -34.248995
 0.260000   67.192243   -34.021515
 0.265000   67.022539   -33.844269
 0.270000   66.853800   -33.651723
 0.275000   66.686022   -33.476963
 0.280000   66.519030   -33.351010
 0.285000   66.352512   -33.298674
 0.290000   66.186044   -33.441762
 0.295000   66.018094   -33.825032
 0.300000   65.847793   -34.373343
 0.305000   65.674361   -35.062022
 0.310000   65.497173   -35.852975
 0.315000   65.315831   -36.755215
 0.320000   65.129621   -37.698648
 0.325000   64.938845   -38.617130
 0.330000   64.743450   -39.541951
 0.335000   64.543425   -40.463287
 0.340000   64.338817   -41.369241
 0.345000   64.129733   -42.271694
 0.350000   63.916100   -43.116391
 0.355000   63.698569   -43.856358
 0.360000   63.477536   -44.516656
 0.365000   63.253402   -45.092396
 0.370000   63.026612   -45.574709
 0.375000   62.797655   -45.928411
 0.380000   62.567328   -46.142194
 0.385000   62.336233   -46.247194
 0.390000   62.104856   -46.252147
 0.395000   61.873712   -46.157502
 0.400000   61.643281   -45.970949
 0.405000   61.414002   -45.653774
 0.410000   61.186744   -45.310365
 0.415000   60.960899   -45.203748
 0.420000   60.734706   -45.494717
 0.425000   60.505951   -46.266813
 0.430000   60.272038   -47.572771
 0.435000   60.030224   -49.584628
 0.440000   59.776192   -52.311956
 0.445000   59.507104   -55.400896
 0.450000   59.222183   -58.720039
 0.455000   58.919904   -62.311635
 0.460000   58.599066   -66.106721
 0.465000   58.258836   -70.219230
 0.470000   57.896874   -74.554245
 0.475000   57.513294   -78.541217
 0.480000   57.111462   -82.025998
 0.485000   56.693034   -85.121919
 0.490000   56.260243   -87.718073
 0.495000   55.815853   -89.742883
 0.500000   55.362814   -91.062409
 0.505000   54.905229   -91.654570
 0.510000   54.446268   -91.789469
 0.515000   53.987335   -91.672737
 0.520000   53.529541   -91.349809
 0.525000   53.073836   -90.836881
 0.530000   52.621172   -90.126908
 0.535000   52.172567   -89.258524
 0.540000   51.728587   -88.278631
 0.545000   51.289781   -87.199306
 0.550000   50.856594   -86.042279
 0.555000   50.429358   -84.825374
 0.560000   50.008340   -83.560825
 0.565000   49.593750   -82.308512
 0.570000   49.185255   -81.104521
 0.575000   48.782705   -79.938136
 0.580000   48.385873   -78.823216
 0.585000   47.994473   -77.771774
 0.590000   47.608156   -76.792751
 0.595000   47.226545   -75.799642
 0.600000   46.850159   -74.707837
 0.605000   46.479467   -73.528543
 0.610000   46.114874   -72.277755
 0.615000   45.756689   -70.977513
 0.620000   45.405099   -69.580864
 0.625000   45.060881   -68.165730
 0.630000   44.723441   -66.842855
 0.635000   44.392452   -65.593726
 0.640000   44.067504   -64.436364
 0.645000   43.748088   -63.390360
 0.650000   43.433601   -62.424933
 0.655000   43.123839   -61.648927
 0.660000   42.817111   -61.175736
 0.665000   42.512082   -60.965182
 0.670000   42.207459   -61.018164
 0.675000   41.901900   -61.340819
 0.680000   41.594051   -61.938451
 0.685000   41.282516   -62.638929
 0.690000   40.967662   -63.223048
 0.695000   40.650285   -63.681801
 0.700000   40.330844   -64.071108
 0.705000   40.009574   -64.436149
 0.710000   39.686482   -64.766909
 0.715000   39.361905   -65.092447
 0.720000   39.035558   -65.488707
 0.725000   38.707018   -65.949712
 0.730000   38.376061   -66.458018
 0.735000   38.042438   -67.019167
 0.740000   37.705869   -67.625974
 0.745000   37.366178   -68.326555
 0.750000   37.022604   -69.249160
 0.755000   36.673686   -70.542799
 0.760000   36.317176   -72.358647
 0.765000   35.950100   -74.813429
 0.770000   35.569041   -78.114912
 0.775000   35.168951   -82.240606
 0.780000   34.746635   -86.508636
 0.785000   34.303864   -90.537807
 0.790000   33.841257   -94.376549
 0.795000   33.360099   -97.902515
 0.800000   32.862232   -101.127522
 0.805000   32.348824   -104.183291
 0.810000   31.820399   -106.872958
 0.815000   31.280094   -109.108800
 0.820000   30.729311   -111.004163
 0.825000   30.170052   -112.437348
 0.830000   29.604938   -113.375380
 0.835000   29.036299   -113.850912
 0.840000   28.466429   -113.372795
 0.845000   27.902571   -111.823993
 0.850000   27.348189   -109.758331
 0.855000   26.804987   -107.566414
 0.860000   26.272525   -105.767354
 0.865000   25.747314   -105.231639
 0.870000   25.220208   -105.963516
 0.875000   24.687679   -107.890777
 0.880000   24.141300   -111.824574
 0.885000   23.569433   -118.485615
 0.890000   22.956444   -128.722328
 0.895000   22.282210   -143.925210
 0.900000   21.517192   -164.140921
 0.905000   20.640800   -188.989067
 0.910000   19.627301   -218.588105
 0.915000   18.454919   -251.714777
 0.920000   17.110154   -286.274237
 0.925000   15.592177   -319.563744
 0.930000   13.914516   -347.223992
 0.935000   12.119937   -364.786220
 0.940000   10.266654   -369.265406
 0.945000   8.427283   -358.600419
 0.950000   6.680650   -332.588448
 0.955000   5.101399   -292.173101
 0.960000   3.758919   -241.810795
 0.965000   2.683291   -187.607308
 0.970000   1.882846   -133.726627
 0.975000   1.346024   -83.835930
 0.980000   1.044486   -40.706214
 0.985000   0.938962   -6.076791
 0.990000   0.983719   19.252318
 0.995000   1.131485   35.762153
 1.000000   1.341340   48.179723
201 psinorm omegp(kRad/s) domegp/dpsiN
 0.000000   -0.011714   163.327014
 0.005000   0.632246   94.257083
 0.010000   0.930857   55.723760
 0.015000   1.189484   50.228890
 0.020000   1.433146   47.805840
 0.025000   1.667542   46.042966
 0.030000   1.893576   44.288391
 0.035000   2.110426   42.763872
 0.040000   2.321214   41.483332
 0.045000   2.525260   40.134138
 0.050000   2.722556   38.907838
 0.055000   2.914338   37.933911
 0.060000   3.101895   37.116241
 0.065000   3.285500   36.317931
 0.070000   3.465074   35.460525
 0.075000   3.640106   34.536505
 0.080000   3.810439   33.442809
 0.085000   3.974534   32.050877
 0.090000   4.130948   30.425051
 0.095000   4.278784   28.577417
 0.100000   4.416722   26.763650
 0.105000   4.546421   25.113573
 0.110000   4.667858   23.744190
 0.115000   4.783863   22.851244
 0.120000   4.896370   22.466725
 0.125000   5.008530   22.571308
 0.130000   5.122083   22.917679
 0.135000   5.237707   23.297874
 0.140000   5.355062   23.681213
 0.145000   5.474519   23.983555
 0.150000   5.594898   23.997730
 0.155000   5.714496   23.424365
 0.160000   5.829141   22.517585
 0.165000   5.939672   21.185566
 0.170000   6.040997   19.356693
 0.175000   6.133239   17.109044
 0.180000   6.212087   14.375908
 0.185000   6.276998   11.563076
 0.190000   6.327718   8.606560
 0.195000   6.363064   5.805230
 0.200000   6.385770   3.166176
 0.205000   6.394725   0.570276
 0.210000   6.391473   -1.548058
 0.215000   6.379245   -3.366508
 0.220000   6.357808   -4.957868
 0.225000   6.329666   -6.437578
 0.230000   6.293432   -8.019588
 0.235000   6.249470   -9.503737
 0.240000   6.198395   -11.089292
 0.245000   6.138577   -12.725263
 0.250000   6.071142   -14.265813
 0.255000   5.995919   -15.892934
 0.260000   5.912213   -17.406080
 0.265000   5.821858   -18.869162
 0.270000   5.723521   -20.541523
 0.275000   5.616443   -22.223149
 0.280000   5.501290   -24.062914
 0.285000   5.375814   -26.186644
 0.290000   5.239423   -28.409659
 0.295000   5.091717   -30.888555
 0.300000   4.930538   -33.563347
 0.305000   4.756084   -36.207542
 0.310000   4.568462   -38.937201
 0.315000   4.366712   -41.695298
 0.320000   4.151509   -44.264682
 0.325000   3.924065   -46.526741
 0.330000   3.686242   -48.303189
 0.335000   3.441033   -49.478459
 0.340000   3.191457   -50.125888
 0.345000   2.939774   -50.319620
 0.350000   2.688261   -50.041809
 0.355000   2.439356   -49.758399
 0.360000   2.190677   -49.914620
 0.365000   1.940210   -50.401713
 0.370000   1.686660   -51.292068
 0.375000   1.427289   -52.724848
 0.380000   1.159412   -54.832064
 0.385000   0.878969   -57.297950
 0.390000   0.586432   -59.542893
 0.395000   0.283540   -61.377169
 0.400000   -0.027340   -62.697374
 0.405000   -0.343434   -63.397409
 0.410000   -0.661314   -63.464794
 0.415000   -0.978082   -63.509702
 0.420000   -1.296411   -64.256295
 0.425000   -1.620645   -65.937911
 0.430000   -1.955790   -68.620094
 0.435000   -2.306846   -72.313231
 0.440000   -2.678922   -77.304857
 0.445000   -3.079894   -82.656673
 0.450000   -3.505489   -87.318441
 0.455000   -3.953079   -91.244821
 0.460000   -4.417937   -94.084394
 0.465000   -4.893923   -95.440722
 0.470000   -5.372344   -94.439076
 0.475000   -5.838313   -90.554871
 0.480000   -6.277893   -84.356654
 0.485000   -6.681880   -76.555764
 0.490000   -7.043451   -67.637456
 0.495000   -7.358255   -57.979956
 0.500000   -7.623250   -48.123918
 0.505000   -7.839494   -39.198405
 0.510000   -8.015234   -31.733790
 0.515000   -8.156832   -25.545233
 0.520000   -8.270686   -20.537135
 0.525000   -8.362203   -16.649562
 0.530000   -8.437182   -14.158696
 0.535000   -8.503790   -12.638121
 0.540000   -8.563563   -11.361650
 0.545000   -8.617406   -10.238357
 0.550000   -8.665947   -9.176417
 0.555000   -8.709171   -8.033155
 0.560000   -8.746278   -6.752593
 0.565000   -8.776697   -5.477655
 0.570000   -8.801055   -4.145062
 0.575000   -8.818147   -2.673947
 0.580000   -8.827794   -1.239516
 0.585000   -8.830542   0.113705
 0.590000   -8.826657   1.442639
 0.595000   -8.816116   2.713651
 0.600000   -8.799521   3.770919
 0.605000   -8.778407   4.676752
 0.610000   -8.752753   5.506769
 0.615000   -8.723339   6.171116
 0.620000   -8.691042   6.633276
 0.625000   -8.657006   7.011606
 0.630000   -8.620926   7.377521
 0.635000   -8.583231   7.605505
 0.640000   -8.544871   7.751014
 0.645000   -8.505721   7.904090
 0.650000   -8.465830   8.030607
 0.655000   -8.425415   8.033813
 0.660000   -8.385492   7.986622
 0.665000   -8.345549   7.942393
 0.670000   -8.306068   7.812558
 0.675000   -8.267423   7.618826
 0.680000   -8.229880   7.391596
 0.685000   -8.193507   7.147441
 0.690000   -8.158405   6.827936
 0.695000   -8.125228   6.427240
 0.700000   -8.094133   6.018380
 0.705000   -8.065044   5.565494
 0.710000   -8.038478   4.985560
 0.715000   -8.015188   4.342401
 0.720000   -7.995054   3.680137
 0.725000   -7.978387   2.940378
 0.730000   -7.965650   2.119030
 0.735000   -7.957197   1.274289
 0.740000   -7.952907   0.434501
 0.745000   -7.952852   -0.435996
 0.750000   -7.957267   -1.324681
 0.755000   -7.966098   -2.185265
 0.760000   -7.979120   -2.990281
 0.765000   -7.996001   -3.804497
 0.770000   -8.017165   -4.625868
 0.775000   -8.042260   -5.469353
 0.780000   -8.071859   -6.427702
 0.785000   -8.106537   -7.551697
 0.790000   -8.147376   -8.997098
 0.795000   -8.196508   -10.712048
 0.800000   -8.254496   -12.589277
 0.805000   -8.322401   -14.664409
 0.810000   -8.401140   -16.910775
 0.815000   -8.491508   -19.349167
 0.820000   -8.594632   -22.157511
 0.825000   -8.713084   -25.187745
 0.830000   -8.846509   -28.192285
 0.835000   -8.995006   -31.161700
 0.840000   -9.158126   -33.962693
 0.845000   -9.334633   -36.424654
 0.850000   -9.522373   -38.315989
 0.855000   -9.717793   -39.383218
 0.860000   -9.916205   -39.728266
 0.865000   -10.115076   -39.603873
 0.870000   -10.312244   -39.130366
 0.875000   -10.506380   -38.538536
 0.880000   -10.697629   -37.945448
 0.885000   -10.885834   -36.985828
 0.890000   -11.067487   -35.351283
 0.895000   -11.239347   -32.952970
 0.900000   -11.397017   -29.464381
 0.905000   -11.533991   -24.370019
 0.910000   -11.640717   -16.772645
 0.915000   -11.701717   -5.190333
 0.920000   -11.692621   10.906506
 0.925000   -11.592652   30.975407
 0.930000   -11.382866   55.095202
 0.935000   -11.041700   87.087228
 0.940000   -10.511994   125.156556
 0.945000   -9.790135   161.192115
 0.950000   -8.900073   188.648915
 0.955000   -7.903645   195.506868
 0.960000   -6.945004   162.923838
 0.965000   -6.274407   75.204391
 0.970000   -6.192960   -58.635516
 0.975000   -6.860762   -167.275992
 0.980000   -7.865720   -105.163179
 0.985000   -7.912394   261.293512
 0.990000   -5.252785   884.665323
 0.995000   0.934259   1425.746946
 1.000000   9.004684   1802.423012
201 psinorm omgvb(kRad/s) domgvb/dpsiN
 0.000000   71.110913   163.339392
 0.005000   71.754472   94.084272
 0.010000   72.051755   55.346163
 0.015000   72.307934   49.606002
 0.020000   72.547815   46.895547
 0.025000   72.776889   44.803459
 0.030000   72.995850   42.680027
 0.035000   73.203689   40.751076
 0.040000   73.403361   39.040639
 0.045000   73.594096   37.243014
 0.050000   73.775791   35.553647
 0.055000   73.949632   34.110428
 0.060000   74.116895   32.823994
 0.065000   74.277872   31.562343
 0.070000   74.432519   30.258784
 0.075000   74.580460   28.898029
 0.080000   74.721499   27.361080
 0.085000   74.854071   25.520186
 0.090000   74.976701   23.435278
 0.095000   75.088424   21.111168
 0.100000   75.187813   18.797175
 0.105000   75.276395   16.615348
 0.110000   75.353966   14.680629
 0.115000   75.423202   13.190628
 0.120000   75.485872   12.173876
 0.125000   75.544940   11.606144
 0.130000   75.601934   11.226342
 0.135000   75.657204   10.817156
 0.140000   75.710105   10.354278
 0.145000   75.760746   9.751988
 0.150000   75.807625   8.795490
 0.155000   75.848701   7.183051
 0.160000   75.879456   5.154492
 0.165000   75.900246   2.620142
 0.170000   75.905657   -0.455336
 0.175000   75.895693   -3.983017
 0.180000   75.865827   -8.034822
 0.185000   75.815345   -12.194828
 0.190000   75.743879   -16.517960
 0.195000   75.650165   -20.680528
 0.200000   75.537073   -24.639830
 0.205000   75.403767   -28.495096
 0.210000   75.252122   -31.792911
 0.215000   75.085838   -34.684974
 0.220000   74.905273   -37.201117
 0.225000   74.713827   -39.387626
 0.230000   74.511396   -41.513461
 0.235000   74.298692   -43.434413
 0.240000   74.077052   -45.316125
 0.245000   73.845531   -47.117732
 0.250000   73.605875   -48.685729
 0.255000   73.358673   -50.141929
 0.260000   73.104456   -51.427595
 0.265000   72.844397   -52.713431
 0.270000   72.577321   -54.193246
 0.275000   72.302465   -55.700111
 0.280000   72.020320   -57.413924
 0.285000   71.728326   -59.485318
 0.290000   71.425467   -61.851420
 0.295000   71.109812   -64.713586
 0.300000   70.778331   -67.936690
 0.305000   70.430445   -71.269564
 0.310000   70.065636   -74.790176
 0.315000   69.682543   -78.450512
 0.320000   69.281130   -81.963330
 0.325000   68.862910   -85.143871
 0.330000   68.429692   -87.845140
 0.335000   67.984458   -89.941746
 0.340000   67.530274   -91.495129
 0.345000   67.069507   -92.591314
 0.350000   66.604361   -93.158200
 0.355000   66.137925   -93.614757
 0.360000   65.668214   -94.431276
 0.365000   65.193612   -95.494110
 0.370000   64.713272   -96.866776
 0.375000   64.224944   -98.653259
 0.380000   63.726740   -100.974257
 0.385000   63.215202   -103.545143
 0.390000   62.691288   -105.795040
 0.395000   62.157251   -107.534671
 0.400000   61.615942   -108.668323
 0.405000   61.070568   -109.051184
 0.410000   60.525430   -108.775159
 0.415000   59.982817   -108.713449
 0.420000   59.438295   -109.751012
 0.425000   58.885306   -112.204724
 0.430000   58.316248   -116.192865
 0.435000   57.723378   -121.897860
 0.440000   57.097270   -129.616813
 0.445000   56.427210   -138.057569
 0.450000   55.716694   -146.038481
 0.455000   54.966825   -153.556456
 0.460000   54.181129   -160.191115
 0.465000   53.364914   -165.659952
 0.470000   52.524530   -168.993321
 0.475000   51.674981   -169.096088
 0.480000   50.833569   -166.382653
 0.485000   50.011154   -161.677683
 0.490000   49.216792   -155.355529
 0.495000   48.457599   -147.722839
 0.500000   47.739564   -139.186327
 0.505000   47.065735   -130.852975
 0.510000   46.431034   -123.523259
 0.515000   45.830503   -117.217970
 0.520000   45.258854   -111.886943
 0.525000   44.711633   -107.486443
 0.530000   44.183990   -104.285604
 0.535000   43.668777   -101.896645
 0.540000   43.165023   -99.640281
 0.545000   42.672375   -97.437663
 0.550000   42.190647   -95.218696
 0.555000   41.720188   -92.858529
 0.560000   41.262061   -90.313418
 0.565000   40.817053   -87.786167
 0.570000   40.384200   -85.249584
 0.575000   39.964558   -82.612083
 0.580000   39.558079   -80.062732
 0.585000   39.163930   -77.658069
 0.590000   38.781498   -75.350112
 0.595000   38.410429   -73.085991
 0.600000   38.050638   -70.936918
 0.605000   37.701060   -68.851791
 0.610000   37.362120   -66.770986
 0.615000   37.033350   -64.806396
 0.620000   36.714056   -62.947589
 0.625000   36.403874   -61.154123
 0.630000   36.102515   -59.465334
 0.635000   35.809221   -57.988221
 0.640000   35.522633   -56.685349
 0.645000   35.242367   -55.486270
 0.650000   34.967770   -54.394326
 0.655000   34.698424   -53.615114
 0.660000   34.431619   -53.189114
 0.665000   34.166533   -53.022789
 0.670000   33.901391   -53.205605
 0.675000   33.634477   -53.721992
 0.680000   33.364171   -54.546855
 0.685000   33.089008   -55.491488
 0.690000   32.809257   -56.395112
 0.695000   32.525057   -57.254562
 0.700000   32.236711   -58.052728
 0.705000   31.944530   -58.870655
 0.710000   31.648004   -59.781348
 0.715000   31.346717   -60.750046
 0.720000   31.040504   -61.808569
 0.725000   30.728631   -63.009333
 0.730000   30.410411   -64.338988
 0.735000   30.085241   -65.744879
 0.740000   29.752962   -67.191473
 0.745000   29.413326   -68.762551
 0.750000   29.065336   -70.573841
 0.755000   28.707588   -72.728064
 0.760000   28.338056   -75.348928
 0.765000   27.954099   -78.617925
 0.770000   27.551876   -82.740780
 0.775000   27.126691   -87.709959
 0.780000   26.674777   -92.936338
 0.785000   26.197327   -98.089504
 0.790000   25.693882   -103.373647
 0.795000   25.163591   -108.614562
 0.800000   24.607736   -113.716799
 0.805000   24.026423   -118.847701
 0.810000   23.419259   -123.783732
 0.815000   22.788586   -128.457967
 0.820000   22.134679   -133.161674
 0.825000   21.456969   -137.625093
 0.830000   20.758429   -141.567665
 0.835000   20.041292   -145.012612
 0.840000   19.308302   -147.335488
 0.845000   18.567937   -148.248647
 0.850000   17.825816   -148.074320
 0.855000   17.087194   -146.949632
 0.860000   16.356320   -145.495619
 0.865000   15.632238   -144.835513
 0.870000   14.907964   -145.093882
 0.875000   14.181299   -146.429313
 0.880000   13.443671   -149.770022
 0.885000   12.683599   -155.471444
 0.890000   11.888957   -164.073612
 0.895000   11.042863   -176.878180
 0.900000   10.120175   -193.605302
 0.905000   9.106810   -213.359085
 0.910000   7.986584   -235.360750
 0.915000   6.753202   -256.905110
 0.920000   5.417533   -275.367731
 0.925000   3.999525   -288.588336
 0.930000   2.531650   -292.128790
 0.935000   1.078237   -277.698992
 0.940000   -0.245340   -244.108850
 0.945000   -1.362851   -197.408304
 0.950000   -2.219423   -143.939532
 0.955000   -2.802247   -96.666234
 0.960000   -3.186086   -78.886957
 0.965000   -3.591116   -112.402917
 0.970000   -4.310115   -192.362143
 0.975000   -5.514738   -251.111923
 0.980000   -6.821234   -145.869393
 0.985000   -6.973432   255.216721
 0.990000   -4.269067   903.917641
 0.995000   2.065745   1461.509100
 1.000000   10.346024   1850.602735
201 psinorm omgpp(kRad/s) domgpp/dpsiN
 0.000000   -0.031052   -15.395317
 0.005000   -0.125503   -22.385033
 0.010000   -0.254902   -26.282604
 0.015000   -0.388329   -27.056625
 0.020000   -0.525469   -27.747791
 0.025000   -0.665807   -28.320949
 0.030000   -0.808678   -28.787022
 0.035000   -0.953677   -29.141714
 0.040000   -1.100095   -29.361904
 0.045000   -1.247296   -29.455986
 0.050000   -1.394655   -29.389278
 0.055000   -1.541189   -29.170153
 0.060000   -1.686357   -29.001848
 0.065000   -1.831207   -28.853749
 0.070000   -1.974894   -28.617582
 0.075000   -2.117383   -28.381138
 0.080000   -2.258705   -28.144709
 0.085000   -2.398830   -27.964857
 0.090000   -2.538354   -27.966525
 0.095000   -2.678495   -28.009787
 0.100000   -2.818452   -27.971438
 0.105000   -2.958210   -27.925360
 0.110000   -3.097706   -27.874049
 0.115000   -3.236950   -27.889729
 0.120000   -3.376603   -27.769478
 0.125000   -3.514645   -27.447637
 0.130000   -3.651079   -27.084766
 0.135000   -3.785493   -26.632258
 0.140000   -3.917402   -26.089240
 0.145000   -4.046385   -25.492293
 0.150000   -4.172325   -24.665431
 0.155000   -4.293040   -23.655339
 0.160000   -4.408878   -22.619645
 0.165000   -4.519236   -21.458328
 0.170000   -4.623461   -20.172639
 0.175000   -4.720962   -18.584995
 0.180000   -4.809311   -16.982273
 0.185000   -4.890785   -15.614831
 0.190000   -4.965460   -14.403356
 0.195000   -5.034819   -13.510361
 0.200000   -5.100563   -12.949659
 0.205000   -5.164315   -12.790401
 0.210000   -5.228467   -12.744602
 0.215000   -5.291761   -12.484373
 0.220000   -5.353311   -12.149432
 0.225000   -5.413256   -11.809318
 0.230000   -5.471404   -11.412679
 0.235000   -5.527382   -11.449123
 0.240000   -5.585895   -11.036435
 0.245000   -5.637747   -9.605107
 0.250000   -5.681946   -8.101319
 0.255000   -5.718760   -6.471555
 0.260000   -5.746662   -4.546433
 0.265000   -5.764224   -2.519827
 0.270000   -5.771860   0.084288
 0.275000   -5.763381   3.189045
 0.280000   -5.739970   6.037808
 0.285000   -5.703003   8.746598
 0.290000   -5.652504   11.418403
 0.295000   -5.588819   14.310592
 0.300000   -5.509398   16.923993
 0.305000   -5.419579   18.218598
 0.310000   -5.327212   18.769146
 0.315000   -5.231888   19.215140
 0.320000   -5.135061   19.404231
 0.325000   -5.037846   19.369418
 0.330000   -4.941366   18.921287
 0.335000   -4.848633   18.370043
 0.340000   -4.757666   18.114726
 0.345000   -4.667485   18.007235
 0.350000   -4.577594   18.014072
 0.355000   -4.487345   17.945344
 0.360000   -4.398140   17.770659
 0.365000   -4.309638   18.600283
 0.370000   -4.212137   20.270338
 0.375000   -4.106935   22.005050
 0.380000   -3.992087   24.033171
 0.385000   -3.866603   26.212459
 0.390000   -3.729962   28.730298
 0.395000   -3.579300   30.767724
 0.400000   -3.422285   31.879872
 0.405000   -3.260501   32.602028
 0.410000   -3.096265   32.843769
 0.415000   -2.932064   32.677104
 0.420000   -2.769494   32.574260
 0.425000   -2.606321   31.064079
 0.430000   -2.458853   28.730610
 0.435000   -2.319015   27.201182
 0.440000   -2.186841   25.666736
 0.445000   -2.062348   24.129199
 0.450000   -1.945549   22.852272
 0.455000   -1.833825   21.033233
 0.460000   -1.735217   18.913664
 0.465000   -1.644688   17.292568
 0.470000   -1.562291   15.668924
 0.475000   -1.487999   14.071807
 0.480000   -1.421573   12.460040
 0.485000   -1.363399   11.329174
 0.490000   -1.308281   10.675525
 0.495000   -1.256643   9.908122
 0.500000   -1.209200   8.995247
 0.505000   -1.166691   7.931122
 0.510000   -1.129889   6.707677
 0.515000   -1.099614   5.395702
 0.520000   -1.075932   4.100068
 0.525000   -1.058613   2.846143
 0.530000   -1.047470   1.631028
 0.535000   -1.042303   0.456553
 0.540000   -1.042905   -0.659600
 0.545000   -1.048899   -1.739098
 0.550000   -1.060296   -2.823467
 0.555000   -1.077134   -3.903662
 0.560000   -1.099332   -4.978141
 0.565000   -1.126915   -6.061644
 0.570000   -1.159949   -7.148992
 0.575000   -1.198405   -8.268667
 0.580000   -1.242636   -9.394784
 0.585000   -1.292353   -10.447981
 0.590000   -1.347115   -11.436495
 0.595000   -1.406718   -12.383734
 0.600000   -1.470953   -13.334203
 0.605000   -1.540060   -14.280130
 0.610000   -1.613754   -15.084366
 0.615000   -1.690904   -15.760802
 0.620000   -1.771362   -16.383411
 0.625000   -1.854738   -16.924795
 0.630000   -1.940610   -17.462468
 0.635000   -2.029362   -17.969862
 0.640000   -2.120309   -18.179102
 0.645000   -2.211153   -18.237410
 0.650000   -2.302683   -18.362345
 0.655000   -2.394777   -18.467513
 0.660000   -2.487358   -18.645758
 0.665000   -2.581234   -19.167679
 0.670000   -2.679035   -20.062911
 0.675000   -2.781864   -21.630126
 0.680000   -2.895336   -23.894112
 0.685000   -3.020805   -26.314849
 0.690000   -3.158484   -29.011390
 0.695000   -3.310919   -32.752869
 0.700000   -3.486013   -33.990543
 0.705000   -3.650824   -32.955646
 0.710000   -3.815570   -32.554075
 0.715000   -3.976365   -31.278083
 0.720000   -4.128350   -29.069401
 0.725000   -4.267059   -26.202723
 0.730000   -4.390378   -19.884689
 0.735000   -4.465906   -11.442218
 0.740000   -4.504800   -3.774245
 0.745000   -4.503648   4.388151
 0.750000   -4.460918   12.615782
 0.755000   -4.377490   22.180831
 0.760000   -4.239110   29.337451
 0.765000   -4.084116   32.850171
 0.770000   -3.910608   35.839663
 0.775000   -3.725719   37.430822
 0.780000   -3.536300   37.729538
 0.785000   -3.348424   37.917208
 0.790000   -3.157128   35.623133
 0.795000   -2.992192   31.442362
 0.800000   -2.842704   28.419415
 0.805000   -2.707998   25.534720
 0.810000   -2.587357   22.926751
 0.815000   -2.478731   20.529314
 0.820000   -2.382064   19.310415
 0.825000   -2.285627   19.307239
 0.830000   -2.188992   19.226292
 0.835000   -2.093364   18.997708
 0.840000   -1.999014   18.685819
 0.845000   -1.906506   17.968915
 0.850000   -1.819325   16.978520
 0.855000   -1.736720   15.587250
 0.860000   -1.663453   13.343263
 0.865000   -1.603288   10.497549
 0.870000   -1.558477   7.237047
 0.875000   -1.530917   3.104320
 0.880000   -1.527434   -1.362784
 0.885000   -1.544545   -5.443297
 0.890000   -1.581867   -10.497402
 0.895000   -1.649519   -17.443888
 0.900000   -1.756306   -26.500394
 0.905000   -1.914523   -39.888665
 0.910000   -2.155193   -58.989512
 0.915000   -2.504418   -82.966133
 0.920000   -2.984854   -116.756428
 0.925000   -3.671982   -166.548347
 0.930000   -4.650337   -235.240497
 0.935000   -6.024387   -332.028617
 0.940000   -7.970624   -459.265387
 0.945000   -10.617041   -581.535144
 0.950000   -13.785975   -678.614634
 0.955000   -17.403188   -735.445971
 0.960000   -21.140435   -708.406757
 0.965000   -24.487255   -575.735568
 0.970000   -26.897790   -330.201031
 0.975000   -27.789266   16.507004
 0.980000   -26.732720   354.485180
 0.985000   -24.244414   579.175607
 0.990000   -20.940964   673.878036
 0.995000   -17.505633   648.732562
 1.000000   -14.453639   572.065291
201 psinorm omgeb(kRad/s) domgeb/dpsiN
 0.000000   71.079861   147.944075
 0.005000   71.628969   71.699239
 0.010000   71.796853   29.063559
 0.015000   71.919605   22.549377
 0.020000   72.022347   19.147755
 0.025000   72.111082   16.482510
 0.030000   72.187172   13.893005
 0.035000   72.250012   11.609362
 0.040000   72.303266   9.678735
 0.045000   72.346800   7.787028
 0.050000   72.381136   6.164369
 0.055000   72.408443   4.940275
 0.060000   72.430539   3.822146
 0.065000   72.446665   2.708593
 0.070000   72.457625   1.641202
 0.075000   72.463077   0.516892
 0.080000   72.462794   -0.783629
 0.085000   72.455240   -2.444671
 0.090000   72.438347   -4.531247
 0.095000   72.409928   -6.898619
 0.100000   72.369361   -9.174262
 0.105000   72.318185   -11.310012
 0.110000   72.256260   -13.193421
 0.115000   72.186251   -14.699102
 0.120000   72.109269   -15.595602
 0.125000   72.030295   -15.841494
 0.130000   71.950855   -15.858424
 0.135000   71.871711   -15.815102
 0.140000   71.792704   -15.734962
 0.145000   71.714361   -15.740306
 0.150000   71.635300   -15.869941
 0.155000   71.555662   -16.472288
 0.160000   71.470578   -17.465153
 0.165000   71.381010   -18.838186
 0.170000   71.282196   -20.627976
 0.175000   71.174731   -22.568011
 0.180000   71.056516   -25.017094
 0.185000   70.924560   -27.809659
 0.190000   70.778419   -30.921316
 0.195000   70.615346   -34.190889
 0.200000   70.436510   -37.589489
 0.205000   70.239452   -41.285498
 0.210000   70.023655   -44.537513
 0.215000   69.794076   -47.169347
 0.220000   69.551962   -49.350548
 0.225000   69.300571   -51.196943
 0.230000   69.039992   -52.926140
 0.235000   68.771310   -54.883536
 0.240000   68.491157   -56.352560
 0.245000   68.207784   -56.722839
 0.250000   67.923928   -56.787047
 0.255000   67.639914   -56.613484
 0.260000   67.357794   -55.974028
 0.265000   67.080173   -55.233257
 0.270000   66.805461   -54.108958
 0.275000   66.539084   -52.511066
 0.280000   66.280350   -51.376116
 0.285000   66.025322   -50.738720
 0.290000   65.772963   -50.433018
 0.295000   65.520992   -50.402994
 0.300000   65.268933   -51.012697
 0.305000   65.010865   -53.050966
 0.310000   64.738424   -56.021030
 0.315000   64.450655   -59.235372
 0.320000   64.146070   -62.559100
 0.325000   63.825064   -65.774453
 0.330000   63.488325   -68.923853
 0.335000   63.135826   -71.571703
 0.340000   62.772608   -73.380404
 0.345000   62.402021   -74.584079
 0.350000   62.026768   -75.144128
 0.355000   61.650580   -75.669413
 0.360000   61.270073   -76.660616
 0.365000   60.883974   -76.893827
 0.370000   60.501135   -76.596438
 0.375000   60.118010   -76.648209
 0.380000   59.734653   -76.941086
 0.385000   59.348599   -77.332685
 0.390000   58.961326   -77.064742
 0.395000   58.577951   -76.766947
 0.400000   58.193657   -76.788450
 0.405000   57.810067   -76.449156
 0.410000   57.429165   -75.931390
 0.415000   57.050753   -76.036345
 0.420000   56.668802   -77.176752
 0.425000   56.278985   -81.140644
 0.430000   55.857395   -87.462254
 0.435000   55.404363   -94.696678
 0.440000   54.910429   -103.950077
 0.445000   54.364862   -113.928370
 0.450000   53.771145   -123.186209
 0.455000   53.133000   -132.523223
 0.460000   52.445913   -141.277451
 0.465000   51.720226   -148.367384
 0.470000   50.962239   -153.324397
 0.475000   50.186982   -155.024281
 0.480000   49.411996   -153.922612
 0.485000   48.647755   -150.348509
 0.490000   47.908511   -144.680004
 0.495000   47.200955   -137.814717
 0.500000   46.530364   -130.191080
 0.505000   45.899045   -122.921853
 0.510000   45.301145   -116.815582
 0.515000   44.730889   -111.822269
 0.520000   44.182922   -107.786876
 0.525000   43.653020   -104.640300
 0.530000   43.136519   -102.654576
 0.535000   42.626474   -101.440093
 0.540000   42.122119   -100.299882
 0.545000   41.623475   -99.176760
 0.550000   41.130351   -98.042162
 0.555000   40.643054   -96.762191
 0.560000   40.162729   -95.291559
 0.565000   39.690138   -93.847812
 0.570000   39.224251   -92.398575
 0.575000   38.766152   -90.880750
 0.580000   38.315443   -89.457516
 0.585000   37.871577   -88.106050
 0.590000   37.434383   -86.786607
 0.595000   37.003711   -85.469725
 0.600000   36.579686   -84.271120
 0.605000   36.161000   -83.131921
 0.610000   35.748366   -81.855352
 0.615000   35.342447   -80.567199
 0.620000   34.942694   -79.330999
 0.625000   34.549137   -78.078918
 0.630000   34.161905   -76.927802
 0.635000   33.779859   -75.958084
 0.640000   33.402324   -74.864452
 0.645000   33.031214   -73.723680
 0.650000   32.665088   -72.756671
 0.655000   32.303647   -72.082627
 0.660000   31.944261   -71.834873
 0.665000   31.585299   -72.190467
 0.670000   31.222357   -73.268516
 0.675000   30.852613   -75.352118
 0.680000   30.468836   -78.440967
 0.685000   30.068204   -81.806337
 0.690000   29.650772   -85.406501
 0.695000   29.214139   -90.007431
 0.700000   28.750698   -92.043271
 0.705000   28.293706   -91.826301
 0.710000   27.832435   -92.335424
 0.715000   27.370352   -92.028129
 0.720000   26.912154   -90.877970
 0.725000   26.461572   -89.212056
 0.730000   26.020033   -84.223677
 0.735000   25.619335   -77.187097
 0.740000   25.248162   -70.965717
 0.745000   24.909678   -64.374400
 0.750000   24.604418   -57.958059
 0.755000   24.330098   -50.547233
 0.760000   24.098946   -46.011477
 0.765000   23.869983   -45.767754
 0.770000   23.641268   -46.901117
 0.775000   23.400972   -50.279136
 0.780000   23.138477   -55.206801
 0.785000   22.848904   -60.172296
 0.790000   22.536754   -67.750514
 0.795000   22.171398   -77.172201
 0.800000   21.765032   -85.297384
 0.805000   21.318425   -93.312981
 0.810000   20.831902   -100.856982
 0.815000   20.309855   -107.928653
 0.820000   19.752615   -113.851259
 0.825000   19.171342   -118.317854
 0.830000   18.569437   -122.341373
 0.835000   17.947928   -126.014904
 0.840000   17.309288   -128.649669
 0.845000   16.661432   -130.279732
 0.850000   16.006491   -131.095800
 0.855000   15.350474   -131.362382
 0.860000   14.692867   -132.152356
 0.865000   14.028950   -134.337964
 0.870000   13.349487   -137.856835
 0.875000   12.650382   -143.324992
 0.880000   11.916237   -151.132806
 0.885000   11.139054   -160.914741
 0.890000   10.307090   -174.571014
 0.895000   9.393344   -194.322068
 0.900000   8.363869   -220.105696
 0.905000   7.192287   -253.247750
 0.910000   5.831392   -294.350262
 0.915000   4.248784   -339.871243
 0.920000   2.432679   -392.124159
 0.925000   0.327542   -455.136684
 0.930000   -2.118688   -527.369287
 0.935000   -4.946150   -609.727609
 0.940000   -8.215964   -703.374238
 0.945000   -11.979893   -778.943448
 0.950000   -16.005398   -822.554166
 0.955000   -20.205434   -832.112204
 0.960000   -24.326520   -787.293714
 0.965000   -28.078372   -688.138485
 0.970000   -31.207905   -522.563173
 0.975000   -33.304003   -234.604918
 0.980000   -33.553954   208.615788
 0.985000   -31.217845   834.392328
 0.990000   -25.210031   1577.795676
 0.995000   -15.439889   2110.241662
 1.000000   -4.107614   2422.668026
201 psinorm er(kV/m) der/dpsiN
 0.000000   0.852188   1282.249228
 0.005000   5.991616   773.522223
 0.010000   8.587410   459.274159
 0.015000   10.584358   369.403402
 0.020000   12.281444   320.419990
 0.025000   13.788558   286.938039
 0.030000   15.150824   261.180421
 0.035000   16.400362   241.005161
 0.040000   17.560876   224.948176
 0.045000   18.649844   211.767185
 0.050000   19.678548   200.529578
 0.055000   20.655140   191.858713
 0.060000   21.597135   183.088732
 0.065000   22.486027   173.428478
 0.070000   23.331420   167.306696
 0.075000   24.159094   161.884178
 0.080000   24.950261   153.516429
 0.085000   25.694258   148.922194
 0.090000   26.439483   143.756713
 0.095000   27.131825   137.204223
 0.100000   27.811526   133.054958
 0.105000   28.462375   126.743379
 0.110000   29.078959   123.227336
 0.115000   29.694648   117.942459
 0.120000   30.258384   114.665257
 0.125000   30.841301   110.749787
 0.130000   31.365882   107.577504
 0.135000   31.917076   104.712647
 0.140000   32.413008   101.272865
 0.145000   32.929804   99.286930
 0.150000   33.405878   95.348998
 0.155000   33.883294   93.989613
 0.160000   34.345774   89.198769
 0.165000   34.775282   87.502948
 0.170000   35.220803   82.622214
 0.175000   35.601504   80.358530
 0.180000   36.024389   76.659681
 0.185000   36.368101   71.524090
 0.190000   36.739629   71.134625
 0.195000   37.079447   63.780361
 0.200000   37.377433   62.454116
 0.205000   37.703988   56.029218
 0.210000   37.937725   51.314798
 0.215000   38.217136   52.354203
 0.220000   38.461267   44.664739
 0.225000   38.663784   43.968700
 0.230000   38.900954   40.374237
 0.235000   39.067526   35.206120
 0.240000   39.253015   37.398382
 0.245000   39.441510   30.659542
 0.250000   39.559611   29.030804
 0.255000   39.731818   31.669404
 0.260000   39.876305   25.534629
 0.265000   39.987164   26.362629
 0.270000   40.139931   26.669771
 0.275000   40.253862   22.589529
 0.280000   40.365826   25.299252
 0.285000   40.506855   22.963121
 0.290000   40.595458   19.370322
 0.295000   40.700558   22.540376
 0.300000   40.820861   17.912324
 0.305000   40.879681   13.656197
 0.310000   40.957423   15.363847
 0.315000   41.033320   8.483790
 0.320000   41.042261   3.772690
 0.325000   41.071046   5.173261
 0.330000   41.093994   -1.550947
 0.335000   41.055537   -5.774585
 0.340000   41.036248   -3.946409
 0.345000   41.016073   -8.701475
 0.350000   40.949233   -11.680444
 0.355000   40.899268   -9.688836
 0.360000   40.852345   -13.182249
 0.365000   40.767446   -16.179106
 0.370000   40.690554   -14.467077
 0.375000   40.622775   -15.957147
 0.380000   40.530982   -19.294010
 0.385000   40.429835   -18.989259
 0.390000   40.341090   -18.921900
 0.395000   40.240616   -21.992852
 0.400000   40.121161   -22.289188
 0.405000   40.017724   -21.145771
 0.410000   39.909704   -23.997053
 0.415000   39.777754   -25.038518
 0.420000   39.659318   -24.487464
 0.425000   39.532879   -29.833378
 0.430000   39.360985   -35.805591
 0.435000   39.174823   -40.158612
 0.440000   38.959399   -47.991107
 0.445000   38.694912   -57.053818
 0.450000   38.388860   -64.024685
 0.455000   38.054665   -70.957186
 0.460000   37.679288   -79.326726
 0.465000   37.261398   -85.476787
 0.470000   36.824521   -88.956659
 0.475000   36.371831   -91.940045
 0.480000   35.905120   -92.553097
 0.485000   35.446300   -90.111464
 0.490000   35.004006   -86.804531
 0.495000   34.578255   -83.336010
 0.500000   34.170645   -78.458390
 0.505000   33.793671   -73.178183
 0.510000   33.438864   -70.066979
 0.515000   33.093001   -67.294931
 0.520000   32.765914   -64.258694
 0.525000   32.450414   -62.652318
 0.530000   32.139391   -62.271838
 0.535000   31.827696   -61.799245
 0.540000   31.521399   -61.021821
 0.545000   31.217478   -61.281428
 0.550000   30.908584   -61.125919
 0.555000   30.606219   -60.079393
 0.560000   30.307790   -59.580989
 0.565000   30.010409   -59.423290
 0.570000   29.713558   -58.628212
 0.575000   29.424127   -57.442505
 0.580000   29.139133   -57.400647
 0.585000   28.850120   -56.954224
 0.590000   28.569590   -55.702986
 0.595000   28.293090   -55.190944
 0.600000   28.017681   -55.176810
 0.605000   27.741322   -54.517597
 0.610000   27.472505   -53.325552
 0.615000   27.208067   -53.275700
 0.620000   26.939748   -52.905774
 0.625000   26.679009   -51.614721
 0.630000   26.423601   -50.962961
 0.635000   26.169379   -51.220877
 0.640000   25.911392   -50.571834
 0.645000   25.663661   -49.217242
 0.650000   25.419219   -49.215059
 0.655000   25.171510   -49.429160
 0.660000   24.924928   -48.970909
 0.665000   24.681801   -48.988561
 0.670000   24.435042   -51.080607
 0.675000   24.170995   -53.072641
 0.680000   23.904316   -54.689610
 0.685000   23.624099   -57.783758
 0.690000   23.326478   -61.720074
 0.695000   23.006898   -65.303065
 0.700000   22.673448   -66.229876
 0.705000   22.344600   -67.036974
 0.710000   22.003078   -68.256788
 0.715000   21.662032   -67.458685
 0.720000   21.328491   -66.158851
 0.725000   21.000443   -66.400875
 0.730000   20.664482   -62.799416
 0.735000   20.372449   -56.017682
 0.740000   20.104305   -51.415582
 0.745000   19.858293   -47.513534
 0.750000   19.629170   -42.259112
 0.755000   19.435702   -35.309897
 0.760000   19.276071   -32.469642
 0.765000   19.111006   -33.106952
 0.770000   18.945002   -33.510857
 0.775000   18.775897   -35.667974
 0.780000   18.588322   -40.575955
 0.785000   18.370138   -44.992027
 0.790000   18.138402   -50.444776
 0.795000   17.865690   -57.934294
 0.800000   17.559059   -65.519949
 0.805000   17.210490   -72.180166
 0.810000   16.837257   -77.608342
 0.815000   16.434407   -83.678099
 0.820000   16.000476   -89.267668
 0.825000   15.541730   -92.948317
 0.830000   15.070993   -95.854172
 0.835000   14.583189   -99.331991
 0.840000   14.077673   -102.075517
 0.845000   13.562433   -103.382990
 0.850000   13.043843   -103.923503
 0.855000   12.523198   -104.695535
 0.860000   11.996888   -105.792445
 0.865000   11.465274   -107.511349
 0.870000   10.921774   -110.418910
 0.875000   10.361085   -115.498681
 0.880000   9.766787   -122.270528
 0.885000   9.138380   -130.200039
 0.890000   8.464787   -141.554947
 0.895000   7.722830   -158.536007
 0.900000   6.879427   -180.113013
 0.905000   5.921700   -207.261181
 0.910000   4.806815   -241.475270
 0.915000   3.506947   -279.737704
 0.920000   2.009438   -323.031340
 0.925000   0.276634   -375.074438
 0.930000   -1.741306   -436.560997
 0.935000   -4.088976   -509.612252
 0.940000   -6.837429   -588.632772
 0.945000   -9.975304   -649.618025
 0.950000   -13.333609   -703.385271
 0.955000   -17.009157   -752.969853
 0.960000   -20.863308   -711.300861
 0.965000   -24.122165   -599.410538
 0.970000   -26.857413   -470.060462
 0.975000   -28.822770   -241.298143
 0.980000   -29.270394   156.723211
 0.985000   -27.255538   723.202550
 0.990000   -22.038369   1374.090149
 0.995000   -13.514636   1842.181835
 1.000000   -3.616551   2117.052420
201 psinorm ommvb() dommvb/dpsiN
 0.000000   53.993169   16583.161147
 0.005000   127.566257   12846.073903
 0.010000   182.453908   9934.884198
 0.015000   226.915099   8176.721797
 0.020000   264.221126   7157.224404
 0.025000   298.487343   6242.749885
 0.030000   326.648625   5255.007285
 0.035000   351.037416   4666.624660
 0.040000   373.314872   4271.999644
 0.045000   393.757412   3804.003050
 0.050000   411.354902   3326.128128
 0.055000   427.018694   2962.761197
 0.060000   440.982514   2556.238252
 0.065000   452.581076   2191.698520
 0.070000   462.899500   1974.406403
 0.075000   472.325140   1796.954956
 0.080000   480.869049   1504.657876
 0.085000   487.371719   1147.023094
 0.090000   492.339280   920.205259
 0.095000   496.573772   761.321949
 0.100000   499.952500   516.028026
 0.105000   501.734052   254.937439
 0.110000   502.501874   137.480974
 0.115000   503.108862   4.995623
 0.120000   502.551830   -154.059172
 0.125000   501.568270   -246.109176
 0.130000   500.090738   -362.270436
 0.135000   497.945565   -473.699147
 0.140000   495.353747   -547.547629
 0.145000   492.470089   -677.958669
 0.150000   488.574160   -827.087095
 0.155000   484.199218   -917.969273
 0.160000   479.394468   -1001.125424
 0.165000   474.187964   -1076.978621
 0.170000   468.624681   -1255.320830
 0.175000   461.634756   -1358.814894
 0.180000   455.036532   -1342.777803
 0.185000   448.206978   -1357.230025
 0.190000   441.464232   -1356.432432
 0.195000   434.642653   -1374.414010
 0.200000   427.720092   -1395.538047
 0.205000   420.687273   -1410.843525
 0.210000   413.611657   -1415.629805
 0.215000   406.530975   -1536.816100
 0.220000   398.243496   -1617.088704
 0.225000   390.360088   -1453.097571
 0.230000   383.712520   -1333.498362
 0.235000   377.025104   -1334.870932
 0.240000   370.363811   -1318.029254
 0.245000   363.844812   -1324.392624
 0.250000   357.119884   -1499.232404
 0.255000   348.852488   -1405.384596
 0.260000   343.066039   -1137.391859
 0.265000   337.478569   -1101.463608
 0.270000   332.051402   -1067.464582
 0.275000   326.803923   -1206.303640
 0.280000   319.988366   -1208.909645
 0.285000   314.714827   -960.725713
 0.290000   310.381109   -849.366829
 0.295000   306.221158   -813.371888
 0.300000   302.247390   -918.193825
 0.305000   297.039220   -913.996618
 0.310000   293.107424   -708.157372
 0.315000   289.957646   -614.293407
 0.320000   286.964490   -586.292211
 0.325000   284.094724   -693.148497
 0.330000   280.033005   -620.499685
 0.335000   277.889727   -419.273434
 0.340000   275.840270   -399.318562
 0.345000   273.896542   -440.476478
 0.350000   271.435506   -450.651507
 0.355000   269.390027   -332.168520
 0.360000   268.113820   -243.787002
 0.365000   266.952157   -236.975970
 0.370000   265.744061   -283.111808
 0.375000   264.121039   -223.567231
 0.380000   263.508388   -113.368397
 0.385000   262.987355   -94.759531
 0.390000   262.560793   -137.824132
 0.395000   261.609113   -113.372596
 0.400000   261.427067   -22.726566
 0.405000   261.381848   -2.565736
 0.410000   261.401410   -34.099762
 0.415000   261.040850   -40.256006
 0.420000   260.998850   9.190069
 0.425000   261.132751   23.256048
 0.430000   261.231410   -19.791229
 0.435000   260.934839   -57.718271
 0.440000   260.654228   -31.684567
 0.445000   260.617993   -14.552757
 0.450000   260.508700   -60.971979
 0.455000   260.008273   -128.630108
 0.460000   259.222399   -101.006983
 0.465000   258.998203   -42.922659
 0.470000   258.793172   -57.002710
 0.475000   258.428176   -98.876915
 0.480000   257.804403   -67.153779
 0.485000   257.756638   -2.335351
 0.490000   257.781050   6.637164
 0.495000   257.823010   -19.194092
 0.500000   257.589109   14.417583
 0.505000   257.967186   82.438112
 0.510000   258.413490   95.365420
 0.515000   258.920840   64.098668
 0.520000   259.054477   87.946407
 0.525000   259.800304   152.970228
 0.530000   260.584179   156.659040
 0.535000   261.366894   123.783499
 0.540000   261.822014   113.948400
 0.545000   262.506378   153.975195
 0.550000   263.361766   175.776141
 0.555000   264.264140   173.979721
 0.560000   265.101563   164.114210
 0.565000   265.905282   186.884279
 0.570000   266.970406   218.457718
 0.575000   268.089859   229.740285
 0.580000   269.267809   213.730547
 0.585000   270.227165   231.573406
 0.590000   271.583543   278.737804
 0.595000   273.014543   293.501123
 0.600000   274.518554   295.215329
 0.605000   275.966696   312.809523
 0.610000   277.646649   354.052085
 0.615000   279.507217   384.315413
 0.620000   281.489803   411.546736
 0.625000   283.622684   434.883579
 0.630000   285.838639   461.805866
 0.635000   288.240743   492.071167
 0.640000   290.759351   517.139787
 0.645000   293.412141   547.169738
 0.650000   296.231048   578.380113
 0.655000   299.195942   610.510208
 0.660000   302.336150   641.281616
 0.665000   305.608758   668.794567
 0.670000   309.024096   700.466475
 0.675000   312.613423   741.668590
 0.680000   316.440782   782.010874
 0.685000   320.433532   813.498675
 0.690000   324.575769   846.355662
 0.695000   328.897088   885.062556
 0.700000   333.426394   944.080107
 0.705000   338.337889   992.994032
 0.710000   343.356334   1026.914745
 0.715000   348.607037   1074.049939
 0.720000   354.096834   1122.729231
 0.725000   359.834329   1180.008944
 0.730000   365.896923   1244.310591
 0.735000   372.277435   1297.109642
 0.740000   378.868020   1350.848590
 0.745000   385.785921   1415.005371
 0.750000   393.018073   1477.434719
 0.755000   400.560268   1545.441914
 0.760000   408.472492   1601.346143
 0.765000   416.573729   1645.308404
 0.770000   424.925577   1706.559369
 0.775000   433.639323   1778.858234
 0.780000   442.714159   1852.765695
 0.785000   452.166980   1932.571674
 0.790000   462.039876   2015.063217
 0.795000   472.317612   2084.532597
 0.800000   482.885202   2175.479749
 0.805000   494.072410   2286.838667
 0.810000   505.753588   2386.509012
 0.815000   517.937500   2487.225516
 0.820000   530.625843   2592.382218
 0.825000   543.861322   2707.857217
 0.830000   557.704416   2830.549091
 0.835000   572.166813   2892.538739
 0.840000   586.629803   3008.715267
 0.845000   602.253966   3191.319035
 0.850000   618.542993   3326.972484
 0.855000   635.523690   3461.746786
 0.860000   653.160461   3598.441397
 0.865000   671.508104   3795.036565
 0.870000   691.110827   4131.796330
 0.875000   712.826068   4603.983151
 0.880000   737.150658   5177.649435
 0.885000   764.602562   5860.808096
 0.890000   795.758739   6691.193791
 0.895000   831.514500   7738.127569
 0.900000   873.140015   9092.195814
 0.905000   922.436458   10878.055455
 0.910000   981.920570   13308.668511
 0.915000   1055.523143   16357.384816
 0.920000   1145.494418   19900.571605
 0.925000   1254.528859   23962.670807
 0.930000   1385.121126   28142.819370
 0.935000   1535.957053   31060.107326
 0.940000   1695.722199   30574.666829
 0.945000   1841.703721   24891.622071
 0.950000   1944.638420   22304.659431
 0.955000   2064.750316   39494.332732
 0.960000   2339.581747   77759.696339
 0.965000   2842.347279   109498.894004
 0.970000   3434.570687   106867.605957
 0.975000   3911.023339   71433.583477
 0.980000   4148.906522   31519.664695
 0.985000   4226.219985   20769.983253
 0.990000   4356.606354   38465.275675
 0.995000   4610.872742   315409.222633
 1.000000   7510.698581   844521.112785
201 psinorm ommpp() dommpp/dpsiN
 0.000000   17.086691   -16435.217072
 0.005000   -55.937288   -12774.374664
 0.010000   -110.657055   -9905.820638
 0.015000   -154.995494   -8154.172421
 0.020000   -192.198780   -7138.076649
 0.025000   -226.376261   -6226.267375
 0.030000   -254.461453   -5241.114280
 0.035000   -278.787404   -4655.015298
 0.040000   -301.011606   -4262.320909
 0.045000   -321.410613   -3796.216022
 0.050000   -338.973766   -3319.963759
 0.055000   -354.610250   -2957.820922
 0.060000   -368.551976   -2552.416106
 0.065000   -380.134411   -2188.989926
 0.070000   -390.441875   -1972.765201
 0.075000   -399.862063   -1796.438064
 0.080000   -408.406256   -1505.441505
 0.085000   -414.916478   -1149.467765
 0.090000   -419.900933   -924.736505
 0.095000   -424.163844   -768.220568
 0.100000   -427.583139   -525.202288
 0.105000   -429.415866   -266.247452
 0.110000   -430.245613   -150.674395
 0.115000   -430.922610   -19.694725
 0.120000   -430.442561   138.463570
 0.125000   -429.537975   230.267682
 0.130000   -428.139884   346.412012
 0.135000   -426.073855   457.884045
 0.140000   -423.561043   531.812668
 0.145000   -420.755728   662.218363
 0.150000   -416.938860   811.217153
 0.155000   -412.643556   901.496985
 0.160000   -407.923890   983.660271
 0.165000   -402.806954   1058.140435
 0.170000   -397.342486   1234.692854
 0.175000   -390.460025   1336.246883
 0.180000   -383.980017   1317.760708
 0.185000   -377.282418   1329.420366
 0.190000   -370.685813   1325.511115
 0.195000   -364.027307   1340.223121
 0.200000   -357.283582   1357.948558
 0.205000   -350.447821   1369.558027
 0.210000   -343.588002   1371.092292
 0.215000   -336.736898   1489.646753
 0.220000   -328.691534   1567.738156
 0.225000   -321.059517   1401.900627
 0.230000   -314.672528   1280.572222
 0.235000   -308.253795   1279.987396
 0.240000   -301.872654   1261.676694
 0.245000   -295.637028   1267.669785
 0.250000   -289.195956   1442.445357
 0.255000   -281.212574   1348.771112
 0.260000   -275.708245   1081.417831
 0.265000   -270.398396   1046.230350
 0.270000   -265.245941   1013.355624
 0.275000   -260.264840   1153.792574
 0.280000   -253.708016   1157.533529
 0.285000   -248.689504   909.986994
 0.290000   -244.608146   798.933811
 0.295000   -240.700166   762.968894
 0.300000   -236.978457   867.181128
 0.305000   -232.028355   860.945652
 0.310000   -228.369000   652.136343
 0.315000   -225.506991   555.058035
 0.320000   -222.818420   523.733112
 0.325000   -220.269660   627.374044
 0.330000   -216.544679   551.575832
 0.335000   -214.753902   347.701731
 0.340000   -213.067662   325.938159
 0.345000   -211.494520   365.892399
 0.350000   -209.408738   375.507379
 0.355000   -207.739447   256.499107
 0.360000   -206.843747   167.126385
 0.365000   -206.068183   160.082143
 0.370000   -205.242926   206.515370
 0.375000   -204.003029   146.919022
 0.380000   -203.773735   36.427311
 0.385000   -203.638756   17.426847
 0.390000   -203.599467   60.759390
 0.395000   -203.031162   36.605649
 0.400000   -203.233410   -54.061884
 0.405000   -203.571781   -73.883420
 0.410000   -203.972245   -41.831628
 0.415000   -203.990097   -35.780340
 0.420000   -204.330048   -86.366821
 0.425000   -204.853765   -104.396693
 0.430000   -205.374015   -67.671026
 0.435000   -205.530476   -36.978407
 0.440000   -205.743799   -72.265510
 0.445000   -206.253131   -99.375613
 0.450000   -206.737555   -62.214229
 0.455000   -206.875273   -3.893115
 0.460000   -206.776486   -40.270467
 0.465000   -207.277978   -105.444725
 0.470000   -207.830934   -96.321687
 0.475000   -208.241195   -56.147366
 0.480000   -208.392407   -86.768833
 0.485000   -209.108883   -148.013158
 0.490000   -209.872539   -151.317168
 0.495000   -210.622055   -118.620625
 0.500000   -211.058745   -144.608663
 0.505000   -212.068141   -205.359966
 0.510000   -213.112345   -212.181002
 0.515000   -214.189951   -175.920937
 0.520000   -214.871554   -195.733283
 0.525000   -216.147284   -257.610528
 0.530000   -217.447659   -259.313616
 0.535000   -218.740420   -225.223592
 0.540000   -219.699895   -214.248281
 0.545000   -220.882903   -253.151955
 0.550000   -222.231415   -273.818303
 0.555000   -223.621086   -270.741911
 0.560000   -224.938834   -259.405769
 0.565000   -226.215144   -280.732091
 0.570000   -227.746155   -310.856293
 0.575000   -229.323707   -320.621035
 0.580000   -230.952365   -303.188064
 0.585000   -232.355587   -319.679456
 0.590000   -234.149160   -365.524411
 0.595000   -236.010831   -378.970848
 0.600000   -237.938868   -379.486449
 0.605000   -239.805696   -395.941444
 0.610000   -241.898283   -435.907438
 0.615000   -244.164770   -464.882612
 0.620000   -246.547109   -490.877736
 0.625000   -249.073548   -512.962497
 0.630000   -251.676734   -538.733668
 0.635000   -254.460884   -568.029251
 0.640000   -257.357026   -592.004239
 0.645000   -260.380927   -620.893418
 0.650000   -263.565960   -651.136783
 0.655000   -266.892295   -682.592834
 0.660000   -270.391889   -713.116489
 0.665000   -274.023459   -740.985034
 0.670000   -277.801739   -773.734991
 0.675000   -281.760809   -817.020709
 0.680000   -285.971946   -860.451841
 0.685000   -290.365328   -895.305012
 0.690000   -294.924996   -931.762163
 0.695000   -299.682949   -975.069986
 0.700000   -304.675696   -1036.123378
 0.705000   -310.044183   -1084.820334
 0.710000   -315.523900   -1119.250169
 0.715000   -321.236685   -1166.078068
 0.720000   -327.184680   -1213.607202
 0.725000   -333.372757   -1269.221000
 0.730000   -339.876890   -1328.534269
 0.735000   -346.658100   -1374.296739
 0.740000   -353.619858   -1421.814307
 0.745000   -360.876243   -1479.379771
 0.750000   -368.413655   -1535.392777
 0.755000   -376.230170   -1595.989148
 0.760000   -384.373547   -1647.357621
 0.765000   -392.703747   -1691.076159
 0.770000   -401.284308   -1753.460486
 0.775000   -410.238351   -1829.137370
 0.780000   -419.575682   -1907.972496
 0.785000   -429.318076   -1992.743969
 0.790000   -439.503122   -2082.813731
 0.795000   -450.146214   -2161.704797
 0.800000   -461.120170   -2260.777134
 0.805000   -472.753985   -2380.151648
 0.810000   -484.921686   -2487.365994
 0.815000   -497.627645   -2595.154169
 0.820000   -510.873228   -2706.233477
 0.825000   -524.689980   -2826.175072
 0.830000   -539.134979   -2952.890464
 0.835000   -554.218884   -3018.553643
 0.840000   -569.320515   -3137.364936
 0.845000   -585.592534   -3321.598767
 0.850000   -602.536503   -3458.068284
 0.855000   -620.173217   -3593.109168
 0.860000   -638.467594   -3730.593753
 0.865000   -657.479154   -3929.374529
 0.870000   -677.761340   -4269.653166
 0.875000   -700.175686   -4747.308143
 0.880000   -725.234421   -5328.782241
 0.885000   -753.463508   -6021.722837
 0.890000   -785.451650   -6865.764805
 0.895000   -822.121156   -7932.449638
 0.900000   -864.776146   -9312.301510
 0.905000   -915.244171   -11131.303205
 0.910000   -976.089178   -13603.018773
 0.915000   -1051.274359   -16697.256059
 0.920000   -1143.061739   -20292.695764
 0.925000   -1254.201317   -24417.807491
 0.930000   -1387.239813   -28670.188657
 0.935000   -1540.903203   -31669.834935
 0.940000   -1703.938163   -31278.041067
 0.945000   -1853.683614   -25670.565519
 0.950000   -1960.643818   -23127.213597
 0.955000   -2084.955750   -40326.444936
 0.960000   -2363.908267   -78546.990053
 0.965000   -2870.425650   -110187.032489
 0.970000   -3465.778592   -107390.169131
 0.975000   -3944.327342   -71668.188395
 0.980000   -4182.460476   -31311.048907
 0.985000   -4257.437831   -19935.590925
 0.990000   -4381.816385   -36887.479999
 0.995000   -4626.312631   -313298.980971
 1.000000   -7514.806195   -842098.444758
201 psinorm omevb() domevb/dpsiN
 0.000000   50.041458   154.083602
 0.005000   50.624378   79.084475
 0.010000   50.832303   37.128820
 0.015000   50.995667   30.728512
 0.020000   51.139588   27.439829
 0.025000   51.270065   24.886580
 0.030000   51.388454   22.408123
 0.035000   51.494146   20.234577
 0.040000   51.590800   18.413087
 0.045000   51.678277   16.629554
 0.050000   51.757095   15.114102
 0.055000   51.829418   13.996241
 0.060000   51.897057   12.983368
 0.065000   51.959252   11.974089
 0.070000   52.016798   11.009984
 0.075000   52.069351   9.987970
 0.080000   52.116678   8.788750
 0.085000   52.157239   7.228010
 0.090000   52.188958   5.240733
 0.095000   52.209646   2.971652
 0.100000   52.218675   0.793291
 0.105000   52.217579   -1.246192
 0.110000   52.206213   -3.034351
 0.115000   52.187236   -4.445803
 0.120000   52.161755   -5.249099
 0.125000   52.134745   -5.402813
 0.130000   52.107727   -5.328596
 0.135000   52.081459   -5.195159
 0.140000   52.055775   -5.025940
 0.145000   52.031199   -4.943242
 0.150000   52.006343   -4.985878
 0.155000   51.981341   -5.502267
 0.160000   51.951320   -6.410219
 0.165000   51.917238   -7.699385
 0.170000   51.874326   -9.406358
 0.175000   51.823175   -11.264628
 0.180000   51.761680   -13.632998
 0.185000   51.686845   -16.345904
 0.190000   51.598221   -19.378956
 0.195000   51.493055   -22.570982
 0.200000   51.372511   -25.893094
 0.205000   51.234124   -29.513673
 0.210000   51.077374   -32.691319
 0.215000   50.907211   -35.249845
 0.220000   50.724876   -37.358799
 0.225000   50.533623   -39.134010
 0.230000   50.333536   -40.793086
 0.235000   50.125692   -42.681424
 0.240000   49.906721   -44.082453
 0.245000   49.684868   -44.385802
 0.250000   49.462863   -44.384144
 0.255000   49.241026   -44.145778
 0.260000   49.021406   -43.442582
 0.265000   48.806600   -42.639135
 0.270000   48.595014   -41.453223
 0.275000   48.392068   -39.794780
 0.280000   48.197066   -38.600340
 0.285000   48.006065   -37.904516
 0.290000   47.818021   -37.541446
 0.295000   47.630650   -37.455113
 0.300000   47.443470   -38.009565
 0.305000   47.250555   -39.993640
 0.310000   47.043534   -42.910566
 0.315000   46.821449   -46.072824
 0.320000   46.582806   -49.345521
 0.325000   46.327994   -52.510894
 0.330000   46.057697   -55.611364
 0.335000   45.771880   -58.211331
 0.340000   45.475583   -59.973195
 0.345000   45.172148   -61.131077
 0.350000   44.864273   -61.646375
 0.355000   44.555685   -62.127948
 0.360000   44.242993   -63.076477
 0.365000   43.924920   -63.268048
 0.370000   43.610313   -62.930052
 0.375000   43.295619   -62.942245
 0.380000   42.980890   -63.196572
 0.385000   42.663654   -63.550644
 0.390000   42.345384   -63.246197
 0.395000   42.031192   -62.912916
 0.400000   41.716255   -62.899949
 0.405000   41.402192   -62.527196
 0.410000   41.090983   -61.976981
 0.415000   40.782422   -62.050493
 0.420000   40.470478   -63.160458
 0.425000   40.150818   -67.094909
 0.430000   39.799529   -73.388072
 0.435000   39.416937   -80.595040
 0.440000   38.993578   -89.821972
 0.445000   38.518717   -99.774783
 0.450000   37.995830   -109.008119
 0.455000   37.428636   -118.321606
 0.460000   36.812614   -127.053280
 0.465000   36.158103   -134.121627
 0.470000   35.471398   -139.058018
 0.475000   34.767523   -140.738239
 0.480000   34.064016   -139.617863
 0.485000   33.371344   -136.026002
 0.490000   32.703756   -130.340687
 0.495000   32.067938   -123.459531
 0.500000   31.469160   -115.820962
 0.505000   30.909728   -108.537735
 0.510000   30.383783   -102.418392
 0.515000   29.885544   -97.412929
 0.520000   29.409654   -93.366304
 0.525000   28.951881   -90.209409
 0.530000   28.507560   -88.214274
 0.535000   28.069738   -86.991281
 0.540000   27.637647   -85.843458
 0.545000   27.211304   -84.713618
 0.550000   26.790511   -83.573187
 0.555000   26.375572   -82.288264
 0.560000   25.967628   -80.813557
 0.565000   25.567436   -79.366605
 0.570000   25.173962   -77.915029
 0.575000   24.788286   -76.395723
 0.580000   24.410005   -74.971862
 0.585000   24.038567   -73.620617
 0.590000   23.673798   -72.302237
 0.595000   23.315545   -70.987255
 0.600000   22.963926   -69.791379
 0.605000   22.617631   -68.655734
 0.610000   22.277369   -67.383537
 0.615000   21.943796   -66.100568
 0.620000   21.616363   -64.870358
 0.625000   21.295092   -63.625065
 0.630000   20.980112   -62.481530
 0.635000   20.670277   -61.520178
 0.640000   20.364910   -60.435690
 0.645000   20.065920   -59.304833
 0.650000   19.771862   -58.348503
 0.655000   19.482435   -57.685892
 0.660000   19.195003   -57.450316
 0.665000   18.907932   -57.818825
 0.670000   18.616815   -58.910513
 0.675000   18.318827   -61.008467
 0.680000   18.006730   -64.112366
 0.685000   17.677703   -67.493469
 0.690000   17.331796   -71.110031
 0.695000   16.966603   -75.727999
 0.700000   16.574516   -77.781493
 0.705000   16.188788   -77.582759
 0.710000   15.798688   -78.110659
 0.715000   15.407681   -77.822637
 0.720000   15.020462   -76.692185
 0.725000   14.640759   -75.046337
 0.730000   14.269998   -70.078293
 0.735000   13.939976   -63.062202
 0.740000   13.639376   -56.861326
 0.745000   13.371363   -50.290354
 0.750000   13.136473   -43.893988
 0.755000   12.932423   -36.502512
 0.760000   12.771448   -31.985170
 0.765000   12.612572   -31.758556
 0.770000   12.453862   -32.907292
 0.775000   12.283499   -36.298459
 0.780000   12.090877   -41.236499
 0.785000   11.871134   -46.209024
 0.790000   11.628787   -53.790375
 0.795000   11.333230   -63.210850
 0.800000   10.996679   -71.330284
 0.805000   10.619927   -79.335893
 0.810000   10.203320   -86.866841
 0.815000   9.751259   -93.925033
 0.820000   9.264069   -99.838747
 0.825000   8.752871   -104.309812
 0.830000   8.220971   -108.365773
 0.835000   7.669213   -112.123267
 0.840000   7.099739   -114.930601
 0.845000   6.519907   -116.879239
 0.850000   5.930946   -118.247533
 0.855000   5.337432   -119.432395
 0.860000   4.736622   -121.704935
 0.865000   4.120383   -126.231961
 0.870000   3.474303   -133.385995
 0.875000   2.786523   -144.421507
 0.880000   2.030088   -160.661604
 0.885000   1.179907   -183.098083
 0.890000   0.199107   -215.601312
 0.895000   -0.976106   -263.250683
 0.900000   -2.433400   -330.148329
 0.905000   -4.277590   -423.749788
 0.910000   -6.670898   -553.869262
 0.915000   -9.816282   -731.290643
 0.920000   -13.983804   -981.653713
 0.925000   -19.632819   -1348.712718
 0.930000   -27.470932   -1899.424038
 0.935000   -38.627060   -2743.041531
 0.940000   -54.901347   -3994.668922
 0.945000   -78.573749   -5528.893697
 0.950000   -110.190284   -6540.917751
 0.955000   -143.982927   -5540.321073
 0.960000   -165.593495   -2095.664281
 0.965000   -164.939569   1746.353551
 0.970000   -148.129959   3882.986480
 0.975000   -126.109705   4447.250403
 0.980000   -103.657455   4420.577934
 0.985000   -81.903925   4308.066179
 0.990000   -60.576793   4228.576565
 0.995000   -39.618160   3998.825416
 1.000000   -20.588539   3613.022778
201 psinorm omepp() domepp/dpsiN
 0.000000   21.038403   -6.139527
 0.005000   21.004591   -7.385235
 0.010000   20.964550   -8.065261
 0.015000   20.923938   -8.179136
 0.020000   20.882759   -8.292074
 0.025000   20.841017   -8.404070
 0.030000   20.798718   -8.515119
 0.035000   20.755866   -8.625214
 0.040000   20.712466   -8.734352
 0.045000   20.668523   -8.842526
 0.050000   20.624041   -8.949733
 0.055000   20.579025   -9.055966
 0.060000   20.533481   -9.161222
 0.065000   20.487413   -9.265495
 0.070000   20.440826   -9.368782
 0.075000   20.393725   -9.471078
 0.080000   20.346115   -9.572379
 0.085000   20.298002   -9.672681
 0.090000   20.249389   -9.771980
 0.095000   20.200282   -9.870272
 0.100000   20.150686   -9.967553
 0.105000   20.100606   -10.063820
 0.110000   20.050048   -10.159070
 0.115000   19.999016   -10.253298
 0.120000   19.947515   -10.346503
 0.125000   19.895550   -10.438681
 0.130000   19.843128   -10.529828
 0.135000   19.790252   -10.619943
 0.140000   19.736928   -10.709022
 0.145000   19.683162   -10.797063
 0.150000   19.628958   -10.884064
 0.155000   19.574321   -10.970022
 0.160000   19.519258   -11.054935
 0.165000   19.463772   -11.138800
 0.170000   19.407870   -11.221617
 0.175000   19.351556   -11.303383
 0.180000   19.294836   -11.384097
 0.185000   19.237715   -11.463756
 0.190000   19.180198   -11.542360
 0.195000   19.122291   -11.619907
 0.200000   19.063999   -11.696395
 0.205000   19.005327   -11.771825
 0.210000   18.946281   -11.846194
 0.215000   18.886865   -11.919503
 0.220000   18.827086   -11.991749
 0.225000   18.766948   -12.062933
 0.230000   18.706457   -12.133054
 0.235000   18.645617   -12.202112
 0.240000   18.584435   -12.270106
 0.245000   18.522916   -12.337037
 0.250000   18.461065   -12.402904
 0.255000   18.398887   -12.467707
 0.260000   18.336388   -12.531446
 0.265000   18.273573   -12.594122
 0.270000   18.210447   -12.655735
 0.275000   18.147015   -12.716286
 0.280000   18.083284   -12.775776
 0.285000   18.019258   -12.834204
 0.290000   17.954942   -12.891572
 0.295000   17.890342   -12.947881
 0.300000   17.825463   -13.003132
 0.305000   17.760311   -13.057326
 0.310000   17.694890   -13.110464
 0.315000   17.629206   -13.162548
 0.320000   17.563264   -13.213579
 0.325000   17.497070   -13.263559
 0.330000   17.430629   -13.312489
 0.335000   17.363945   -13.360372
 0.340000   17.297025   -13.407209
 0.345000   17.229873   -13.453002
 0.350000   17.162495   -13.497753
 0.355000   17.094896   -13.541465
 0.360000   17.027080   -13.584139
 0.365000   16.959054   -13.625779
 0.370000   16.890823   -13.666386
 0.375000   16.822390   -13.705964
 0.380000   16.753763   -13.744514
 0.385000   16.684945   -13.782040
 0.390000   16.615943   -13.818545
 0.395000   16.546760   -13.854031
 0.400000   16.477402   -13.888502
 0.405000   16.407875   -13.921960
 0.410000   16.338183   -13.954409
 0.415000   16.268331   -13.985852
 0.420000   16.198324   -14.016293
 0.425000   16.128168   -14.045736
 0.430000   16.057867   -14.074182
 0.435000   15.987426   -14.101637
 0.440000   15.916850   -14.128104
 0.445000   15.846145   -14.153587
 0.450000   15.775315   -14.178090
 0.455000   15.704364   -14.201616
 0.460000   15.633298   -14.224171
 0.465000   15.562122   -14.245757
 0.470000   15.490841   -14.266379
 0.475000   15.419459   -14.286042
 0.480000   15.347980   -14.304750
 0.485000   15.276411   -14.322507
 0.490000   15.204755   -14.339317
 0.495000   15.133018   -14.355186
 0.500000   15.061203   -14.370118
 0.505000   14.989317   -14.384118
 0.510000   14.917362   -14.397190
 0.515000   14.845345   -14.409340
 0.520000   14.773269   -14.420572
 0.525000   14.701139   -14.430891
 0.530000   14.628960   -14.440302
 0.535000   14.556736   -14.448811
 0.540000   14.484472   -14.456423
 0.545000   14.412172   -14.463143
 0.550000   14.339840   -14.468975
 0.555000   14.267482   -14.473927
 0.560000   14.195101   -14.478002
 0.565000   14.122702   -14.481207
 0.570000   14.050289   -14.483547
 0.575000   13.977867   -14.485027
 0.580000   13.905439   -14.485654
 0.585000   13.833010   -14.485433
 0.590000   13.760584   -14.484370
 0.595000   13.688166   -14.482470
 0.600000   13.615760   -14.479741
 0.605000   13.543369   -14.476187
 0.610000   13.470998   -14.471815
 0.615000   13.398651   -14.466631
 0.620000   13.326332   -14.460642
 0.625000   13.254044   -14.453853
 0.630000   13.181793   -14.446272
 0.635000   13.109582   -14.437906
 0.640000   13.037414   -14.428762
 0.645000   12.965294   -14.418846
 0.650000   12.893226   -14.408168
 0.655000   12.821212   -14.396735
 0.660000   12.749258   -14.384556
 0.665000   12.677367   -14.371642
 0.670000   12.605542   -14.358003
 0.675000   12.533787   -14.343651
 0.680000   12.462105   -14.328601
 0.685000   12.390501   -14.312868
 0.690000   12.318977   -14.296470
 0.695000   12.247536   -14.279432
 0.700000   12.176182   -14.261778
 0.705000   12.104918   -14.243543
 0.710000   12.033747   -14.224764
 0.715000   11.962671   -14.205492
 0.720000   11.891692   -14.185785
 0.725000   11.820813   -14.165719
 0.730000   11.750035   -14.145384
 0.735000   11.679359   -14.124895
 0.740000   11.608786   -14.104391
 0.745000   11.538315   -14.084046
 0.750000   11.467945   -14.064070
 0.755000   11.397674   -14.044721
 0.760000   11.327498   -14.026308
 0.765000   11.257411   -14.009199
 0.770000   11.187406   -13.993824
 0.775000   11.117473   -13.980677
 0.780000   11.047599   -13.970302
 0.785000   10.977770   -13.963272
 0.790000   10.907967   -13.960139
 0.795000   10.838169   -13.961351
 0.800000   10.768353   -13.967100
 0.805000   10.698498   -13.977088
 0.810000   10.628582   -13.990141
 0.815000   10.558596   -14.003620
 0.820000   10.488546   -14.012512
 0.825000   10.418471   -14.008042
 0.830000   10.348466   -13.975600
 0.835000   10.278715   -13.891637
 0.840000   10.209549   -13.719067
 0.845000   10.141524   -13.400493
 0.850000   10.075544   -12.848267
 0.855000   10.013042   -11.929986
 0.860000   9.956244   -10.447421
 0.865000   9.908567   -8.106003
 0.870000   9.875184   -4.470840
 0.875000   9.863859   1.096514
 0.880000   9.886150   9.528798
 0.885000   9.959147   22.183342
 0.890000   10.107983   41.030298
 0.895000   10.369450   68.928615
 0.900000   10.797269   110.042634
 0.905000   11.469876   170.502038
 0.910000   12.502290   259.518999
 0.915000   14.065066   391.419400
 0.920000   16.416484   589.529554
 0.925000   19.960362   893.576034
 0.930000   25.352244   1372.054751
 0.935000   33.680909   2133.313922
 0.940000   46.685383   3291.294685
 0.945000   66.593856   4749.950248
 0.950000   94.184886   5718.363585
 0.955000   123.777492   4708.208868
 0.960000   141.266974   1308.370567
 0.965000   136.861198   -2434.492035
 0.970000   116.922054   -4405.549654
 0.975000   92.805701   -4681.855321
 0.980000   70.103501   -4211.962147
 0.985000   50.686080   -3473.673851
 0.990000   35.366762   -2650.780889
 0.995000   24.178271   -1888.583754
 1.000000   16.480925   -1190.354752
201 psinorm kpol(km/s/T) dkpol/dpsiN
 0.000000   -0.011480   164.572800
 0.005000   0.643391   97.375782
 0.010000   0.962278   60.098784
 0.015000   1.244379   55.187226
 0.020000   1.514150   53.258035
 0.025000   1.776959   51.935956
 0.030000   2.033509   50.558347
 0.035000   2.282543   49.347833
 0.040000   2.526988   48.345202
 0.045000   2.765995   47.241220
 0.050000   2.999400   46.234536
 0.055000   3.228340   45.465316
 0.060000   3.454053   44.845935
 0.065000   3.676800   44.234388
 0.070000   3.896397   43.532803
 0.075000   4.112128   42.732100
 0.080000   4.323718   41.726071
 0.085000   4.529388   40.362152
 0.090000   4.727339   38.697562
 0.095000   4.916364   36.755158
 0.100000   5.094891   34.831121
 0.105000   5.264675   33.067131
 0.110000   5.425562   31.606237
 0.115000   5.580738   30.686322
 0.120000   5.732426   30.355649
 0.125000   5.884294   30.588767
 0.130000   6.038313   31.106163
 0.135000   6.195356   31.676420
 0.140000   6.355077   32.251933
 0.145000   6.517875   32.728968
 0.150000   6.682367   32.866035
 0.155000   6.846535   32.304168
 0.160000   7.005409   31.328905
 0.165000   7.159824   29.827423
 0.170000   7.303683   27.715741
 0.175000   7.436982   25.072217
 0.180000   7.554405   21.815012
 0.185000   7.655132   18.431498
 0.190000   7.738720   14.849078
 0.195000   7.803623   11.423516
 0.200000   7.852955   8.168160
 0.205000   7.885304   4.947823
 0.210000   7.902434   2.291639
 0.215000   7.908221   -0.012145
 0.220000   7.902312   -2.050621
 0.225000   7.887714   -3.962026
 0.230000   7.862692   -6.011222
 0.235000   7.827602   -7.956382
 0.240000   7.783128   -10.038177
 0.245000   7.727220   -12.194052
 0.250000   7.661187   -14.248294
 0.255000   7.584738   -16.421002
 0.260000   7.496977   -18.462341
 0.265000   7.400114   -20.455002
 0.270000   7.292427   -22.722201
 0.275000   7.172892   -25.017351
 0.280000   7.042254   -27.527448
 0.285000   6.897618   -30.414202
 0.290000   6.738112   -33.450205
 0.295000   6.563116   -36.832018
 0.300000   6.369792   -40.485444
 0.305000   6.158261   -44.125102
 0.310000   5.928541   -47.894304
 0.315000   5.679318   -51.719310
 0.320000   5.411348   -55.323403
 0.325000   5.126084   -58.544909
 0.330000   4.825899   -61.145717
 0.335000   4.514627   -62.971872
 0.340000   4.196180   -64.110453
 0.345000   3.873522   -64.652928
 0.350000   3.549651   -64.573712
 0.355000   3.227785   -64.483584
 0.360000   2.904815   -64.971474
 0.365000   2.578071   -65.900204
 0.370000   2.245813   -67.368878
 0.375000   1.904382   -69.567268
 0.380000   1.550140   -72.679806
 0.385000   1.177584   -76.288035
 0.390000   0.787260   -79.617344
 0.395000   0.381410   -82.410993
 0.400000   -0.036850   -84.524331
 0.405000   -0.463833   -85.808453
 0.410000   -0.894935   -86.239792
 0.415000   -1.326231   -86.640161
 0.420000   -1.761336   -87.994782
 0.425000   -2.206179   -90.628660
 0.430000   -2.667623   -94.639226
 0.435000   -3.152571   -100.053456
 0.440000   -3.668158   -107.278055
 0.445000   -4.225352   -115.031100
 0.450000   -4.818469   -121.875577
 0.455000   -5.444107   -127.745225
 0.460000   -6.095921   -132.141340
 0.465000   -6.765521   -134.503216
 0.470000   -7.440953   -133.607819
 0.475000   -8.101599   -128.701028
 0.480000   -8.727963   -120.538401
 0.485000   -9.306983   -110.093682
 0.490000   -9.828900   -98.031995
 0.495000   -10.287303   -84.860002
 0.500000   -10.677500   -71.333245
 0.505000   -11.000635   -59.043954
 0.510000   -11.267940   -48.738213
 0.515000   -11.488018   -40.169538
 0.520000   -11.669635   -33.223391
 0.525000   -11.820251   -27.827054
 0.530000   -11.947906   -24.374438
 0.535000   -12.063996   -22.279869
 0.540000   -12.170704   -20.526473
 0.545000   -12.269261   -18.978855
 0.550000   -12.360493   -17.507759
 0.555000   -12.444338   -15.913958
 0.560000   -12.519632   -14.118809
 0.565000   -12.585526   -12.316485
 0.570000   -12.642797   -10.419863
 0.575000   -12.689725   -8.321262
 0.580000   -12.726010   -6.261945
 0.585000   -12.752344   -4.304767
 0.590000   -12.769058   -2.376034
 0.595000   -12.776105   -0.525044
 0.600000   -12.774308   1.030705
 0.605000   -12.765798   2.374414
 0.610000   -12.750564   3.609232
 0.615000   -12.729705   4.609006
 0.620000   -12.704474   5.321640
 0.625000   -12.676489   5.914323
 0.630000   -12.645331   6.486098
 0.635000   -12.611628   6.861805
 0.640000   -12.576713   7.120400
 0.645000   -12.540424   7.386156
 0.650000   -12.502851   7.612336
 0.655000   -12.464301   7.662406
 0.660000   -12.426227   7.637563
 0.665000   -12.387925   7.611040
 0.670000   -12.350117   7.458401
 0.675000   -12.313341   7.213653
 0.680000   -12.277980   6.915148
 0.685000   -12.244189   6.585148
 0.690000   -12.212128   6.145230
 0.695000   -12.182737   5.582578
 0.700000   -12.156303   5.000128
 0.705000   -12.132736   4.347001
 0.710000   -12.112833   3.504005
 0.715000   -12.097696   2.561655
 0.720000   -12.087216   1.579459
 0.725000   -12.081901   0.476628
 0.730000   -12.082450   -0.751262
 0.735000   -12.089414   -2.023379
 0.740000   -12.102684   -3.297928
 0.745000   -12.122393   -4.622127
 0.750000   -12.148905   -5.978100
 0.755000   -12.182174   -7.301365
 0.760000   -12.221919   -8.548756
 0.765000   -12.267662   -9.810348
 0.770000   -12.320022   -11.088439
 0.775000   -12.378546   -12.412527
 0.780000   -12.444147   -13.919614
 0.785000   -12.517742   -15.684900
 0.790000   -12.600996   -17.956781
 0.795000   -12.697310   -20.662738
 0.800000   -12.807624   -23.630797
 0.805000   -12.933618   -26.916654
 0.810000   -13.076790   -30.487600
 0.815000   -13.238494   -34.378383
 0.820000   -13.420574   -38.861822
 0.825000   -13.627112   -43.710193
 0.830000   -13.857676   -48.545238
 0.835000   -14.112565   -53.349988
 0.840000   -14.391176   -57.905574
 0.845000   -14.691620   -61.947135
 0.850000   -15.010647   -65.112227
 0.855000   -15.342743   -66.990161
 0.860000   -15.680549   -67.726003
 0.865000   -16.020003   -67.720787
 0.870000   -16.357757   -67.167958
 0.875000   -16.691682   -66.421465
 0.880000   -17.021971   -65.662857
 0.885000   -17.348311   -64.316609
 0.890000   -17.665137   -61.891608
 0.895000   -17.967227   -58.229050
 0.900000   -18.247428   -52.796606
 0.905000   -18.495193   -44.764624
 0.910000   -18.695074   -32.675716
 0.915000   -18.821950   -14.110594
 0.920000   -18.836180   11.821789
 0.925000   -18.703732   44.281278
 0.930000   -18.393367   83.436369
 0.935000   -17.869368   135.530006
 0.940000   -17.038067   197.719274
 0.945000   -15.892176   256.887867
 0.950000   -14.469189   302.364877
 0.955000   -12.868527   314.475655
 0.960000   -11.324432   262.254272
 0.965000   -10.245984   119.673631
 0.970000   -10.127696   -99.006803
 0.975000   -11.236052   -277.277511
 0.980000   -12.900471   -175.963540
 0.985000   -12.995688   426.065396
 0.990000   -8.639817   1453.457101
 0.995000   1.538883   2349.331596
 1.000000   14.853499   2976.514687
201 psinorm omghb() domghb/dpsiN
 0.000000   -0.000102   -0.025640
 0.005000   -0.000348   -0.072801
 0.010000   -0.000830   -0.066174
 0.015000   -0.001010   -0.029507
 0.020000   -0.001125   -0.019105
 0.025000   -0.001201   -0.014875
 0.030000   -0.001274   -0.005205
 0.035000   -0.001253   0.008566
 0.040000   -0.001188   0.018878
 0.045000   -0.001064   0.023912
 0.050000   -0.000949   0.025355
 0.055000   -0.000810   0.026806
 0.060000   -0.000681   0.024669
 0.065000   -0.000564   0.023502
 0.070000   -0.000446   0.044619
 0.075000   -0.000118   0.070196
 0.080000   0.000256   0.078051
 0.085000   0.000663   0.101302
 0.090000   0.001269   0.132507
 0.095000   0.001988   0.157155
 0.100000   0.002841   0.185645
 0.105000   0.003844   0.177391
 0.110000   0.004615   0.148074
 0.115000   0.005325   0.122795
 0.120000   0.005843   0.101224
 0.125000   0.006337   0.076452
 0.130000   0.006607   0.037435
 0.135000   0.006712   0.017620
 0.140000   0.006783   0.040975
 0.145000   0.007122   0.070591
 0.150000   0.007489   0.095659
 0.155000   0.008078   0.127830
 0.160000   0.008767   0.157480
 0.165000   0.009653   0.216777
 0.170000   0.010935   0.267436
 0.175000   0.012327   0.325571
 0.180000   0.014191   0.363579
 0.185000   0.015963   0.387025
 0.190000   0.018061   0.465859
 0.195000   0.020622   0.546474
 0.200000   0.023526   0.570635
 0.205000   0.026328   0.510451
 0.210000   0.028630   0.472853
 0.215000   0.031057   0.475525
 0.220000   0.033386   0.479617
 0.225000   0.035853   0.408968
 0.230000   0.037475   0.325690
 0.235000   0.039110   0.313488
 0.240000   0.040610   0.288580
 0.245000   0.041995   0.253967
 0.250000   0.043150   0.249703
 0.255000   0.044492   0.060896
 0.260000   0.043759   -0.087369
 0.265000   0.043619   -0.035054
 0.270000   0.043408   -0.048789
 0.275000   0.043131   -0.037932
 0.280000   0.043029   -0.045261
 0.285000   0.042678   -0.013058
 0.290000   0.042898   0.105265
 0.295000   0.043731   0.241529
 0.300000   0.045314   0.376657
 0.305000   0.047497   0.522723
 0.310000   0.050541   0.599552
 0.315000   0.053493   0.764128
 0.320000   0.058182   0.853891
 0.325000   0.062032   0.751597
 0.330000   0.065698   0.675833
 0.335000   0.068790   0.525463
 0.340000   0.070953   0.503381
 0.345000   0.073824   0.404771
 0.350000   0.075001   0.226260
 0.355000   0.076087   0.223353
 0.360000   0.077234   0.217352
 0.365000   0.078260   0.231255
 0.370000   0.079547   0.305636
 0.375000   0.081317   0.143444
 0.380000   0.080981   0.040364
 0.385000   0.081720   0.195784
 0.390000   0.082939   0.229467
 0.395000   0.084015   0.164769
 0.400000   0.084587   -0.073560
 0.405000   0.083279   -0.091998
 0.410000   0.083667   0.213083
 0.415000   0.085410   0.414280
 0.420000   0.087809   0.759379
 0.425000   0.093004   1.304423
 0.430000   0.100854   1.640407
 0.435000   0.109408   1.973752
 0.440000   0.120591   2.364516
 0.445000   0.133053   2.476684
 0.450000   0.145358   2.663964
 0.455000   0.159693   2.569895
 0.460000   0.171057   2.032210
 0.465000   0.180015   1.573467
 0.470000   0.186792   1.031096
 0.475000   0.190326   0.385849
 0.480000   0.190650   -0.317140
 0.485000   0.187154   -0.985578
 0.490000   0.180794   -1.393386
 0.495000   0.173221   -1.576071
 0.500000   0.165034   -1.612275
 0.505000   0.157098   -1.514546
 0.510000   0.149888   -1.383344
 0.515000   0.143264   -1.076102
 0.520000   0.139127   -0.703766
 0.525000   0.136227   -0.457032
 0.530000   0.134557   -0.266827
 0.535000   0.133558   -0.176107
 0.540000   0.132796   -0.150817
 0.545000   0.132050   -0.152287
 0.550000   0.131273   -0.196913
 0.555000   0.130081   -0.262459
 0.560000   0.128648   -0.262600
 0.565000   0.127455   -0.254203
 0.570000   0.126106   -0.285557
 0.575000   0.124600   -0.299300
 0.580000   0.123113   -0.266074
 0.585000   0.121939   -0.253467
 0.590000   0.120579   -0.260955
 0.595000   0.119329   -0.239551
 0.600000   0.118183   -0.234156
 0.605000   0.116988   -0.260706
 0.610000   0.115576   -0.280781
 0.615000   0.114180   -0.211676
 0.620000   0.113459   -0.226966
 0.625000   0.111910   -0.285000
 0.630000   0.110609   -0.258924
 0.635000   0.109321   -0.249361
 0.640000   0.108116   -0.230217
 0.645000   0.107019   -0.146550
 0.650000   0.106650   -0.119197
 0.655000   0.105827   -0.105913
 0.660000   0.105591   0.014710
 0.665000   0.105974   0.190283
 0.670000   0.107494   0.483247
 0.675000   0.110806   1.137914
 0.680000   0.118873   1.356640
 0.685000   0.124373   0.970455
 0.690000   0.128578   0.867180
 0.695000   0.133045   0.800184
 0.700000   0.136579   0.625816
 0.705000   0.139303   0.833950
 0.710000   0.144919   0.343540
 0.715000   0.142738   -0.646979
 0.720000   0.138449   -0.817003
 0.725000   0.134568   -0.963646
 0.730000   0.128813   -1.325261
 0.735000   0.121315   -1.722590
 0.740000   0.111587   -2.282220
 0.745000   0.098493   -2.314070
 0.750000   0.088446   -1.828150
 0.755000   0.080212   -1.361462
 0.760000   0.074831   -0.755891
 0.765000   0.072653   -0.360096
 0.770000   0.071231   0.289615
 0.775000   0.075549   1.621869
 0.780000   0.087449   2.230823
 0.785000   0.097857   2.318475
 0.790000   0.110634   2.524528
 0.795000   0.123103   2.490670
 0.800000   0.135541   2.737037
 0.805000   0.150473   2.863272
 0.810000   0.164173   2.398294
 0.815000   0.174456   2.040220
 0.820000   0.184576   1.864429
 0.825000   0.193100   1.630732
 0.830000   0.200883   1.513844
 0.835000   0.208239   1.037823
 0.840000   0.211261   0.586024
 0.845000   0.214099   0.503919
 0.850000   0.216300   0.370558
 0.855000   0.217804   0.382944
 0.860000   0.220130   0.741935
 0.865000   0.225224   0.967694
 0.870000   0.229807   1.342853
 0.875000   0.238652   2.236161
 0.880000   0.252168   3.146705
 0.885000   0.270119   4.134023
 0.890000   0.293509   6.195111
 0.895000   0.332070   8.008932
 0.900000   0.373598   9.657037
 0.905000   0.428641   12.257107
 0.910000   0.496169   14.726510
 0.915000   0.575906   17.001968
 0.920000   0.666189   22.467740
 0.925000   0.800583   25.242803
 0.930000   0.918617   25.946693
 0.935000   1.060050   28.916021
 0.940000   1.207777   29.987002
 0.945000   1.359920   26.580850
 0.950000   1.473585   23.639263
 0.955000   1.596313   0.323356
 0.960000   1.476819   -33.165192
 0.965000   1.264661   -52.926703
 0.970000   0.947552   -79.456422
 0.975000   0.470097   -125.048391
 0.980000   -0.302932   -201.079411
 0.985000   -1.540697   -280.889774
 0.990000   -3.111830   -270.993531
 0.995000   -4.250633   -96.043175
 1.000000   -4.072262   167.391637
201 psinorm nz1(10^20/m^3) dnz1/dpsiN
 0.000000   0.018175   -0.000000
 0.005000   0.018175   -0.000001
 0.010000   0.018175   -0.000001
 0.015000   0.018175   -0.000003
 0.020000   0.018175   -0.000006
 0.025000   0.018175   -0.000011
 0.030000   0.018175   -0.000018
 0.035000   0.018175   -0.000029
 0.040000   0.018175   -0.000043
 0.045000   0.018174   -0.000062
 0.050000   0.018174   -0.000084
 0.055000   0.018173   -0.000112
 0.060000   0.018173   -0.000145
 0.065000   0.018172   -0.000183
 0.070000   0.018171   -0.000227
 0.075000   0.018170   -0.000278
 0.080000   0.018168   -0.000334
 0.085000   0.018166   -0.000397
 0.090000   0.018164   -0.000467
 0.095000   0.018162   -0.000543
 0.100000   0.018159   -0.000626
 0.105000   0.018155   -0.000716
 0.110000   0.018152   -0.000813
 0.115000   0.018147   -0.000916
 0.120000   0.018142   -0.001026
 0.125000   0.018137   -0.001142
 0.130000   0.018131   -0.001265
 0.135000   0.018124   -0.001394
 0.140000   0.018117   -0.001529
 0.145000   0.018109   -0.001669
 0.150000   0.018100   -0.001815
 0.155000   0.018091   -0.001966
 0.160000   0.018081   -0.002120
 0.165000   0.018070   -0.002276
 0.170000   0.018058   -0.002435
 0.175000   0.018045   -0.002595
 0.180000   0.018032   -0.002755
 0.185000   0.018018   -0.002914
 0.190000   0.018003   -0.003071
 0.195000   0.017987   -0.003225
 0.200000   0.017971   -0.003376
 0.205000   0.017953   -0.003523
 0.210000   0.017935   -0.003667
 0.215000   0.017917   -0.003808
 0.220000   0.017897   -0.003947
 0.225000   0.017877   -0.004088
 0.230000   0.017856   -0.004229
 0.235000   0.017835   -0.004370
 0.240000   0.017813   -0.004507
 0.245000   0.017790   -0.004640
 0.250000   0.017766   -0.004767
 0.255000   0.017742   -0.004888
 0.260000   0.017718   -0.004996
 0.265000   0.017692   -0.005087
 0.270000   0.017667   -0.005160
 0.275000   0.017641   -0.005214
 0.280000   0.017614   -0.005248
 0.285000   0.017588   -0.005257
 0.290000   0.017562   -0.005239
 0.295000   0.017536   -0.005197
 0.300000   0.017510   -0.005130
 0.305000   0.017485   -0.005040
 0.310000   0.017460   -0.004927
 0.315000   0.017435   -0.004790
 0.320000   0.017412   -0.004637
 0.325000   0.017389   -0.004477
 0.330000   0.017367   -0.004309
 0.335000   0.017346   -0.004135
 0.340000   0.017326   -0.003956
 0.345000   0.017306   -0.003773
 0.350000   0.017288   -0.003585
 0.355000   0.017270   -0.003384
 0.360000   0.017254   -0.003167
 0.365000   0.017239   -0.002932
 0.370000   0.017225   -0.002677
 0.375000   0.017212   -0.002403
 0.380000   0.017201   -0.002110
 0.385000   0.017191   -0.001799
 0.390000   0.017183   -0.001474
 0.395000   0.017176   -0.001139
 0.400000   0.017171   -0.000797
 0.405000   0.017168   -0.000452
 0.410000   0.017167   -0.000110
 0.415000   0.017167   0.000226
 0.420000   0.017169   0.000551
 0.425000   0.017173   0.000865
 0.430000   0.017178   0.001164
 0.435000   0.017184   0.001447
 0.440000   0.017192   0.001717
 0.445000   0.017201   0.001977
 0.450000   0.017212   0.002230
 0.455000   0.017224   0.002475
 0.460000   0.017237   0.002714
 0.465000   0.017251   0.002946
 0.470000   0.017266   0.003170
 0.475000   0.017282   0.003375
 0.480000   0.017300   0.003556
 0.485000   0.017318   0.003710
 0.490000   0.017337   0.003832
 0.495000   0.017356   0.003917
 0.500000   0.017376   0.003959
 0.505000   0.017396   0.003956
 0.510000   0.017416   0.003904
 0.515000   0.017435   0.003806
 0.520000   0.017454   0.003662
 0.525000   0.017472   0.003472
 0.530000   0.017488   0.003239
 0.535000   0.017504   0.002968
 0.540000   0.017518   0.002665
 0.545000   0.017531   0.002329
 0.550000   0.017541   0.001961
 0.555000   0.017550   0.001562
 0.560000   0.017557   0.001132
 0.565000   0.017562   0.000671
 0.570000   0.017564   0.000176
 0.575000   0.017563   -0.000355
 0.580000   0.017560   -0.000922
 0.585000   0.017554   -0.001525
 0.590000   0.017545   -0.002161
 0.595000   0.017532   -0.002825
 0.600000   0.017517   -0.003512
 0.605000   0.017497   -0.004219
 0.610000   0.017474   -0.004941
 0.615000   0.017448   -0.005673
 0.620000   0.017418   -0.006412
 0.625000   0.017384   -0.007156
 0.630000   0.017346   -0.007907
 0.635000   0.017305   -0.008662
 0.640000   0.017260   -0.009418
 0.645000   0.017211   -0.010174
 0.650000   0.017158   -0.010931
 0.655000   0.017101   -0.011689
 0.660000   0.017041   -0.012447
 0.665000   0.016977   -0.013207
 0.670000   0.016909   -0.013992
 0.675000   0.016837   -0.014849
 0.680000   0.016760   -0.015902
 0.685000   0.016678   -0.017225
 0.690000   0.016588   -0.018764
 0.695000   0.016490   -0.020493
 0.700000   0.016383   -0.022403
 0.705000   0.016266   -0.024456
 0.710000   0.016139   -0.026701
 0.715000   0.015999   -0.029019
 0.720000   0.015848   -0.031157
 0.725000   0.015688   -0.033059
 0.730000   0.015518   -0.034685
 0.735000   0.015341   -0.035942
 0.740000   0.015158   -0.036754
 0.745000   0.014973   -0.036988
 0.750000   0.014789   -0.036587
 0.755000   0.014607   -0.035638
 0.760000   0.014432   -0.034215
 0.765000   0.014265   -0.032394
 0.770000   0.014108   -0.030210
 0.775000   0.013963   -0.027767
 0.780000   0.013831   -0.025351
 0.785000   0.013710   -0.023090
 0.790000   0.013600   -0.020962
 0.795000   0.013500   -0.019004
 0.800000   0.013410   -0.017227
 0.805000   0.013328   -0.015660
 0.810000   0.013253   -0.014327
 0.815000   0.013184   -0.013140
 0.820000   0.013122   -0.012002
 0.825000   0.013064   -0.010880
 0.830000   0.013013   -0.009764
 0.835000   0.012967   -0.008659
 0.840000   0.012926   -0.007573
 0.845000   0.012891   -0.006513
 0.850000   0.012861   -0.005486
 0.855000   0.012836   -0.004500
 0.860000   0.012816   -0.003564
 0.865000   0.012801   -0.002689
 0.870000   0.012789   -0.001892
 0.875000   0.012782   -0.001187
 0.880000   0.012777   -0.000570
 0.885000   0.012776   -0.000040
 0.890000   0.012777   0.000403
 0.895000   0.012780   0.000765
 0.900000   0.012785   0.001024
 0.905000   0.012790   0.001106
 0.910000   0.012796   0.000865
 0.915000   0.012799   0.000023
 0.920000   0.012796   -0.001920
 0.925000   0.012780   -0.005988
 0.930000   0.012736   -0.013647
 0.935000   0.012643   -0.026744
 0.940000   0.012469   -0.047484
 0.945000   0.012168   -0.077650
 0.950000   0.011692   -0.117335
 0.955000   0.010995   -0.164973
 0.960000   0.010042   -0.212221
 0.965000   0.008873   -0.246363
 0.970000   0.007579   -0.258751
 0.975000   0.006285   -0.246796
 0.980000   0.005111   -0.215609
 0.985000   0.004129   -0.175146
 0.990000   0.003359   -0.134944
 0.995000   0.002780   -0.101389
 1.000000   0.002345   -0.072350
201 psinorm vtor1(km/s) dvtor1/dpsiN
 0.000000   124.748340   610.220718
 0.005000   127.116028   336.854414
 0.010000   128.116885   176.231399
 0.015000   128.878342   139.179970
 0.020000   129.508684   117.667870
 0.025000   130.055021   103.780959
 0.030000   130.546494   93.940424
 0.035000   130.994425   85.632879
 0.040000   131.402823   78.643395
 0.045000   131.780859   73.077862
 0.050000   132.133601   68.208072
 0.055000   132.462940   63.675299
 0.060000   132.770354   59.669747
 0.065000   133.059637   56.185983
 0.070000   133.332214   52.907781
 0.075000   133.588715   49.844517
 0.080000   133.830659   47.092984
 0.085000   134.059645   44.505739
 0.090000   134.275717   41.945287
 0.095000   134.479098   39.506420
 0.100000   134.670781   37.216814
 0.105000   134.851266   34.915567
 0.110000   135.019936   32.597278
 0.115000   135.177239   30.334820
 0.120000   135.323285   28.114059
 0.125000   135.458379   25.801605
 0.130000   135.581301   23.415104
 0.135000   135.692530   21.053641
 0.140000   135.791837   18.598586
 0.145000   135.878516   15.999545
 0.150000   135.951833   13.337873
 0.155000   136.011895   10.629325
 0.160000   136.058126   7.736917
 0.165000   136.089264   4.697791
 0.170000   136.105104   1.621860
 0.175000   136.105483   -1.510145
 0.180000   136.090002   -4.721399
 0.185000   136.058269   -7.959639
 0.190000   136.010406   -11.196994
 0.195000   135.946299   -14.440696
 0.200000   135.865999   -17.604547
 0.205000   135.770253   -20.614901
 0.210000   135.659850   -23.455503
 0.215000   135.535698   -26.105334
 0.220000   135.398797   -28.448070
 0.225000   135.251218   -30.325655
 0.230000   135.095540   -31.886830
 0.235000   134.932349   -33.236408
 0.240000   134.763176   -34.281343
 0.245000   134.589536   -35.045936
 0.250000   134.412717   -35.547147
 0.255000   134.234064   -35.641002
 0.260000   134.056307   -35.591441
 0.265000   133.878150   -35.644413
 0.270000   133.699862   -35.663613
 0.275000   133.521514   -35.694073
 0.280000   133.342922   -35.801115
 0.285000   133.163503   -36.061492
 0.290000   132.982307   -36.708420
 0.295000   132.796418   -37.817766
 0.300000   132.604129   -39.266768
 0.305000   132.403751   -41.007163
 0.310000   132.194057   -42.937610
 0.315000   131.974375   -45.079635
 0.320000   131.743261   -47.314364
 0.325000   131.501231   -49.506919
 0.330000   131.248192   -51.710783
 0.335000   130.984123   -53.901544
 0.340000   130.709177   -56.063559
 0.345000   130.423488   -58.217028
 0.350000   130.127006   -60.251498
 0.355000   129.820973   -62.083929
 0.360000   129.506167   -63.750016
 0.365000   129.183473   -65.231851
 0.370000   128.853848   -66.521499
 0.375000   128.518258   -67.564635
 0.380000   128.178202   -68.314624
 0.385000   127.835111   -68.820547
 0.390000   127.489997   -69.125906
 0.395000   127.143852   -69.235661
 0.400000   126.797640   -69.143873
 0.405000   126.452413   -68.765382
 0.410000   126.109986   -68.341530
 0.415000   125.768998   -68.406862
 0.420000   125.425918   -69.276017
 0.425000   125.076238   -71.135927
 0.430000   124.714558   -74.118445
 0.435000   124.335054   -78.566181
 0.440000   123.928896   -84.491488
 0.445000   123.490139   -91.192448
 0.450000   123.016972   -98.393319
 0.455000   122.506206   -106.166398
 0.460000   121.955308   -114.380623
 0.465000   121.362399   -123.288157
 0.470000   120.722426   -132.676595
 0.475000   120.035633   -141.351369
 0.480000   119.308913   -149.008038
 0.485000   118.545553   -155.869316
 0.490000   117.750220   -161.690987
 0.495000   116.928643   -166.332057
 0.500000   116.086899   -169.506531
 0.505000   115.233578   -171.153957
 0.510000   114.375359   -171.841924
 0.515000   113.515159   -172.000805
 0.520000   112.655351   -171.720565
 0.525000   111.797953   -171.037999
 0.530000   110.944971   -169.932658
 0.535000   110.098626   -168.485495
 0.540000   109.260116   -166.800871
 0.545000   108.430618   -164.894981
 0.550000   107.611167   -162.812440
 0.555000   106.802493   -160.602398
 0.560000   106.005143   -158.280197
 0.565000   105.219691   -155.969948
 0.570000   104.445443   -153.759884
 0.575000   103.682092   -151.619374
 0.580000   102.929249   -149.578438
 0.585000   102.186308   -147.667398
 0.590000   101.452576   -145.902140
 0.595000   100.727287   -144.100729
 0.600000   100.011568   -142.080897
 0.605000   99.306478   -139.864810
 0.610000   98.612920   -137.492427
 0.615000   97.931553   -135.004201
 0.620000   97.262878   -132.297290
 0.625000   96.608580   -129.547355
 0.630000   95.967405   -126.984396
 0.635000   95.338737   -124.569994
 0.640000   94.721705   -122.347305
 0.645000   94.115263   -120.355559
 0.650000   93.518149   -118.531799
 0.655000   92.929945   -117.108880
 0.660000   92.347060   -116.334668
 0.665000   91.766599   -116.126405
 0.670000   91.185796   -116.482184
 0.675000   90.601777   -117.422499
 0.680000   90.011571   -118.960636
 0.685000   89.412171   -120.721440
 0.690000   88.804357   -122.233905
 0.695000   88.189832   -123.476544
 0.700000   87.569591   -124.570749
 0.705000   86.944124   -125.613490
 0.710000   86.313456   -126.581063
 0.715000   85.678313   -127.541424
 0.720000   85.038042   -128.655940
 0.725000   84.391754   -129.911786
 0.730000   83.738924   -131.274587
 0.735000   83.079008   -132.753789
 0.740000   82.411386   -134.335985
 0.745000   81.735648   -136.124838
 0.750000   81.050138   -138.404503
 0.755000   80.351603   -141.502641
 0.760000   79.635112   -145.750199
 0.765000   78.894101   -151.411366
 0.770000   78.120998   -158.945557
 0.775000   77.304646   -168.308504
 0.780000   76.437913   -178.005618
 0.785000   75.524590   -187.198764
 0.790000   74.565925   -195.994151
 0.795000   73.564648   -204.117530
 0.800000   72.524750   -211.595175
 0.805000   71.448696   -218.716205
 0.810000   70.337588   -225.041748
 0.815000   69.198279   -230.377231
 0.820000   68.033816   -234.969119
 0.825000   66.848588   -238.546983
 0.830000   65.648346   -241.032520
 0.835000   64.438262   -242.495111
 0.840000   63.223395   -241.841542
 0.845000   62.019847   -238.803306
 0.850000   60.835362   -234.606461
 0.855000   59.673782   -230.116898
 0.860000   58.534193   -226.491885
 0.865000   57.408864   -225.674963
 0.870000   56.277443   -227.683131
 0.875000   55.132032   -232.366660
 0.880000   53.953776   -241.545381
 0.885000   52.716578   -256.846385
 0.890000   51.385313   -280.188321
 0.895000   49.914695   -314.713148
 0.900000   48.238181   -360.557486
 0.905000   46.309120   -416.902948
 0.910000   44.069152   -484.048103
 0.915000   41.468639   -559.274095
 0.920000   38.476411   -637.892195
 0.925000   35.089717   -713.826744
 0.930000   31.338143   -777.246213
 0.935000   27.317255   -818.037341
 0.940000   23.157770   -829.397893
 0.945000   19.023276   -806.585531
 0.950000   15.091915   -749.033797
 0.955000   11.532938   -658.768207
 0.960000   8.504232   -545.776607
 0.965000   6.075172   -423.822874
 0.970000   4.266004   -302.324884
 0.975000   3.051923   -189.606810
 0.980000   2.369936   -91.988919
 0.985000   2.132034   -13.467263
 0.990000   2.235263   44.083744
 0.995000   2.572872   81.698086
 1.000000   3.052244   110.050789
201 psinorm vpol1(km/s) dvpol1/dpsiN
 0.000000   -0.000086   5.691406
 0.005000   0.030160   6.407031
 0.010000   0.063984   7.119141
 0.015000   0.101352   7.811719
 0.020000   0.142102   8.456641
 0.025000   0.185918   9.044531
 0.030000   0.232547   9.544922
 0.035000   0.281367   9.962500
 0.040000   0.332172   10.333594
 0.045000   0.384703   10.656250
 0.050000   0.438734   10.944531
 0.055000   0.494148   11.216406
 0.060000   0.550898   11.476172
 0.065000   0.608910   11.716406
 0.070000   0.668063   11.916406
 0.075000   0.728074   12.061719
 0.080000   0.788680   12.149219
 0.085000   0.849566   12.153906
 0.090000   0.910219   12.048828
 0.095000   0.970055   11.864844
 0.100000   1.028867   11.654688
 0.105000   1.086602   11.439453
 0.110000   1.143262   11.262891
 0.115000   1.199230   11.179688
 0.120000   1.255059   11.218359
 0.125000   1.311414   11.367187
 0.130000   1.368730   11.576562
 0.135000   1.427180   11.812500
 0.140000   1.486855   12.044531
 0.145000   1.547625   12.255469
 0.150000   1.609410   12.377734
 0.155000   1.671402   12.343359
 0.160000   1.732844   12.178906
 0.165000   1.793191   11.866016
 0.170000   1.851504   11.401172
 0.175000   1.907203   10.757031
 0.180000   1.959074   9.950000
 0.185000   2.006703   9.056641
 0.190000   2.049641   8.109766
 0.195000   2.087801   7.152344
 0.200000   2.121164   6.207813
 0.205000   2.149879   5.287891
 0.210000   2.174043   4.465625
 0.215000   2.194535   3.753516
 0.220000   2.211578   3.078516
 0.225000   2.225320   2.421484
 0.230000   2.235793   1.758984
 0.235000   2.242910   1.069922
 0.240000   2.246492   0.352344
 0.245000   2.246434   -0.384766
 0.250000   2.242645   -1.132812
 0.255000   2.235105   -1.883984
 0.260000   2.223805   -2.632031
 0.265000   2.208785   -3.384766
 0.270000   2.189957   -4.176172
 0.275000   2.167023   -5.032422
 0.280000   2.139633   -5.958203
 0.285000   2.107441   -6.964063
 0.290000   2.069992   -8.071875
 0.295000   2.026723   -9.284766
 0.300000   1.977145   -10.566406
 0.305000   1.921059   -11.892578
 0.310000   1.858219   -13.255078
 0.315000   1.788508   -14.627734
 0.320000   1.711941   -15.971094
 0.325000   1.628797   -17.187891
 0.330000   1.540063   -18.199609
 0.335000   1.446801   -18.991016
 0.340000   1.350152   -19.550391
 0.345000   1.251297   -19.902344
 0.350000   1.151129   -20.068750
 0.355000   1.050609   -20.218750
 0.360000   0.948941   -20.538672
 0.365000   0.845223   -21.016016
 0.370000   0.738781   -21.665625
 0.375000   0.628566   -22.543750
 0.380000   0.513344   -23.739062
 0.385000   0.391176   -25.102344
 0.390000   0.262320   -26.369922
 0.395000   0.127477   -27.467187
 0.400000   -0.012352   -28.338281
 0.405000   -0.155906   -28.930078
 0.410000   -0.301652   -29.231250
 0.415000   -0.448219   -29.514844
 0.420000   -0.596801   -30.122266
 0.425000   -0.749441   -31.164453
 0.430000   -0.908445   -32.667187
 0.435000   -1.076113   -34.658594
 0.440000   -1.255031   -37.291016
 0.445000   -1.449023   -40.092969
 0.450000   -1.655961   -42.593359
 0.455000   -1.874957   -44.792969
 0.460000   -2.103891   -46.469531
 0.465000   -2.339652   -47.432031
 0.470000   -2.578211   -47.287500
 0.475000   -2.812527   -45.742969
 0.480000   -3.035641   -43.018359
 0.485000   -3.242711   -39.490234
 0.490000   -3.430543   -35.407812
 0.495000   -3.596789   -30.865234
 0.500000   -3.739195   -26.166016
 0.505000   -3.858449   -21.923828
 0.510000   -3.958434   -18.337109
 0.515000   -4.041820   -15.314453
 0.520000   -4.111578   -12.874609
 0.525000   -4.170566   -10.999609
 0.530000   -4.221574   -9.749609
 0.535000   -4.268063   -8.974609
 0.540000   -4.311320   -8.370703
 0.545000   -4.351770   -7.810547
 0.550000   -4.389426   -7.249609
 0.555000   -4.424266   -6.669141
 0.560000   -4.456117   -6.040625
 0.565000   -4.484672   -5.357422
 0.570000   -4.509691   -4.637500
 0.575000   -4.531047   -3.893359
 0.580000   -4.548625   -3.139844
 0.585000   -4.562445   -2.394531
 0.590000   -4.572570   -1.678906
 0.595000   -4.579234   -1.015234
 0.600000   -4.582723   -0.416797
 0.605000   -4.583402   0.111719
 0.610000   -4.581605   0.563281
 0.615000   -4.577770   0.938281
 0.620000   -4.572223   1.238672
 0.625000   -4.565383   1.484375
 0.630000   -4.557379   1.694531
 0.635000   -4.548438   1.859375
 0.640000   -4.538785   1.993359
 0.645000   -4.528504   2.104688
 0.650000   -4.517738   2.192578
 0.655000   -4.506578   2.247266
 0.660000   -4.495266   2.272656
 0.665000   -4.483852   2.266797
 0.670000   -4.472598   2.226953
 0.675000   -4.461582   2.170313
 0.680000   -4.450895   2.082031
 0.685000   -4.440762   1.965234
 0.690000   -4.431242   1.826953
 0.695000   -4.422492   1.650000
 0.700000   -4.414742   1.446875
 0.705000   -4.408023   1.212891
 0.710000   -4.402613   0.929297
 0.715000   -4.398730   0.607813
 0.720000   -4.396535   0.251563
 0.725000   -4.396215   -0.142578
 0.730000   -4.397961   -0.571484
 0.735000   -4.401930   -1.023438
 0.740000   -4.408195   -1.487891
 0.745000   -4.416809   -1.961719
 0.750000   -4.427812   -2.442578
 0.755000   -4.441234   -2.921094
 0.760000   -4.457023   -3.377344
 0.765000   -4.475008   -3.829297
 0.770000   -4.495316   -4.286719
 0.775000   -4.517875   -4.771094
 0.780000   -4.543027   -5.322266
 0.785000   -4.571098   -5.962109
 0.790000   -4.602648   -6.788672
 0.795000   -4.638984   -7.780469
 0.800000   -4.680453   -8.866797
 0.805000   -4.727652   -10.067188
 0.810000   -4.781125   -11.374609
 0.815000   -4.841398   -12.802734
 0.820000   -4.909152   -14.445703
 0.825000   -4.985855   -16.221484
 0.830000   -5.071367   -17.996484
 0.835000   -5.165820   -19.763281
 0.840000   -5.269000   -21.433203
 0.845000   -5.380152   -22.914453
 0.850000   -5.498145   -24.082031
 0.855000   -5.620973   -24.779297
 0.860000   -5.745938   -25.043359
 0.865000   -5.871406   -25.035938
 0.870000   -5.996297   -24.842188
 0.875000   -6.119828   -24.571094
 0.880000   -6.242008   -24.273047
 0.885000   -6.362559   -23.764453
 0.890000   -6.479652   -22.881250
 0.895000   -6.591371   -21.525781
 0.900000   -6.694910   -19.491406
 0.905000   -6.786285   -16.519141
 0.910000   -6.860102   -12.085156
 0.915000   -6.907137   -5.533594
 0.920000   -6.915438   3.509375
 0.925000   -6.872043   15.228516
 0.930000   -6.763152   29.657031
 0.935000   -6.575473   47.251172
 0.940000   -6.290641   68.132031
 0.945000   -5.894152   90.017578
 0.950000   -5.390465   107.876562
 0.955000   -4.815387   113.226172
 0.960000   -4.258203   94.368750
 0.965000   -3.871699   41.257812
 0.970000   -3.845625   -41.537109
 0.975000   -4.287070   -108.475000
 0.980000   -4.930375   -68.344141
 0.985000   -4.970512   162.338281
 0.990000   -3.306992   555.998047
 0.995000   0.589469   899.038281
 1.000000   5.683391   1138.530469
3 N Z A of ION SPECIES
 6.000000   6.000000   12.010700
 1.000000   1.000000   2.000000
 1.000000   1.000000   2.000000
