201 psinorm ne(10^20/m^3) dne/dpsiN
 0.000000   0.731930   -0.376889
 0.005000   0.730048   -0.375922
 0.010000   0.728171   -0.374956
 0.015000   0.726299   -0.373993
 0.020000   0.724431   -0.373033
 0.025000   0.722568   -0.372074
 0.030000   0.720710   -0.371118
 0.035000   0.718857   -0.370165
 0.040000   0.717009   -0.369214
 0.045000   0.715165   -0.368266
 0.050000   0.713326   -0.367320
 0.055000   0.711492   -0.366376
 0.060000   0.709662   -0.365435
 0.065000   0.707837   -0.364496
 0.070000   0.706017   -0.363560
 0.075000   0.704202   -0.362626
 0.080000   0.702391   -0.361694
 0.085000   0.700585   -0.360765
 0.090000   0.698783   -0.359838
 0.095000   0.696987   -0.358914
 0.100000   0.695194   -0.357992
 0.105000   0.693407   -0.357072
 0.110000   0.691624   -0.356155
 0.115000   0.689845   -0.355240
 0.120000   0.688071   -0.354327
 0.125000   0.686302   -0.353417
 0.130000   0.684537   -0.352509
 0.135000   0.682777   -0.351603
 0.140000   0.681021   -0.350700
 0.145000   0.679270   -0.349799
 0.150000   0.677523   -0.348901
 0.155000   0.675781   -0.348004
 0.160000   0.674043   -0.347110
 0.165000   0.672310   -0.346218
 0.170000   0.670581   -0.345329
 0.175000   0.668856   -0.344442
 0.180000   0.667136   -0.343557
 0.185000   0.665421   -0.342674
 0.190000   0.663710   -0.341794
 0.195000   0.662003   -0.340916
 0.200000   0.660300   -0.340040
 0.205000   0.658602   -0.339166
 0.210000   0.656909   -0.338295
 0.215000   0.655219   -0.337426
 0.220000   0.653535   -0.336559
 0.225000   0.651854   -0.335694
 0.230000   0.650178   -0.334832
 0.235000   0.648506   -0.333972
 0.240000   0.646838   -0.333114
 0.245000   0.645174   -0.332258
 0.250000   0.643515   -0.331404
 0.255000   0.641860   -0.330553
 0.260000   0.640210   -0.329704
 0.265000   0.638563   -0.328857
 0.270000   0.636921   -0.328012
 0.275000   0.635283   -0.327169
 0.280000   0.633649   -0.326328
 0.285000   0.632020   -0.325490
 0.290000   0.630395   -0.324654
 0.295000   0.628773   -0.323820
 0.300000   0.627156   -0.322988
 0.305000   0.625544   -0.322158
 0.310000   0.623935   -0.321330
 0.315000   0.622330   -0.320505
 0.320000   0.620730   -0.319681
 0.325000   0.619133   -0.318860
 0.330000   0.617541   -0.318041
 0.335000   0.615953   -0.317223
 0.340000   0.614369   -0.316408
 0.345000   0.612789   -0.315595
 0.350000   0.611213   -0.314785
 0.355000   0.609641   -0.313976
 0.360000   0.608073   -0.313169
 0.365000   0.606509   -0.312364
 0.370000   0.604950   -0.311562
 0.375000   0.603394   -0.310761
 0.380000   0.601842   -0.309963
 0.385000   0.600294   -0.309167
 0.390000   0.598750   -0.308372
 0.395000   0.597210   -0.307580
 0.400000   0.595675   -0.306790
 0.405000   0.594143   -0.306001
 0.410000   0.592614   -0.305215
 0.415000   0.591090   -0.304431
 0.420000   0.589570   -0.303649
 0.425000   0.588054   -0.302869
 0.430000   0.586541   -0.302090
 0.435000   0.585033   -0.301314
 0.440000   0.583528   -0.300540
 0.445000   0.582028   -0.299768
 0.450000   0.580531   -0.298998
 0.455000   0.579038   -0.298229
 0.460000   0.577548   -0.297463
 0.465000   0.576063   -0.296699
 0.470000   0.574581   -0.295936
 0.475000   0.573104   -0.295176
 0.480000   0.571630   -0.294418
 0.485000   0.570159   -0.293661
 0.490000   0.568693   -0.292906
 0.495000   0.567230   -0.292154
 0.500000   0.565771   -0.291403
 0.505000   0.564316   -0.290654
 0.510000   0.562865   -0.289908
 0.515000   0.561417   -0.289163
 0.520000   0.559973   -0.288420
 0.525000   0.558533   -0.287679
 0.530000   0.557097   -0.286939
 0.535000   0.555664   -0.286202
 0.540000   0.554235   -0.285467
 0.545000   0.552809   -0.284733
 0.550000   0.551387   -0.284002
 0.555000   0.549969   -0.283272
 0.560000   0.548554   -0.282544
 0.565000   0.547144   -0.281818
 0.570000   0.545736   -0.281094
 0.575000   0.544333   -0.280371
 0.580000   0.542933   -0.279651
 0.585000   0.541536   -0.278932
 0.590000   0.540143   -0.278216
 0.595000   0.538754   -0.277501
 0.600000   0.537368   -0.276788
 0.605000   0.535986   -0.276076
 0.610000   0.534607   -0.275367
 0.615000   0.533232   -0.274659
 0.620000   0.531861   -0.273953
 0.625000   0.530493   -0.273249
 0.630000   0.529128   -0.272547
 0.635000   0.527767   -0.271847
 0.640000   0.526410   -0.271148
 0.645000   0.525056   -0.270451
 0.650000   0.523705   -0.269756
 0.655000   0.522358   -0.269062
 0.660000   0.521015   -0.268370
 0.665000   0.519675   -0.267680
 0.670000   0.518338   -0.266991
 0.675000   0.517005   -0.266303
 0.680000   0.515675   -0.265617
 0.685000   0.514349   -0.264932
 0.690000   0.513026   -0.264248
 0.695000   0.511706   -0.263565
 0.700000   0.510390   -0.262882
 0.705000   0.509077   -0.262199
 0.710000   0.507768   -0.261515
 0.715000   0.506462   -0.260830
 0.720000   0.505160   -0.260142
 0.725000   0.503861   -0.259451
 0.730000   0.502565   -0.258754
 0.735000   0.501273   -0.258049
 0.740000   0.499985   -0.257333
 0.745000   0.498700   -0.256602
 0.750000   0.497419   -0.255852
 0.755000   0.496141   -0.255074
 0.760000   0.494868   -0.254260
 0.765000   0.493599   -0.253398
 0.770000   0.492334   -0.252473
 0.775000   0.491074   -0.251465
 0.780000   0.489819   -0.250349
 0.785000   0.488571   -0.249090
 0.790000   0.487328   -0.247644
 0.795000   0.486094   -0.245957
 0.800000   0.484869   -0.243954
 0.805000   0.483655   -0.241543
 0.810000   0.482453   -0.238603
 0.815000   0.481269   -0.234983
 0.820000   0.480104   -0.230488
 0.825000   0.478964   -0.224872
 0.830000   0.477855   -0.217826
 0.835000   0.476785   -0.208963
 0.840000   0.475765   -0.197803
 0.845000   0.474807   -0.183758
 0.850000   0.473928   -0.166114
 0.855000   0.473146   -0.144015
 0.860000   0.472488   -0.116465
 0.865000   0.471982   -0.082333
 0.870000   0.471664   -0.040389
 0.875000   0.471578   0.010602
 0.880000   0.471770   0.071709
 0.885000   0.472295   0.143529
 0.890000   0.473205   0.225660
 0.895000   0.474551   0.315839
 0.900000   0.476364   0.408586
 0.905000   0.478637   0.493165
 0.910000   0.481296   0.550705
 0.915000   0.484144   0.550558
 0.920000   0.486801   0.446605
 0.925000   0.488610   0.175563
 0.930000   0.488557   -0.338441
 0.935000   0.485226   -1.166730
 0.940000   0.476889   -2.341438
 0.945000   0.461812   -3.808655
 0.950000   0.438803   -5.394717
 0.955000   0.407864   -6.825314
 0.960000   0.370550   -7.815978
 0.965000   0.329705   -8.192875
 0.970000   0.288621   -7.961696
 0.975000   0.250088   -7.278605
 0.980000   0.215835   -6.357563
 0.985000   0.186512   -5.384623
 0.990000   0.161989   -4.479158
 0.995000   0.141720   -3.696581
 1.000000   0.125023   -2.982408
201 psinorm te(KeV) dte/dpsiN
 0.000000   3.475495   -0.805226
 0.005000   3.471383   -0.839422
 0.010000   3.467101   -0.873553
 0.015000   3.462648   -0.907552
 0.020000   3.458025   -0.941415
 0.025000   3.453234   -0.975136
 0.030000   3.448274   -1.008711
 0.035000   3.443147   -1.042135
 0.040000   3.437853   -1.075402
 0.045000   3.432393   -1.108509
 0.050000   3.426767   -1.141450
 0.055000   3.420978   -1.174220
 0.060000   3.415025   -1.206815
 0.065000   3.408910   -1.239230
 0.070000   3.402633   -1.271461
 0.075000   3.396195   -1.303503
 0.080000   3.389598   -1.335351
 0.085000   3.382842   -1.367001
 0.090000   3.375928   -1.398449
 0.095000   3.368857   -1.429690
 0.100000   3.361631   -1.460720
 0.105000   3.354250   -1.491535
 0.110000   3.346716   -1.522130
 0.115000   3.339029   -1.552501
 0.120000   3.331191   -1.582645
 0.125000   3.323202   -1.612557
 0.130000   3.315065   -1.642233
 0.135000   3.306780   -1.671669
 0.140000   3.298348   -1.700861
 0.145000   3.289771   -1.729806
 0.150000   3.281050   -1.758500
 0.155000   3.272186   -1.786939
 0.160000   3.263181   -1.815119
 0.165000   3.254035   -1.843037
 0.170000   3.244751   -1.870690
 0.175000   3.235328   -1.898074
 0.180000   3.225770   -1.925185
 0.185000   3.216076   -1.952020
 0.190000   3.206250   -1.978576
 0.195000   3.196291   -2.004851
 0.200000   3.186201   -2.030839
 0.205000   3.175982   -2.056540
 0.210000   3.165636   -2.081949
 0.215000   3.155163   -2.107064
 0.220000   3.144565   -2.131882
 0.225000   3.133844   -2.156400
 0.230000   3.123001   -2.180615
 0.235000   3.112038   -2.204526
 0.240000   3.100956   -2.228128
 0.245000   3.089757   -2.251420
 0.250000   3.078442   -2.274400
 0.255000   3.067013   -2.297065
 0.260000   3.055471   -2.319412
 0.265000   3.043818   -2.341440
 0.270000   3.032057   -2.363146
 0.275000   3.020187   -2.384529
 0.280000   3.008211   -2.405586
 0.285000   2.996131   -2.426315
 0.290000   2.983948   -2.446716
 0.295000   2.971664   -2.466785
 0.300000   2.959280   -2.486521
 0.305000   2.946799   -2.505923
 0.310000   2.934221   -2.524988
 0.315000   2.921549   -2.543717
 0.320000   2.908784   -2.562107
 0.325000   2.895928   -2.580156
 0.330000   2.882982   -2.597864
 0.335000   2.869949   -2.615230
 0.340000   2.856830   -2.632252
 0.345000   2.843627   -2.648929
 0.350000   2.830341   -2.665261
 0.355000   2.816974   -2.681247
 0.360000   2.803528   -2.696885
 0.365000   2.790005   -2.712176
 0.370000   2.776407   -2.727117
 0.375000   2.762734   -2.741710
 0.380000   2.748989   -2.755953
 0.385000   2.735174   -2.769846
 0.390000   2.721291   -2.783389
 0.395000   2.707341   -2.796581
 0.400000   2.693325   -2.809422
 0.405000   2.679246   -2.821912
 0.410000   2.665106   -2.834051
 0.415000   2.650906   -2.845839
 0.420000   2.636648   -2.857276
 0.425000   2.622333   -2.868362
 0.430000   2.607964   -2.879097
 0.435000   2.593542   -2.889482
 0.440000   2.579069   -2.899518
 0.445000   2.564547   -2.909203
 0.450000   2.549977   -2.918540
 0.455000   2.535362   -2.927528
 0.460000   2.520702   -2.936169
 0.465000   2.506000   -2.944462
 0.470000   2.491257   -2.952409
 0.475000   2.476476   -2.960010
 0.480000   2.461657   -2.967267
 0.485000   2.446803   -2.974180
 0.490000   2.431915   -2.980751
 0.495000   2.416996   -2.986980
 0.500000   2.402046   -2.992868
 0.505000   2.387067   -2.998418
 0.510000   2.372061   -3.003629
 0.515000   2.357031   -3.008504
 0.520000   2.341976   -3.013044
 0.525000   2.326900   -3.017250
 0.530000   2.311804   -3.021123
 0.535000   2.296689   -3.024666
 0.540000   2.281557   -3.027880
 0.545000   2.266410   -3.030767
 0.550000   2.251250   -3.033328
 0.555000   2.236077   -3.035565
 0.560000   2.220894   -3.037480
 0.565000   2.205702   -3.039075
 0.570000   2.190503   -3.040352
 0.575000   2.175299   -3.041313
 0.580000   2.160090   -3.041960
 0.585000   2.144879   -3.042294
 0.590000   2.129667   -3.042319
 0.595000   2.114456   -3.042036
 0.600000   2.099247   -3.041448
 0.605000   2.084041   -3.040556
 0.610000   2.068841   -3.039363
 0.615000   2.053648   -3.037872
 0.620000   2.038462   -3.036085
 0.625000   2.023287   -3.034004
 0.630000   2.008122   -3.031632
 0.635000   1.992970   -3.028971
 0.640000   1.977833   -3.026023
 0.645000   1.962710   -3.022792
 0.650000   1.947605   -3.019280
 0.655000   1.932517   -3.015489
 0.660000   1.917450   -3.011422
 0.665000   1.902403   -3.007082
 0.670000   1.887379   -3.002471
 0.675000   1.872379   -2.997591
 0.680000   1.857403   -2.992446
 0.685000   1.842454   -2.987037
 0.690000   1.827533   -2.981368
 0.695000   1.812640   -2.975440
 0.700000   1.797778   -2.969256
 0.705000   1.782948   -2.962818
 0.710000   1.768150   -2.956128
 0.715000   1.753387   -2.949187
 0.720000   1.738658   -2.941998
 0.725000   1.723967   -2.934562
 0.730000   1.709313   -2.926879
 0.735000   1.694698   -2.918951
 0.740000   1.680123   -2.910777
 0.745000   1.665590   -2.902358
 0.750000   1.651100   -2.893692
 0.755000   1.636653   -2.884778
 0.760000   1.622252   -2.875614
 0.765000   1.607897   -2.866198
 0.770000   1.593590   -2.856526
 0.775000   1.579332   -2.846596
 0.780000   1.565124   -2.836403
 0.785000   1.550968   -2.825945
 0.790000   1.536864   -2.815220
 0.795000   1.522815   -2.804229
 0.800000   1.508822   -2.792976
 0.805000   1.494886   -2.781475
 0.810000   1.481007   -2.769747
 0.815000   1.467188   -2.757833
 0.820000   1.453429   -2.745796
 0.825000   1.439730   -2.733737
 0.830000   1.426092   -2.721806
 0.835000   1.412512   -2.710228
 0.840000   1.398989   -2.699332
 0.845000   1.385519   -2.689592
 0.850000   1.372093   -2.681688
 0.855000   1.358702   -2.676581
 0.860000   1.345328   -2.675629
 0.865000   1.331946   -2.680726
 0.870000   1.318520   -2.694512
 0.875000   1.305001   -2.720633
 0.880000   1.291314   -2.764107
 0.885000   1.277360   -2.831794
 0.890000   1.262996   -2.933006
 0.895000   1.248029   -3.080286
 0.900000   1.232193   -3.290347
 0.905000   1.215126   -3.585156
 0.910000   1.196342   -3.993041
 0.915000   1.175196   -4.549555
 0.920000   1.150846   -5.297561
 0.925000   1.122220   -6.285548
 0.930000   1.087991   -7.562610
 0.935000   1.046594   -9.167828
 0.940000   0.996312   -11.111611
 0.945000   0.935478   -13.347812
 0.950000   0.862834   -15.739982
 0.955000   0.778078   -18.034340
 0.960000   0.682491   -19.863997
 0.965000   0.579438   -20.813401
 0.970000   0.474357   -20.551459
 0.975000   0.373923   -18.988904
 0.980000   0.284468   -16.363426
 0.985000   0.210289   -13.171828
 0.990000   0.152750   -9.972519
 0.995000   0.110564   -7.184139
 1.000000   0.080908   -4.678180
201 psinorm ni(10^20/m^3) dni/dpsiN
 0.000000   0.424080   -0.481094
 0.005000   0.421805   -0.429257
 0.010000   0.419788   -0.383514
 0.015000   0.417969   -0.346559
 0.020000   0.416322   -0.313734
 0.025000   0.414832   -0.283922
 0.030000   0.413483   -0.257011
 0.035000   0.412262   -0.232849
 0.040000   0.411155   -0.211411
 0.045000   0.410148   -0.191976
 0.050000   0.409235   -0.174750
 0.055000   0.408400   -0.159735
 0.060000   0.407637   -0.146254
 0.065000   0.406938   -0.134272
 0.070000   0.406295   -0.123952
 0.075000   0.405698   -0.115037
 0.080000   0.405144   -0.107205
 0.085000   0.404626   -0.100668
 0.090000   0.404138   -0.095233
 0.095000   0.403674   -0.090723
 0.100000   0.403231   -0.087151
 0.105000   0.402802   -0.084352
 0.110000   0.402387   -0.082230
 0.115000   0.401980   -0.080909
 0.120000   0.401578   -0.080294
 0.125000   0.401177   -0.080262
 0.130000   0.400775   -0.080770
 0.135000   0.400370   -0.081793
 0.140000   0.399957   -0.083361
 0.145000   0.399536   -0.085388
 0.150000   0.399103   -0.087709
 0.155000   0.398659   -0.090325
 0.160000   0.398200   -0.093257
 0.165000   0.397726   -0.096481
 0.170000   0.397235   -0.099973
 0.175000   0.396727   -0.103679
 0.180000   0.396199   -0.107530
 0.185000   0.395651   -0.111553
 0.190000   0.395083   -0.116037
 0.195000   0.394491   -0.120614
 0.200000   0.393877   -0.124916
 0.205000   0.393242   -0.129167
 0.210000   0.392585   -0.133373
 0.215000   0.391908   -0.137540
 0.220000   0.391210   -0.141669
 0.225000   0.390491   -0.145912
 0.230000   0.389751   -0.150477
 0.235000   0.388986   -0.155015
 0.240000   0.388201   -0.159406
 0.245000   0.387392   -0.163936
 0.250000   0.386561   -0.168617
 0.255000   0.385706   -0.173588
 0.260000   0.384825   -0.178974
 0.265000   0.383917   -0.184401
 0.270000   0.382981   -0.189726
 0.275000   0.382019   -0.195144
 0.280000   0.381030   -0.200648
 0.285000   0.380013   -0.206489
 0.290000   0.378965   -0.212265
 0.295000   0.377890   -0.217627
 0.300000   0.376789   -0.222852
 0.305000   0.375662   -0.227941
 0.310000   0.374509   -0.232967
 0.315000   0.373332   -0.237691
 0.320000   0.372132   -0.241983
 0.325000   0.370912   -0.246034
 0.330000   0.369672   -0.249978
 0.335000   0.368412   -0.253797
 0.340000   0.367134   -0.257379
 0.345000   0.365839   -0.260784
 0.350000   0.364526   -0.264092
 0.355000   0.363198   -0.267350
 0.360000   0.361853   -0.270430
 0.365000   0.360493   -0.273258
 0.370000   0.359120   -0.275898
 0.375000   0.357734   -0.278357
 0.380000   0.356337   -0.280570
 0.385000   0.354929   -0.282476
 0.390000   0.353512   -0.284100
 0.395000   0.352088   -0.285448
 0.400000   0.350657   -0.286496
 0.405000   0.349223   -0.287212
 0.410000   0.347785   -0.287621
 0.415000   0.346346   -0.287756
 0.420000   0.344908   -0.287629
 0.425000   0.343470   -0.287236
 0.430000   0.342035   -0.286577
 0.435000   0.340604   -0.285662
 0.440000   0.339179   -0.284487
 0.445000   0.337760   -0.283010
 0.450000   0.336349   -0.281193
 0.455000   0.334948   -0.279020
 0.460000   0.333558   -0.276467
 0.465000   0.332183   -0.273523
 0.470000   0.330823   -0.270177
 0.475000   0.329481   -0.266421
 0.480000   0.328159   -0.262271
 0.485000   0.326858   -0.257748
 0.490000   0.325582   -0.252875
 0.495000   0.324330   -0.247690
 0.500000   0.323105   -0.242242
 0.505000   0.321907   -0.236568
 0.510000   0.320739   -0.230690
 0.515000   0.319600   -0.224639
 0.520000   0.318493   -0.218443
 0.525000   0.317416   -0.212133
 0.530000   0.316371   -0.205730
 0.535000   0.315359   -0.199180
 0.540000   0.314379   -0.192453
 0.545000   0.313434   -0.185564
 0.550000   0.312524   -0.178496
 0.555000   0.311649   -0.171241
 0.560000   0.310811   -0.163826
 0.565000   0.310011   -0.156307
 0.570000   0.309248   -0.148730
 0.575000   0.308524   -0.141121
 0.580000   0.307837   -0.133505
 0.585000   0.307189   -0.125907
 0.590000   0.306578   -0.118333
 0.595000   0.306005   -0.110753
 0.600000   0.305470   -0.103153
 0.605000   0.304974   -0.095537
 0.610000   0.304515   -0.087895
 0.615000   0.304095   -0.080222
 0.620000   0.303713   -0.072485
 0.625000   0.303370   -0.064781
 0.630000   0.303065   -0.057216
 0.635000   0.302798   -0.049787
 0.640000   0.302567   -0.042501
 0.645000   0.302373   -0.035384
 0.650000   0.302213   -0.028054
 0.655000   0.302092   -0.019742
 0.660000   0.302016   -0.009941
 0.665000   0.301993   0.001569
 0.670000   0.302032   0.014761
 0.675000   0.302140   0.029452
 0.680000   0.302326   0.046426
 0.685000   0.302605   0.064608
 0.690000   0.302972   0.081940
 0.695000   0.303424   0.098393
 0.700000   0.303956   0.113751
 0.705000   0.304562   0.127451
 0.710000   0.305231   0.139293
 0.715000   0.305955   0.147960
 0.720000   0.306710   0.152263
 0.725000   0.307477   0.152659
 0.730000   0.308237   0.149444
 0.735000   0.308972   0.142755
 0.740000   0.309664   0.132218
 0.745000   0.310294   0.118029
 0.750000   0.310845   0.102161
 0.755000   0.311315   0.085890
 0.760000   0.311704   0.069522
 0.765000   0.312011   0.053664
 0.770000   0.312240   0.038468
 0.775000   0.312395   0.024639
 0.780000   0.312487   0.013522
 0.785000   0.312530   0.005035
 0.790000   0.312537   -0.001551
 0.795000   0.312515   -0.006556
 0.800000   0.312471   -0.010432
 0.805000   0.312411   -0.013715
 0.810000   0.312334   -0.016632
 0.815000   0.312244   -0.018941
 0.820000   0.312145   -0.020292
 0.825000   0.312041   -0.020364
 0.830000   0.311941   -0.018800
 0.835000   0.311853   -0.015259
 0.840000   0.311789   -0.009270
 0.845000   0.311761   -0.000101
 0.850000   0.311788   0.013251
 0.855000   0.311893   0.032028
 0.860000   0.312108   0.057656
 0.865000   0.312470   0.092003
 0.870000   0.313028   0.136052
 0.875000   0.313830   0.190587
 0.880000   0.314934   0.257252
 0.885000   0.316403   0.337241
 0.890000   0.318306   0.430925
 0.895000   0.320712   0.538797
 0.900000   0.323694   0.655678
 0.905000   0.327269   0.771656
 0.910000   0.331411   0.872425
 0.915000   0.335993   0.931512
 0.920000   0.340726   0.908565
 0.925000   0.345079   0.757661
 0.930000   0.348302   0.411512
 0.935000   0.349194   -0.198248
 0.940000   0.346320   -1.092333
 0.945000   0.338271   -2.218100
 0.950000   0.324139   -3.421743
 0.955000   0.304053   -4.457113
 0.960000   0.279568   -5.131564
 0.965000   0.252737   -5.375240
 0.970000   0.225815   -5.221447
 0.975000   0.200523   -4.805358
 0.980000   0.177762   -4.274435
 0.985000   0.157779   -3.731390
 0.990000   0.140448   -3.228771
 0.995000   0.125491   -2.781876
 1.000000   0.112629   -2.362811
201 psinorm ti(KeV) dti/dpsiN
 0.000000   4.749902   0.004361
 0.005000   4.749456   -0.182749
 0.010000   4.748075   -0.376397
 0.015000   4.745692   -0.582757
 0.020000   4.742247   -0.800896
 0.025000   4.737683   -1.029425
 0.030000   4.731953   -1.266486
 0.035000   4.725019   -1.509835
 0.040000   4.716855   -1.755653
 0.045000   4.707462   -2.001577
 0.050000   4.696839   -2.246310
 0.055000   4.684999   -2.487161
 0.060000   4.671967   -2.722183
 0.065000   4.657777   -2.950036
 0.070000   4.642467   -3.167604
 0.075000   4.626101   -3.376165
 0.080000   4.608705   -3.578470
 0.085000   4.590316   -3.772996
 0.090000   4.570975   -3.959586
 0.095000   4.550721   -4.138814
 0.100000   4.529587   -4.310055
 0.105000   4.507620   -4.475097
 0.110000   4.484836   -4.636326
 0.115000   4.461257   -4.793070
 0.120000   4.436906   -4.944996
 0.125000   4.411807   -5.091825
 0.130000   4.385987   -5.232466
 0.135000   4.359482   -5.365607
 0.140000   4.332331   -5.490709
 0.145000   4.304575   -5.607588
 0.150000   4.276255   -5.715926
 0.155000   4.247416   -5.815353
 0.160000   4.218102   -5.905088
 0.165000   4.188365   -5.984521
 0.170000   4.158257   -6.054830
 0.175000   4.127817   -6.117925
 0.180000   4.097077   -6.175174
 0.185000   4.066065   -6.227699
 0.190000   4.034800   -6.276574
 0.195000   4.003299   -6.322730
 0.200000   3.971573   -6.364803
 0.205000   3.939651   -6.401661
 0.210000   3.907556   -6.433742
 0.215000   3.875314   -6.460781
 0.220000   3.842949   -6.483231
 0.225000   3.810481   -6.501744
 0.230000   3.777931   -6.512387
 0.235000   3.745357   -6.512747
 0.240000   3.712804   -6.504038
 0.245000   3.680317   -6.485621
 0.250000   3.647948   -6.457114
 0.255000   3.615746   -6.417710
 0.260000   3.583770   -6.366026
 0.265000   3.552086   -6.302565
 0.270000   3.520745   -6.228701
 0.275000   3.489799   -6.145008
 0.280000   3.459295   -6.052231
 0.285000   3.429276   -5.950602
 0.290000   3.399789   -5.845882
 0.295000   3.370818   -5.742487
 0.300000   3.342364   -5.639220
 0.305000   3.314425   -5.536619
 0.310000   3.286998   -5.435104
 0.315000   3.260074   -5.336317
 0.320000   3.233634   -5.240203
 0.325000   3.207672   -5.145210
 0.330000   3.182182   -5.051211
 0.335000   3.157160   -4.957971
 0.340000   3.132603   -4.865192
 0.345000   3.108508   -4.774886
 0.350000   3.084854   -4.683297
 0.355000   3.061675   -4.584749
 0.360000   3.039006   -4.479304
 0.365000   3.016882   -4.366648
 0.370000   2.995340   -4.246894
 0.375000   2.974413   -4.118514
 0.380000   2.954155   -3.982496
 0.385000   2.934588   -3.843251
 0.390000   2.915722   -3.702950
 0.395000   2.897559   -3.563033
 0.400000   2.880092   -3.425304
 0.405000   2.863306   -3.288706
 0.410000   2.847205   -3.156355
 0.415000   2.831742   -3.033236
 0.420000   2.816872   -2.918002
 0.425000   2.802562   -2.809547
 0.430000   2.788777   -2.708225
 0.435000   2.775480   -2.613506
 0.440000   2.762642   -2.526975
 0.445000   2.750210   -2.450703
 0.450000   2.738135   -2.383440
 0.455000   2.726376   -2.323900
 0.460000   2.714896   -2.271371
 0.465000   2.703662   -2.224870
 0.470000   2.692647   -2.182121
 0.475000   2.681841   -2.140787
 0.480000   2.671239   -2.100978
 0.485000   2.660831   -2.063666
 0.490000   2.650603   -2.029377
 0.495000   2.640537   -1.998584
 0.500000   2.630617   -1.971584
 0.505000   2.620821   -1.948287
 0.510000   2.611134   -1.928534
 0.515000   2.601536   -1.912299
 0.520000   2.592011   -1.899498
 0.525000   2.582541   -1.890097
 0.530000   2.573110   -1.884093
 0.535000   2.563700   -1.881141
 0.540000   2.554299   -1.881002
 0.545000   2.544890   -1.883700
 0.550000   2.535461   -1.889099
 0.555000   2.525999   -1.897070
 0.560000   2.516491   -1.907483
 0.565000   2.506924   -1.920088
 0.570000   2.497290   -1.935027
 0.575000   2.487574   -1.952928
 0.580000   2.477761   -1.974385
 0.585000   2.467830   -1.999990
 0.590000   2.457761   -2.031461
 0.595000   2.447516   -2.067872
 0.600000   2.437082   -2.107484
 0.605000   2.426441   -2.150733
 0.610000   2.415575   -2.197269
 0.615000   2.404468   -2.246692
 0.620000   2.393108   -2.300645
 0.625000   2.381462   -2.356345
 0.630000   2.369544   -2.410830
 0.635000   2.357353   -2.465767
 0.640000   2.344887   -2.520955
 0.645000   2.332144   -2.576000
 0.650000   2.319127   -2.631560
 0.655000   2.305828   -2.685187
 0.660000   2.292275   -2.734032
 0.665000   2.278488   -2.778171
 0.670000   2.264493   -2.816838
 0.675000   2.250320   -2.849558
 0.680000   2.235997   -2.875282
 0.685000   2.221567   -2.894866
 0.690000   2.207049   -2.910507
 0.695000   2.192462   -2.922396
 0.700000   2.177825   -2.930489
 0.705000   2.163157   -2.935157
 0.710000   2.148473   -2.935218
 0.715000   2.133805   -2.932177
 0.720000   2.119152   -2.929504
 0.725000   2.104510   -2.927429
 0.730000   2.089877   -2.926659
 0.735000   2.075243   -2.929593
 0.740000   2.060581   -2.940686
 0.745000   2.045836   -2.965353
 0.750000   2.030928   -3.001738
 0.755000   2.015819   -3.044446
 0.760000   2.000483   -3.091055
 0.765000   1.984908   -3.139406
 0.770000   1.969089   -3.189928
 0.775000   1.953009   -3.241468
 0.780000   1.936675   -3.287848
 0.785000   1.920130   -3.328309
 0.790000   1.903391   -3.366513
 0.795000   1.886465   -3.404446
 0.800000   1.869347   -3.446542
 0.805000   1.852000   -3.497991
 0.810000   1.834367   -3.554836
 0.815000   1.816451   -3.613257
 0.820000   1.798235   -3.674874
 0.825000   1.779703   -3.739198
 0.830000   1.760843   -3.808231
 0.835000   1.741620   -3.892001
 0.840000   1.721923   -3.994244
 0.845000   1.701678   -4.114809
 0.850000   1.680774   -4.257209
 0.855000   1.659106   -4.420133
 0.860000   1.636573   -4.604264
 0.865000   1.613063   -4.822816
 0.870000   1.588345   -5.061813
 0.875000   1.562445   -5.309015
 0.880000   1.535255   -5.580083
 0.885000   1.506644   -5.879927
 0.890000   1.476456   -6.215586
 0.895000   1.444488   -6.622050
 0.900000   1.410235   -7.076471
 0.905000   1.373724   -7.549035
 0.910000   1.334745   -8.060440
 0.915000   1.293119   -8.601640
 0.920000   1.248728   -9.157354
 0.925000   1.201546   -9.739747
 0.930000   1.151331   -10.287094
 0.935000   1.098675   -10.732562
 0.940000   1.044005   -11.080876
 0.945000   0.987866   -11.307921
 0.950000   0.930926   -11.392369
 0.955000   0.873942   -11.332512
 0.960000   0.817601   -11.121211
 0.965000   0.762730   -10.755219
 0.970000   0.710049   -10.249396
 0.975000   0.660236   -9.612764
 0.980000   0.613921   -8.859045
 0.985000   0.571646   -8.003983
 0.990000   0.533881   -7.071761
 0.995000   0.500928   -6.096675
 1.000000   0.472914   -5.108822
201 psinorm nb(10^20/m^3) dnb/dpsiN
 0.000000   0.055911   0.104178
 0.005000   0.056318   0.058405
 0.010000   0.056495   0.018793
 0.015000   0.056505   -0.011907
 0.020000   0.056376   -0.038378
 0.025000   0.056122   -0.061768
 0.030000   0.055758   -0.082225
 0.035000   0.055299   -0.099941
 0.040000   0.054759   -0.115001
 0.045000   0.054149   -0.128159
 0.050000   0.053477   -0.139223
 0.055000   0.052757   -0.148228
 0.060000   0.051995   -0.155877
 0.065000   0.051198   -0.162224
 0.070000   0.050373   -0.167137
 0.075000   0.049527   -0.170851
 0.080000   0.048664   -0.173654
 0.085000   0.047791   -0.175363
 0.090000   0.046911   -0.176179
 0.095000   0.046029   -0.176283
 0.100000   0.045148   -0.175668
 0.105000   0.044272   -0.174490
 0.110000   0.043403   -0.172838
 0.115000   0.042544   -0.170607
 0.120000   0.041697   -0.167899
 0.125000   0.040865   -0.164835
 0.130000   0.040049   -0.161452
 0.135000   0.039250   -0.157773
 0.140000   0.038471   -0.153781
 0.145000   0.037712   -0.149574
 0.150000   0.036975   -0.145321
 0.155000   0.036259   -0.141023
 0.160000   0.035565   -0.136661
 0.165000   0.034893   -0.132260
 0.170000   0.034242   -0.127838
 0.175000   0.033614   -0.123444
 0.180000   0.033008   -0.119145
 0.185000   0.032423   -0.114902
 0.190000   0.031859   -0.110401
 0.195000   0.031319   -0.105940
 0.200000   0.030799   -0.101824
 0.205000   0.030300   -0.097826
 0.210000   0.029821   -0.093949
 0.215000   0.029361   -0.090198
 0.220000   0.028919   -0.086574
 0.225000   0.028495   -0.082917
 0.230000   0.028090   -0.079149
 0.235000   0.027704   -0.075702
 0.240000   0.027333   -0.072662
 0.245000   0.026977   -0.069763
 0.250000   0.026635   -0.067005
 0.255000   0.026307   -0.064261
 0.260000   0.025993   -0.061450
 0.265000   0.025693   -0.058920
 0.270000   0.025404   -0.056753
 0.275000   0.025125   -0.054720
 0.280000   0.024856   -0.052793
 0.285000   0.024597   -0.050725
 0.290000   0.024349   -0.048815
 0.295000   0.024109   -0.047292
 0.300000   0.023876   -0.045870
 0.305000   0.023650   -0.044504
 0.310000   0.023431   -0.043087
 0.315000   0.023219   -0.041839
 0.320000   0.023013   -0.040856
 0.325000   0.022811   -0.039950
 0.330000   0.022613   -0.039042
 0.335000   0.022420   -0.038173
 0.340000   0.022231   -0.037476
 0.345000   0.022046   -0.036897
 0.350000   0.021863   -0.036363
 0.355000   0.021682   -0.035816
 0.360000   0.021504   -0.035350
 0.365000   0.021329   -0.035015
 0.370000   0.021154   -0.034717
 0.375000   0.020981   -0.034422
 0.380000   0.020810   -0.034168
 0.385000   0.020640   -0.033988
 0.390000   0.020470   -0.033840
 0.395000   0.020301   -0.033701
 0.400000   0.020133   -0.033583
 0.405000   0.019965   -0.033504
 0.410000   0.019798   -0.033444
 0.415000   0.019631   -0.033392
 0.420000   0.019464   -0.033345
 0.425000   0.019298   -0.033310
 0.430000   0.019131   -0.033285
 0.435000   0.018965   -0.033265
 0.440000   0.018798   -0.033244
 0.445000   0.018632   -0.033226
 0.450000   0.018466   -0.033215
 0.455000   0.018300   -0.033205
 0.460000   0.018134   -0.033198
 0.465000   0.017968   -0.033189
 0.470000   0.017802   -0.033180
 0.475000   0.017636   -0.033172
 0.480000   0.017470   -0.033163
 0.485000   0.017305   -0.033154
 0.490000   0.017139   -0.033145
 0.495000   0.016973   -0.033133
 0.500000   0.016808   -0.033117
 0.505000   0.016642   -0.033097
 0.510000   0.016477   -0.033074
 0.515000   0.016311   -0.033052
 0.520000   0.016146   -0.033028
 0.525000   0.015981   -0.033000
 0.530000   0.015816   -0.032971
 0.535000   0.015651   -0.032948
 0.540000   0.015487   -0.032926
 0.545000   0.015322   -0.032902
 0.550000   0.015158   -0.032881
 0.555000   0.014993   -0.032867
 0.560000   0.014829   -0.032858
 0.565000   0.014665   -0.032853
 0.570000   0.014500   -0.032856
 0.575000   0.014336   -0.032867
 0.580000   0.014172   -0.032885
 0.585000   0.014007   -0.032910
 0.590000   0.013843   -0.032948
 0.595000   0.013678   -0.033001
 0.600000   0.013513   -0.033055
 0.605000   0.013347   -0.033109
 0.610000   0.013182   -0.033179
 0.615000   0.013015   -0.033278
 0.620000   0.012849   -0.033390
 0.625000   0.012682   -0.033498
 0.630000   0.012514   -0.033613
 0.635000   0.012345   -0.033737
 0.640000   0.012176   -0.033892
 0.645000   0.012007   -0.034056
 0.650000   0.011836   -0.034206
 0.655000   0.011664   -0.034363
 0.660000   0.011492   -0.034527
 0.665000   0.011319   -0.034725
 0.670000   0.011145   -0.034935
 0.675000   0.010970   -0.035130
 0.680000   0.010794   -0.035330
 0.685000   0.010617   -0.035538
 0.690000   0.010438   -0.035761
 0.695000   0.010259   -0.035998
 0.700000   0.010078   -0.036220
 0.705000   0.009897   -0.036423
 0.710000   0.009714   -0.036622
 0.715000   0.009531   -0.036816
 0.720000   0.009346   -0.037016
 0.725000   0.009160   -0.037214
 0.730000   0.008974   -0.037385
 0.735000   0.008787   -0.037534
 0.740000   0.008598   -0.037670
 0.745000   0.008410   -0.037791
 0.750000   0.008221   -0.037897
 0.755000   0.008031   -0.037991
 0.760000   0.007841   -0.038065
 0.765000   0.007650   -0.038115
 0.770000   0.007460   -0.038151
 0.775000   0.007269   -0.038175
 0.780000   0.007078   -0.038186
 0.785000   0.006887   -0.038184
 0.790000   0.006696   -0.038164
 0.795000   0.006505   -0.038130
 0.800000   0.006315   -0.038081
 0.805000   0.006124   -0.038014
 0.810000   0.005934   -0.037929
 0.815000   0.005745   -0.037828
 0.820000   0.005556   -0.037711
 0.825000   0.005368   -0.037577
 0.830000   0.005180   -0.037428
 0.835000   0.004994   -0.037252
 0.840000   0.004808   -0.037056
 0.845000   0.004623   -0.036851
 0.850000   0.004439   -0.036628
 0.855000   0.004257   -0.036390
 0.860000   0.004076   -0.036136
 0.865000   0.003895   -0.035864
 0.870000   0.003717   -0.035584
 0.875000   0.003540   -0.035315
 0.880000   0.003364   -0.035065
 0.885000   0.003189   -0.034831
 0.890000   0.003015   -0.034604
 0.895000   0.002843   -0.034376
 0.900000   0.002672   -0.034131
 0.905000   0.002502   -0.033838
 0.910000   0.002333   -0.033462
 0.915000   0.002167   -0.032963
 0.920000   0.002004   -0.032286
 0.925000   0.001844   -0.031386
 0.930000   0.001690   -0.030240
 0.935000   0.001542   -0.028898
 0.940000   0.001401   -0.027535
 0.945000   0.001266   -0.026464
 0.950000   0.001136   -0.026036
 0.955000   0.001006   -0.026327
 0.960000   0.000873   -0.026861
 0.965000   0.000737   -0.026787
 0.970000   0.000605   -0.025384
 0.975000   0.000484   -0.022509
 0.980000   0.000380   -0.018849
 0.985000   0.000295   -0.015521
 0.990000   0.000225   -0.013359
 0.995000   0.000162   -0.012635
 1.000000   0.000098   -0.012629
201 psinorm pb(KPa) dpb/dpsiN
 0.000000   22.478334   35.479364
 0.005000   22.607854   16.328701
 0.010000   22.641621   0.106392
 0.015000   22.608918   -11.906685
 0.020000   22.522554   -22.054522
 0.025000   22.388372   -30.976122
 0.030000   22.212793   -38.684193
 0.035000   22.001531   -45.300193
 0.040000   21.759791   -50.916311
 0.045000   21.492367   -55.791157
 0.050000   21.201879   -59.815999
 0.055000   20.894207   -63.038153
 0.060000   20.571498   -65.773451
 0.065000   20.236473   -68.016109
 0.070000   19.891336   -69.711816
 0.075000   19.539355   -70.957008
 0.080000   19.181766   -71.855609
 0.085000   18.820799   -72.336638
 0.090000   18.458400   -72.480908
 0.095000   18.095990   -72.356878
 0.100000   17.734831   -71.963916
 0.105000   17.376350   -71.386360
 0.110000   17.020968   -70.641455
 0.115000   16.669936   -69.652575
 0.120000   16.324442   -68.474701
 0.125000   15.985189   -67.165411
 0.130000   15.652788   -65.739732
 0.135000   15.327792   -64.201837
 0.140000   15.010769   -62.527930
 0.145000   14.702512   -60.768937
 0.150000   14.403080   -59.021201
 0.155000   14.112300   -57.276677
 0.160000   13.830313   -55.511741
 0.165000   13.557183   -53.736074
 0.170000   13.292953   -51.957433
 0.175000   13.037609   -50.196712
 0.180000   12.790985   -48.491017
 0.185000   12.552698   -46.816982
 0.190000   12.322816   -45.032818
 0.195000   12.102370   -43.257131
 0.200000   11.890244   -41.617211
 0.205000   11.686198   -40.025344
 0.210000   11.489991   -38.483172
 0.215000   11.301366   -36.993262
 0.220000   11.120058   -35.552329
 0.225000   10.945843   -34.085639
 0.230000   10.779202   -32.575966
 0.235000   10.620083   -31.208204
 0.240000   10.467120   -30.005808
 0.245000   10.320025   -28.859851
 0.250000   10.178521   -27.769146
 0.255000   10.042334   -26.686429
 0.260000   9.911657   -25.580740
 0.265000   9.786526   -24.582738
 0.270000   9.665830   -23.724282
 0.275000   9.549284   -22.920748
 0.280000   9.436622   -22.160475
 0.285000   9.327679   -21.345896
 0.290000   9.223163   -20.587199
 0.295000   9.121807   -19.975659
 0.300000   9.023407   -19.403723
 0.305000   8.927770   -18.854114
 0.310000   8.834865   -18.287308
 0.315000   8.744897   -17.784973
 0.320000   8.657016   -17.382741
 0.325000   8.571069   -17.011320
 0.330000   8.486902   -16.646524
 0.335000   8.404604   -16.299593
 0.340000   8.323907   -16.011446
 0.345000   8.244489   -15.765093
 0.350000   8.166256   -15.535312
 0.355000   8.089136   -15.301776
 0.360000   8.013238   -15.098997
 0.365000   7.938146   -14.945060
 0.370000   7.863787   -14.805604
 0.375000   7.790090   -14.668514
 0.380000   7.717102   -14.546859
 0.385000   7.644622   -14.452372
 0.390000   7.572578   -14.367902
 0.395000   7.500943   -14.285466
 0.400000   7.429724   -14.212824
 0.405000   7.358814   -14.155835
 0.410000   7.288165   -14.105266
 0.415000   7.217762   -14.057068
 0.420000   7.147595   -14.010556
 0.425000   7.077656   -13.967769
 0.430000   7.007917   -13.928793
 0.435000   6.938368   -13.891561
 0.440000   6.869001   -13.854233
 0.445000   6.799826   -13.818854
 0.450000   6.730813   -13.786861
 0.455000   6.661957   -13.755848
 0.460000   6.593254   -13.728297
 0.465000   6.524674   -13.701740
 0.470000   6.456237   -13.674121
 0.475000   6.387933   -13.648070
 0.480000   6.319756   -13.624268
 0.485000   6.251691   -13.602784
 0.490000   6.183728   -13.580902
 0.495000   6.115882   -13.557600
 0.500000   6.048152   -13.534565
 0.505000   5.980536   -13.512076
 0.510000   5.913032   -13.488137
 0.515000   5.845654   -13.462695
 0.520000   5.778405   -13.437500
 0.525000   5.711279   -13.413203
 0.530000   5.644273   -13.388738
 0.535000   5.577392   -13.363424
 0.540000   5.510638   -13.338051
 0.545000   5.444012   -13.315303
 0.550000   5.377485   -13.296978
 0.555000   5.311042   -13.278957
 0.560000   5.244696   -13.259308
 0.565000   5.178449   -13.240907
 0.570000   5.112287   -13.228136
 0.575000   5.046167   -13.217853
 0.580000   4.980108   -13.206777
 0.585000   4.914100   -13.197567
 0.590000   4.848133   -13.194081
 0.595000   4.782159   -13.198444
 0.600000   4.716148   -13.200362
 0.605000   4.650155   -13.197748
 0.610000   4.584171   -13.199393
 0.615000   4.518161   -13.214300
 0.620000   4.452028   -13.234536
 0.625000   4.385816   -13.250174
 0.630000   4.319526   -13.265728
 0.635000   4.253159   -13.281203
 0.640000   4.186714   -13.308235
 0.645000   4.120076   -13.337217
 0.650000   4.053342   -13.356984
 0.655000   3.986506   -13.377517
 0.660000   3.919567   -13.398797
 0.665000   3.852518   -13.431249
 0.670000   3.785254   -13.466591
 0.675000   3.717853   -13.493739
 0.680000   3.650317   -13.521802
 0.685000   3.582635   -13.551789
 0.690000   3.514799   -13.585189
 0.695000   3.446783   -13.621657
 0.700000   3.378582   -13.650768
 0.705000   3.310275   -13.671036
 0.710000   3.241872   -13.688722
 0.715000   3.173388   -13.702974
 0.720000   3.104842   -13.717624
 0.725000   3.036211   -13.730092
 0.730000   2.967541   -13.731698
 0.735000   2.898894   -13.724068
 0.740000   2.830301   -13.710216
 0.745000   2.761792   -13.689291
 0.750000   2.693408   -13.660874
 0.755000   2.625184   -13.625816
 0.760000   2.557149   -13.582590
 0.765000   2.489358   -13.530803
 0.770000   2.421841   -13.473473
 0.775000   2.354623   -13.412236
 0.780000   2.287719   -13.347591
 0.785000   2.221147   -13.278820
 0.790000   2.154931   -13.203816
 0.795000   2.089109   -13.125011
 0.800000   2.023681   -13.043734
 0.805000   1.958672   -12.956793
 0.810000   1.894113   -12.865039
 0.815000   1.830021   -12.770110
 0.820000   1.766412   -12.671601
 0.825000   1.703305   -12.569634
 0.830000   1.640715   -12.465153
 0.835000   1.578654   -12.353632
 0.840000   1.517179   -12.237671
 0.845000   1.456277   -12.121175
 0.850000   1.395967   -12.000666
 0.855000   1.336270   -11.877197
 0.860000   1.277195   -11.750686
 0.865000   1.218763   -11.619669
 0.870000   1.160999   -11.486032
 0.875000   1.103903   -11.353774
 0.880000   1.047461   -11.223843
 0.885000   0.991665   -11.094786
 0.890000   0.936513   -10.965568
 0.895000   0.882009   -10.835524
 0.900000   0.828158   -10.702667
 0.905000   0.774982   -10.560945
 0.910000   0.722548   -10.404232
 0.915000   0.670940   -10.223785
 0.920000   0.620310   -10.004060
 0.925000   0.570899   -9.728265
 0.930000   0.523028   -9.383123
 0.935000   0.477068   -8.973509
 0.940000   0.433293   -8.540328
 0.945000   0.391665   -8.167253
 0.950000   0.351620   -7.956203
 0.955000   0.312103   -7.954684
 0.960000   0.272073   -8.078097
 0.965000   0.231322   -8.124355
 0.970000   0.190830   -7.878599
 0.975000   0.152536   -7.236211
 0.980000   0.118468   -6.272486
 0.985000   0.089811   -5.184412
 0.990000   0.066624   -4.212025
 0.995000   0.047691   -3.606553
 1.000000   0.030558   -3.246524
201 psinorm ptot(KPa) dptot/dpsiN
 0.000000   98.703621   -31.536192
 0.005000   98.503578   -48.480779
 0.010000   98.218813   -62.999858
 0.015000   97.873580   -74.054656
 0.020000   97.478266   -83.628932
 0.025000   97.037290   -92.267525
 0.030000   96.555591   -99.961938
 0.035000   96.037671   -106.806454
 0.040000   95.487526   -112.863829
 0.045000   94.909033   -118.321724
 0.050000   94.304309   -123.078205
 0.055000   93.678251   -127.161523
 0.060000   93.032694   -130.822664
 0.065000   92.370024   -134.043835
 0.070000   91.692256   -136.760401
 0.075000   91.002420   -139.058971
 0.080000   90.301666   -141.039710
 0.085000   89.592023   -142.635545
 0.090000   88.875310   -143.911502
 0.095000   88.152908   -144.926498
 0.100000   87.426046   -145.675794
 0.105000   86.696150   -146.243873
 0.110000   85.963607   -146.657460
 0.115000   85.229575   -146.843135
 0.120000   84.495175   -146.845786
 0.125000   83.761117   -146.711407
 0.130000   83.028061   -146.443674
 0.135000   82.296681   -146.035090
 0.140000   81.567710   -145.459234
 0.145000   80.842088   -144.759062
 0.150000   80.120120   -144.016780
 0.155000   79.401921   -143.221397
 0.160000   78.687906   -142.344924
 0.165000   77.978471   -141.390906
 0.170000   77.273997   -140.373548
 0.175000   76.574736   -139.323444
 0.180000   75.880762   -138.282503
 0.185000   75.191911   -137.237048
 0.190000   74.508392   -136.071362
 0.195000   73.831197   -134.887187
 0.200000   73.159520   -133.779389
 0.205000   72.493403   -132.667300
 0.210000   71.832847   -131.556146
 0.215000   71.177842   -130.447264
 0.220000   70.528374   -129.340773
 0.225000   69.884434   -128.176030
 0.230000   69.246614   -126.920104
 0.235000   68.615233   -125.719627
 0.240000   67.989418   -124.600096
 0.245000   67.369232   -123.465849
 0.250000   66.754759   -122.314049
 0.255000   66.146092   -121.100360
 0.260000   65.543756   -119.791416
 0.265000   64.948177   -118.500590
 0.270000   64.358750   -117.262314
 0.275000   63.775554   -116.008226
 0.280000   63.198668   -114.732312
 0.285000   62.628231   -113.352985
 0.290000   62.065138   -111.998365
 0.295000   61.508248   -110.771904
 0.300000   60.957419   -109.573963
 0.305000   60.412508   -108.391756
 0.310000   59.873501   -107.192944
 0.315000   59.340578   -106.058147
 0.320000   58.812920   -105.016518
 0.325000   58.290413   -103.999174
 0.330000   57.772928   -102.987769
 0.335000   57.260536   -101.991257
 0.340000   56.753015   -101.043161
 0.345000   56.250104   -100.142713
 0.350000   55.751588   -99.244842
 0.355000   55.257656   -98.295517
 0.360000   54.768633   -97.324561
 0.365000   54.284410   -96.345587
 0.370000   53.805177   -95.329451
 0.375000   53.331115   -94.255905
 0.380000   52.862618   -93.142536
 0.385000   52.399690   -92.027124
 0.390000   51.942347   -90.908208
 0.395000   51.490608   -89.787716
 0.400000   51.044470   -88.683875
 0.405000   50.603769   -87.594932
 0.410000   50.168520   -86.532049
 0.415000   49.738449   -85.523168
 0.420000   49.313289   -84.559214
 0.425000   48.892857   -83.634835
 0.430000   48.476940   -82.751877
 0.435000   48.065338   -81.905003
 0.440000   47.657890   -81.101374
 0.445000   47.254324   -80.353406
 0.450000   46.854356   -79.652901
 0.455000   46.457795   -78.988601
 0.460000   46.064470   -78.357455
 0.465000   45.674221   -77.750411
 0.470000   45.286966   -77.151271
 0.475000   44.902708   -76.548543
 0.480000   44.521481   -75.944244
 0.485000   44.143265   -75.344838
 0.490000   43.768032   -74.751545
 0.495000   43.395750   -74.167305
 0.500000   43.026359   -73.597099
 0.505000   42.659779   -73.041835
 0.510000   42.295941   -72.499161
 0.515000   41.934787   -71.969763
 0.520000   41.576243   -71.455699
 0.525000   41.220230   -70.958417
 0.530000   40.866659   -70.477288
 0.535000   40.515457   -70.007666
 0.540000   40.166582   -69.547926
 0.545000   39.819978   -69.101372
 0.550000   39.475569   -68.668313
 0.555000   39.133295   -68.243657
 0.560000   38.793132   -67.825674
 0.565000   38.455038   -67.417723
 0.570000   38.118955   -67.026522
 0.575000   37.784773   -66.653200
 0.580000   37.452423   -66.298599
 0.585000   37.121787   -65.969381
 0.590000   36.792729   -65.678899
 0.595000   36.464998   -65.423110
 0.600000   36.138498   -65.181775
 0.605000   35.813180   -64.955325
 0.610000   35.488945   -64.750325
 0.615000   35.165677   -64.573425
 0.620000   34.843211   -64.424762
 0.625000   34.521430   -64.282591
 0.630000   34.200385   -64.138833
 0.635000   33.880041   -64.002503
 0.640000   33.560360   -63.884385
 0.645000   33.241197   -63.773781
 0.650000   32.922622   -63.651554
 0.655000   32.604682   -63.491134
 0.660000   32.287710   -63.262527
 0.665000   31.972057   -62.971182
 0.670000   31.657999   -62.607191
 0.675000   31.345985   -62.164063
 0.680000   31.036358   -61.623341
 0.685000   30.729751   -61.024088
 0.690000   30.426117   -60.441309
 0.695000   30.125338   -59.876014
 0.700000   29.827357   -59.323301
 0.705000   29.532105   -58.799104
 0.710000   29.239366   -58.307583
 0.715000   28.949029   -57.891760
 0.720000   28.660448   -57.605354
 0.725000   28.372976   -57.430808
 0.730000   28.086140   -57.352162
 0.735000   27.799454   -57.377403
 0.740000   27.512366   -57.541346
 0.745000   27.224041   -57.864415
 0.750000   26.933722   -58.279977
 0.755000   26.641241   -58.723538
 0.760000   26.346487   -59.171453
 0.765000   26.049526   -59.594913
 0.770000   25.750538   -59.994886
 0.775000   25.449578   -60.348209
 0.780000   25.147056   -60.587173
 0.785000   24.843706   -60.710213
 0.790000   24.539953   -60.754787
 0.795000   24.236158   -60.742371
 0.800000   23.932530   -60.709227
 0.805000   23.629066   -60.692280
 0.810000   23.325607   -60.674024
 0.815000   23.022325   -60.626275
 0.820000   22.719344   -60.545363
 0.825000   22.416872   -60.416919
 0.830000   22.115175   -60.239529
 0.835000   21.814476   -60.049539
 0.840000   21.514680   -59.852560
 0.845000   21.215951   -59.628148
 0.850000   20.918398   -59.362699
 0.855000   20.622324   -59.017211
 0.860000   20.328226   -58.561442
 0.865000   20.036709   -58.027801
 0.870000   19.747948   -57.332645
 0.875000   19.463383   -56.421412
 0.880000   19.183734   -55.391152
 0.885000   18.909471   -54.322221
 0.890000   18.640512   -53.376003
 0.895000   18.375711   -52.947090
 0.900000   18.111041   -53.330015
 0.905000   17.842411   -55.015071
 0.910000   17.560890   -59.045158
 0.915000   17.251960   -66.740549
 0.920000   16.893485   -79.820036
 0.925000   16.453759   -100.325138
 0.930000   15.890233   -129.896180
 0.935000   15.154798   -169.157992
 0.940000   14.198653   -216.502213
 0.945000   12.989775   -266.419350
 0.950000   11.534460   -309.586394
 0.955000   9.893911   -335.162888
 0.960000   8.182831   -335.795539
 0.965000   6.535956   -311.160686
 0.970000   5.071224   -267.747312
 0.975000   3.858483   -215.877418
 0.980000   2.912450   -165.180577
 0.985000   2.206677   -121.764685
 0.990000   1.694803   -87.928614
 0.995000   1.327391   -63.326856
 1.000000   1.061534   -43.015814
201 psinorm omeg(kRad/s) domeg/dpsiN
 0.000000   78.020362   0.009964
 0.005000   78.020019   -0.147409
 0.010000   78.018888   -0.320521
 0.015000   78.016813   -0.526287
 0.020000   78.013625   -0.766423
 0.025000   78.009149   -1.041397
 0.030000   78.003211   -1.350446
 0.035000   77.995645   -1.691484
 0.040000   77.986296   -2.058334
 0.045000   77.975061   -2.446142
 0.050000   77.961835   -2.851607
 0.055000   77.946545   -3.268726
 0.060000   77.929148   -3.692591
 0.065000   77.909619   -4.119591
 0.070000   77.887952   -4.540307
 0.075000   77.864216   -4.956732
 0.080000   77.838384   -5.375115
 0.085000   77.810465   -5.789916
 0.090000   77.780485   -6.199659
 0.095000   77.748469   -6.605801
 0.100000   77.714427   -7.006194
 0.105000   77.678407   -7.415850
 0.110000   77.640269   -7.857223
 0.115000   77.599834   -8.337077
 0.120000   77.556898   -8.861849
 0.125000   77.511216   -9.437446
 0.130000   77.462524   -10.073623
 0.135000   77.410480   -10.770248
 0.140000   77.354821   -11.513935
 0.145000   77.295340   -12.304234
 0.150000   77.231779   -13.144933
 0.155000   77.163891   -14.031871
 0.160000   77.091460   -14.964672
 0.165000   77.014244   -15.926430
 0.170000   76.932196   -16.887645
 0.175000   76.845368   -17.844670
 0.180000   76.753749   -18.799788
 0.185000   76.657370   -19.743744
 0.190000   76.556312   -20.659497
 0.195000   76.450775   -21.519205
 0.200000   76.341120   -22.320162
 0.205000   76.227573   -23.068311
 0.210000   76.110436   -23.753900
 0.215000   75.990034   -24.372928
 0.220000   75.866707   -24.909524
 0.225000   75.740939   -25.339080
 0.230000   75.613316   -25.714309
 0.235000   75.483796   -26.065112
 0.240000   75.352665   -26.360377
 0.245000   75.220192   -26.605724
 0.250000   75.086608   -26.801253
 0.255000   74.952180   -26.935724
 0.260000   74.817251   -27.092201
 0.265000   74.681258   -27.322362
 0.270000   74.544027   -27.595923
 0.275000   74.405298   -27.927892
 0.280000   74.264748   -28.327229
 0.285000   74.122026   -28.785910
 0.290000   73.976889   -29.267955
 0.295000   73.829347   -29.739397
 0.300000   73.679495   -30.190863
 0.305000   73.527438   -30.621290
 0.310000   73.373282   -31.030066
 0.315000   73.217137   -31.408440
 0.320000   73.059198   -31.763307
 0.325000   72.899504   -32.105107
 0.330000   72.738147   -32.429379
 0.335000   72.575210   -32.737498
 0.340000   72.410772   -33.031229
 0.345000   72.244898   -33.304417
 0.350000   72.077728   -33.558661
 0.355000   71.909312   -33.786453
 0.360000   71.739863   -33.964608
 0.365000   71.569665   -34.082936
 0.370000   71.399034   -34.137572
 0.375000   71.228290   -34.098228
 0.380000   71.058051   -33.984593
 0.385000   70.888444   -33.854544
 0.390000   70.719506   -33.739229
 0.395000   70.551052   -33.698836
 0.400000   70.382518   -33.812071
 0.405000   70.212931   -34.214907
 0.410000   70.040369   -34.986234
 0.415000   69.863069   -36.036769
 0.420000   69.680001   -37.296957
 0.425000   69.490099   -38.758234
 0.430000   69.292419   -40.395134
 0.435000   69.086148   -42.296784
 0.440000   68.869451   -44.404855
 0.445000   68.642099   -46.452452
 0.450000   68.404926   -48.398033
 0.455000   68.158119   -50.282322
 0.460000   67.902103   -52.055497
 0.465000   67.637564   -53.713437
 0.470000   67.364969   -55.133291
 0.475000   67.086231   -56.121713
 0.480000   66.803751   -56.737352
 0.485000   66.518857   -57.123923
 0.490000   66.232512   -57.355294
 0.495000   65.945304   -57.505827
 0.500000   65.657454   -57.622252
 0.505000   65.369082   -57.701424
 0.510000   65.080440   -57.739639
 0.515000   64.791685   -57.747144
 0.520000   64.502968   -57.725791
 0.525000   64.214428   -57.682485
 0.530000   63.926143   -57.629437
 0.535000   63.638133   -57.550443
 0.540000   63.350639   -57.437828
 0.545000   63.063755   -57.308008
 0.550000   62.777559   -57.164342
 0.555000   62.492111   -57.013577
 0.560000   62.207423   -56.873003
 0.565000   61.923381   -56.720867
 0.570000   61.640214   -56.529351
 0.575000   61.358088   -56.296875
 0.580000   61.077246   -56.011828
 0.585000   60.797970   -55.669749
 0.590000   60.520548   -55.240966
 0.595000   60.245560   -54.757938
 0.600000   59.972969   -54.275300
 0.605000   59.702807   -53.793528
 0.610000   59.435034   -53.327024
 0.615000   59.169537   -52.889970
 0.620000   58.906134   -52.444849
 0.625000   58.645088   -52.067198
 0.630000   58.385462   -51.845892
 0.635000   58.126629   -51.765277
 0.640000   57.867809   -51.857310
 0.645000   57.608056   -52.152780
 0.650000   57.346281   -52.717168
 0.655000   57.080885   -53.566455
 0.660000   56.810617   -54.598932
 0.665000   56.534895   -55.702177
 0.670000   56.253595   -56.805673
 0.675000   55.966839   -57.880742
 0.680000   55.674788   -58.966373
 0.685000   55.377175   -60.129977
 0.690000   55.073488   -61.396786
 0.695000   54.763207   -62.768832
 0.700000   54.445799   -64.246393
 0.705000   54.120743   -65.826791
 0.710000   53.787532   -67.525934
 0.715000   53.445484   -69.334877
 0.720000   53.094183   -71.215323
 0.725000   52.733330   -73.185878
 0.730000   52.362324   -75.340005
 0.735000   51.979930   -77.835538
 0.740000   51.583969   -81.090263
 0.745000   51.169028   -85.510809
 0.750000   50.728861   -90.851126
 0.755000   50.260516   -96.782587
 0.760000   49.761035   -103.215883
 0.765000   49.228358   -109.966917
 0.770000   48.661366   -117.083287
 0.775000   48.057525   -124.386227
 0.780000   47.417503   -131.071042
 0.785000   46.746814   -136.897847
 0.790000   46.048525   -142.120430
 0.795000   45.325610   -146.798529
 0.800000   44.580539   -151.269633
 0.805000   43.812914   -155.948779
 0.810000   43.021052   -160.193694
 0.815000   42.210977   -163.391177
 0.820000   41.387140   -165.561913
 0.825000   40.555358   -166.489079
 0.830000   39.722249   -166.236382
 0.835000   38.892994   -165.492485
 0.840000   38.067324   -164.196919
 0.845000   37.251025   -162.212999
 0.850000   36.445194   -160.098903
 0.855000   35.650036   -158.215152
 0.860000   34.863043   -157.452092
 0.865000   34.075515   -159.748302
 0.870000   33.265560   -166.124716
 0.875000   32.414268   -178.232253
 0.880000   31.483237   -199.108344
 0.885000   30.423184   -230.557571
 0.890000   29.177661   -273.336873
 0.895000   27.689815   -327.325269
 0.900000   25.904409   -388.054898
 0.905000   23.809266   -448.636195
 0.910000   21.418047   -502.031668
 0.915000   18.788950   -539.230211
 0.920000   16.025745   -552.050392
 0.925000   13.268446   -533.955544
 0.930000   10.686189   -485.382312
 0.935000   8.414623   -413.613835
 0.940000   6.550051   -327.643416
 0.945000   5.138189   -237.723746
 0.950000   4.172814   -153.295822
 0.955000   3.605230   -81.153253
 0.960000   3.361281   -25.723460
 0.965000   3.347996   12.455031
 0.970000   3.485831   36.067578
 0.975000   3.708671   47.936845
 0.980000   3.965200   51.017619
 0.985000   4.218848   47.812192
 0.990000   4.443322   41.165649
 0.995000   4.630504   33.524326
 1.000000   4.778565   25.699973
201 psinorm omegp(kRad/s) domegp/dpsiN
 0.000000   0.007166   103.663604
 0.005000   0.422880   62.621890
 0.010000   0.633385   40.298157
 0.015000   0.825862   37.732044
 0.020000   1.010706   37.256241
 0.025000   1.198424   37.408153
 0.030000   1.384787   37.115133
 0.035000   1.569575   36.821957
 0.040000   1.753007   36.267690
 0.045000   1.932252   35.265199
 0.050000   2.105659   34.042458
 0.055000   2.272677   32.702740
 0.060000   2.432686   30.949168
 0.065000   2.582169   29.015916
 0.070000   2.722845   27.241747
 0.075000   2.854586   25.436885
 0.080000   2.977214   23.589708
 0.085000   3.090483   21.889038
 0.090000   3.196105   20.610580
 0.095000   3.296589   19.871801
 0.100000   3.394823   19.546472
 0.105000   3.492054   19.583990
 0.110000   3.590662   19.851832
 0.115000   3.690572   20.189965
 0.120000   3.792562   20.575472
 0.125000   3.896327   20.650031
 0.130000   3.999062   20.554943
 0.135000   4.101876   20.205375
 0.140000   4.201116   19.624281
 0.145000   4.298119   18.902261
 0.150000   4.390139   17.855968
 0.155000   4.476679   16.691035
 0.160000   4.557049   15.431028
 0.165000   4.630989   14.095234
 0.170000   4.698002   12.591357
 0.175000   4.756902   11.053538
 0.180000   4.808537   9.533500
 0.185000   4.852237   8.212940
 0.190000   4.890666   7.145495
 0.195000   4.923692   6.071726
 0.200000   4.951384   5.218354
 0.205000   4.975876   4.436160
 0.210000   4.995745   3.521842
 0.215000   5.011094   2.430287
 0.220000   5.020048   1.052599
 0.225000   5.021620   -0.467623
 0.230000   5.015372   -2.196949
 0.235000   4.999651   -3.967020
 0.240000   4.975702   -5.736016
 0.245000   4.942291   -7.656487
 0.250000   4.899137   -9.426882
 0.255000   4.848022   -11.176563
 0.260000   4.787371   -13.065904
 0.265000   4.717363   -14.859131
 0.270000   4.638780   -16.799186
 0.275000   4.549371   -18.862034
 0.280000   4.450159   -20.861467
 0.285000   4.340756   -23.022519
 0.290000   4.219934   -25.249920
 0.295000   4.088257   -27.456175
 0.300000   3.945373   -29.733970
 0.305000   3.790917   -31.912248
 0.310000   3.626250   -33.830460
 0.315000   3.452613   -35.542234
 0.320000   3.270828   -36.710311
 0.325000   3.085510   -37.390597
 0.330000   2.896922   -38.049237
 0.335000   2.705017   -38.697289
 0.340000   2.509949   -39.336641
 0.345000   2.311651   -40.229146
 0.350000   2.107657   -41.480710
 0.355000   1.896844   -43.222464
 0.360000   1.675433   -45.448265
 0.365000   1.442361   -47.941490
 0.370000   1.196018   -50.487802
 0.375000   0.937483   -52.889637
 0.380000   0.667121   -55.300464
 0.385000   0.384478   -58.091289
 0.390000   0.086209   -61.892659
 0.395000   -0.234448   -67.049760
 0.400000   -0.584289   -73.649410
 0.405000   -0.970942   -81.801755
 0.410000   -1.402307   -92.222625
 0.415000   -1.893168   -103.535653
 0.420000   -2.437663   -114.188890
 0.425000   -3.035057   -124.297111
 0.430000   -3.680634   -133.247100
 0.435000   -4.367528   -140.459019
 0.440000   -5.085224   -144.749852
 0.445000   -5.815027   -144.790873
 0.450000   -6.533133   -140.573854
 0.455000   -7.220765   -132.683821
 0.460000   -7.859971   -121.643383
 0.465000   -8.437199   -107.936795
 0.470000   -8.939339   -92.156899
 0.475000   -9.358768   -76.852576
 0.480000   -9.707865   -63.605743
 0.485000   -9.994826   -52.208810
 0.490000   -10.229953   -42.817210
 0.495000   -10.422998   -35.433580
 0.500000   -10.584289   -30.593548
 0.505000   -10.728933   -27.917021
 0.510000   -10.863459   -26.116910
 0.515000   -10.990102   -24.708736
 0.520000   -11.110547   -23.539795
 0.525000   -11.225500   -22.377988
 0.530000   -11.334326   -21.006494
 0.535000   -11.435565   -19.355846
 0.540000   -11.527885   -17.211456
 0.545000   -11.607680   -14.498153
 0.550000   -11.672866   -11.392284
 0.555000   -11.721603   -8.035360
 0.560000   -11.753220   -4.337525
 0.565000   -11.764978   -0.421743
 0.570000   -11.757437   3.311078
 0.575000   -11.731867   6.759829
 0.580000   -11.689839   9.874414
 0.585000   -11.633123   12.532204
 0.590000   -11.564517   14.570103
 0.595000   -11.487422   16.156583
 0.600000   -11.402951   17.416022
 0.605000   -11.313262   18.289259
 0.610000   -11.220059   18.897783
 0.615000   -11.124284   19.404435
 0.620000   -11.026014   19.966063
 0.625000   -10.924623   20.462651
 0.630000   -10.821388   20.874666
 0.635000   -10.715877   21.284577
 0.640000   -10.608542   21.567673
 0.645000   -10.500200   21.699059
 0.650000   -10.391551   21.739085
 0.655000   -10.282809   21.721348
 0.660000   -10.174338   21.593853
 0.665000   -10.066870   21.368067
 0.670000   -9.960657   21.111003
 0.675000   -9.855760   20.773539
 0.680000   -9.752922   20.283371
 0.685000   -9.652927   19.659440
 0.690000   -9.556328   18.898017
 0.695000   -9.463947   17.957735
 0.700000   -9.376750   16.864025
 0.705000   -9.295306   15.601179
 0.710000   -9.220738   14.137829
 0.715000   -9.153928   12.548437
 0.720000   -9.095254   10.875934
 0.725000   -9.045169   9.089316
 0.730000   -9.004361   7.228636
 0.735000   -8.972882   5.371993
 0.740000   -8.950641   3.520243
 0.745000   -8.937680   1.688685
 0.750000   -8.933754   -0.164210
 0.755000   -8.939322   -2.039667
 0.760000   -8.954151   -4.115408
 0.765000   -8.980476   -6.677440
 0.770000   -9.020925   -9.788587
 0.775000   -9.078362   -13.522362
 0.780000   -9.156149   -17.970334
 0.785000   -9.258065   -23.154319
 0.790000   -9.387692   -29.240861
 0.795000   -9.550474   -35.919549
 0.800000   -9.746887   -42.720547
 0.805000   -9.977679   -49.653671
 0.810000   -10.243424   -56.433506
 0.815000   -10.542014   -62.666409
 0.820000   -10.870088   -67.811413
 0.825000   -11.220129   -71.163252
 0.830000   -11.581721   -72.557206
 0.835000   -11.945701   -72.122353
 0.840000   -12.302944   -69.830610
 0.845000   -12.644007   -65.818747
 0.850000   -12.961132   -60.560221
 0.855000   -13.249609   -54.937673
 0.860000   -13.510509   -49.227393
 0.865000   -13.741883   -43.403020
 0.870000   -13.944539   -38.013943
 0.875000   -14.122022   -33.183024
 0.880000   -14.276369   -28.607535
 0.885000   -14.408098   -23.605914
 0.890000   -14.512428   -17.396557
 0.895000   -14.582063   -8.702615
 0.900000   -14.599454   4.448313
 0.905000   -14.537580   24.235036
 0.910000   -14.357104   54.281852
 0.915000   -13.994762   95.334244
 0.920000   -13.403761   144.901049
 0.925000   -12.545751   199.377496
 0.930000   -11.409986   251.668413
 0.935000   -10.029067   282.407751
 0.940000   -8.585909   260.011992
 0.945000   -7.428947   167.000043
 0.950000   -6.915909   20.053485
 0.955000   -7.228412   -127.699234
 0.960000   -8.192901   -197.250959
 0.965000   -9.200922   -121.840877
 0.970000   -9.411310   95.581431
 0.975000   -8.245107   369.491629
 0.980000   -5.716393   582.949445
 0.985000   -2.415613   649.570171
 0.990000   0.779308   556.947412
 0.995000   3.153861   360.932855
 1.000000   4.388637   132.977447
201 psinorm omgvb(kRad/s) domgvb/dpsiN
 0.000000   78.027529   103.673568
 0.005000   78.442899   62.474481
 0.010000   78.652273   39.977636
 0.015000   78.842675   37.205756
 0.020000   79.024331   36.489817
 0.025000   79.207573   36.366756
 0.030000   79.387998   35.764687
 0.035000   79.565220   35.130473
 0.040000   79.739303   34.209356
 0.045000   79.907314   32.819057
 0.050000   80.067494   31.190851
 0.055000   80.219222   29.434014
 0.060000   80.361834   27.256577
 0.065000   80.491788   24.896326
 0.070000   80.610797   22.701440
 0.075000   80.718802   20.480153
 0.080000   80.815599   18.214593
 0.085000   80.900948   16.099121
 0.090000   80.976590   14.410921
 0.095000   81.045057   13.266000
 0.100000   81.109250   12.540278
 0.105000   81.170460   12.168141
 0.110000   81.230931   11.994610
 0.115000   81.290406   11.852888
 0.120000   81.349460   11.713623
 0.125000   81.407543   11.212585
 0.130000   81.461586   10.481320
 0.135000   81.512356   9.435127
 0.140000   81.555937   8.110346
 0.145000   81.593459   6.598027
 0.150000   81.621918   4.711035
 0.155000   81.640570   2.659164
 0.160000   81.648509   0.466357
 0.165000   81.645233   -1.831196
 0.170000   81.630197   -4.296287
 0.175000   81.602270   -6.791131
 0.180000   81.562286   -9.266288
 0.185000   81.509607   -11.530803
 0.190000   81.446978   -13.514002
 0.195000   81.374467   -15.447479
 0.200000   81.292503   -17.101808
 0.205000   81.203449   -18.632151
 0.210000   81.106182   -20.232058
 0.215000   81.001129   -21.942641
 0.220000   80.886755   -23.856925
 0.225000   80.762559   -25.806703
 0.230000   80.628688   -27.911258
 0.235000   80.483447   -30.032133
 0.240000   80.328367   -32.096393
 0.245000   80.162483   -34.262211
 0.250000   79.985745   -36.228136
 0.255000   79.800202   -38.112287
 0.260000   79.604622   -40.158105
 0.265000   79.398621   -42.181493
 0.270000   79.182807   -44.395109
 0.275000   78.954669   -46.789926
 0.280000   78.714908   -49.188696
 0.285000   78.462782   -51.808429
 0.290000   78.196823   -54.517875
 0.295000   77.917604   -57.195572
 0.300000   77.624868   -59.924833
 0.305000   77.318355   -62.533538
 0.310000   76.999532   -64.860526
 0.315000   76.669750   -66.950674
 0.320000   76.330026   -68.473618
 0.325000   75.985014   -69.495703
 0.330000   75.635069   -70.478616
 0.335000   75.280228   -71.434787
 0.340000   74.920721   -72.367870
 0.345000   74.556549   -73.533563
 0.350000   74.185385   -75.039371
 0.355000   73.806155   -77.008918
 0.360000   73.415296   -79.412873
 0.365000   73.012027   -82.024427
 0.370000   72.595052   -84.625374
 0.375000   72.165773   -86.987865
 0.380000   71.725173   -89.285057
 0.385000   71.272922   -91.945833
 0.390000   70.805715   -95.631887
 0.395000   70.316603   -100.748596
 0.400000   69.798229   -107.461481
 0.405000   69.241989   -116.016662
 0.410000   68.638062   -127.208858
 0.415000   67.969900   -139.572422
 0.420000   67.242338   -151.485847
 0.425000   66.455042   -163.055345
 0.430000   65.611784   -173.642234
 0.435000   64.718619   -182.755803
 0.440000   63.784226   -189.154706
 0.445000   62.827072   -191.243325
 0.450000   61.871793   -188.971887
 0.455000   60.937353   -182.966143
 0.460000   60.042132   -173.698880
 0.465000   59.200365   -161.650232
 0.470000   58.425629   -147.290190
 0.475000   57.727463   -132.974289
 0.480000   57.095886   -120.343095
 0.485000   56.524032   -109.332733
 0.490000   56.002559   -100.172504
 0.495000   55.522307   -92.939407
 0.500000   55.073165   -88.215800
 0.505000   54.640149   -85.618444
 0.510000   54.216981   -83.856549
 0.515000   53.801583   -82.455880
 0.520000   53.392422   -81.265586
 0.525000   52.988927   -80.060473
 0.530000   52.591817   -78.635932
 0.535000   52.202568   -76.906290
 0.540000   51.822754   -74.649284
 0.545000   51.456075   -71.806161
 0.550000   51.104693   -68.556626
 0.555000   50.770509   -65.048937
 0.560000   50.454203   -61.210528
 0.565000   50.158404   -57.142610
 0.570000   49.882777   -53.218273
 0.575000   49.626221   -49.537046
 0.580000   49.387407   -46.137414
 0.585000   49.164847   -43.137545
 0.590000   48.956031   -40.670863
 0.595000   48.758138   -38.601355
 0.600000   48.570018   -36.859277
 0.605000   48.389545   -35.504269
 0.610000   48.214975   -34.429241
 0.615000   48.045253   -33.485536
 0.620000   47.880120   -32.478785
 0.625000   47.720465   -31.604548
 0.630000   47.564074   -30.971227
 0.635000   47.410753   -30.480700
 0.640000   47.259267   -30.289637
 0.645000   47.107856   -30.453722
 0.650000   46.954730   -30.978082
 0.655000   46.798076   -31.845107
 0.660000   46.636279   -33.005079
 0.665000   46.468025   -34.334111
 0.670000   46.292938   -35.694670
 0.675000   46.111078   -37.107203
 0.680000   45.921866   -38.683002
 0.685000   45.724248   -40.470537
 0.690000   45.517160   -42.498769
 0.695000   45.299260   -44.811097
 0.700000   45.069049   -47.382367
 0.705000   44.825437   -50.225612
 0.710000   44.566793   -53.388105
 0.715000   44.291556   -56.786440
 0.720000   43.998929   -60.339388
 0.725000   43.688162   -64.096562
 0.730000   43.357963   -68.111370
 0.735000   43.007048   -72.463545
 0.740000   42.633328   -77.570020
 0.745000   42.231348   -83.822124
 0.750000   41.795106   -91.015336
 0.755000   41.321195   -98.822254
 0.760000   40.806884   -107.331291
 0.765000   40.247882   -116.644357
 0.770000   39.640440   -126.871874
 0.775000   38.979163   -137.908589
 0.780000   38.261354   -149.041376
 0.785000   37.488749   -160.052166
 0.790000   36.660833   -171.361291
 0.795000   35.775136   -182.718078
 0.800000   34.833652   -193.990180
 0.805000   33.835234   -205.602451
 0.810000   32.777628   -216.627199
 0.815000   31.668962   -226.057587
 0.820000   30.517052   -233.373326
 0.825000   29.335229   -237.652331
 0.830000   28.140528   -238.793587
 0.835000   26.947293   -237.614839
 0.840000   25.764380   -234.027529
 0.845000   24.607018   -228.031746
 0.850000   23.484063   -220.659124
 0.855000   22.400427   -213.152825
 0.860000   21.352534   -206.679485
 0.865000   20.333632   -203.151322
 0.870000   19.321021   -204.138660
 0.875000   18.292245   -211.415276
 0.880000   17.206868   -227.715879
 0.885000   16.015087   -254.163485
 0.890000   14.665233   -290.733430
 0.895000   13.107752   -336.027883
 0.900000   11.304955   -383.606585
 0.905000   9.271686   -424.401159
 0.910000   7.060943   -447.749816
 0.915000   4.794188   -443.895967
 0.920000   2.621983   -407.149343
 0.925000   0.722695   -334.578047
 0.930000   -0.723797   -233.713899
 0.935000   -1.614444   -131.206084
 0.940000   -2.035858   -67.631424
 0.945000   -2.290758   -70.723702
 0.950000   -2.743095   -133.242337
 0.955000   -3.623182   -208.852487
 0.960000   -4.831620   -222.974419
 0.965000   -5.852926   -109.385846
 0.970000   -5.925478   131.649009
 0.975000   -4.536436   417.428474
 0.980000   -1.751194   633.967065
 0.985000   1.803235   697.382363
 0.990000   5.222630   598.113061
 0.995000   7.784365   394.457181
 1.000000   9.167202   158.677419
201 psinorm omgpp(kRad/s) domgpp/dpsiN
 0.000000   -0.040895   -20.132420
 0.005000   -0.166429   -30.081090
 0.010000   -0.341706   -35.971370
 0.015000   -0.526143   -37.720801
 0.020000   -0.718914   -39.245902
 0.025000   -0.918602   -40.438835
 0.030000   -1.123302   -41.299352
 0.035000   -1.331595   -41.802454
 0.040000   -1.541327   -41.882708
 0.045000   -1.750422   -41.555620
 0.050000   -1.956883   -40.719239
 0.055000   -2.157615   -39.388981
 0.060000   -2.350773   -38.170989
 0.065000   -2.539325   -36.995759
 0.070000   -2.720731   -35.523230
 0.075000   -2.894557   -33.983289
 0.080000   -3.060563   -32.313927
 0.085000   -3.217696   -30.530081
 0.090000   -3.365864   -29.263708
 0.095000   -3.510333   -28.221209
 0.100000   -3.648076   -26.898048
 0.105000   -3.779314   -25.618542
 0.110000   -3.904262   -24.379879
 0.115000   -4.023112   -23.226716
 0.120000   -4.136529   -22.220831
 0.125000   -4.245321   -21.075188
 0.130000   -4.347281   -19.663515
 0.135000   -4.441956   -18.170921
 0.140000   -4.528990   -16.624068
 0.145000   -4.608197   -15.008849
 0.150000   -4.679079   -13.362816
 0.155000   -4.741825   -11.689517
 0.160000   -4.795974   -9.965297
 0.165000   -4.841478   -8.259940
 0.170000   -4.878573   -6.640701
 0.175000   -4.907885   -5.250248
 0.180000   -4.931076   -4.244793
 0.185000   -4.950333   -3.388188
 0.190000   -4.964957   -2.512212
 0.195000   -4.975455   -1.727541
 0.200000   -4.982233   -1.023195
 0.205000   -4.985687   -0.743149
 0.210000   -4.989664   -0.223492
 0.215000   -4.987922   0.877308
 0.220000   -4.980891   1.928732
 0.225000   -4.968634   3.040093
 0.230000   -4.950490   4.286866
 0.235000   -4.925766   5.428752
 0.240000   -4.896203   7.062955
 0.245000   -4.855136   9.225604
 0.250000   -4.803947   11.139298
 0.255000   -4.743743   12.935732
 0.260000   -4.674589   14.699685
 0.265000   -4.596746   16.557035
 0.270000   -4.509019   18.424142
 0.275000   -4.412505   19.862770
 0.280000   -4.310391   20.836247
 0.285000   -4.204142   21.475349
 0.290000   -4.095638   21.751732
 0.295000   -3.986625   21.806467
 0.300000   -3.877573   21.483062
 0.305000   -3.771795   20.793944
 0.310000   -3.669634   20.170530
 0.315000   -3.570089   19.644143
 0.320000   -3.473192   19.124768
 0.325000   -3.378842   18.509628
 0.330000   -3.288096   17.840136
 0.335000   -3.200440   17.570698
 0.340000   -3.112389   17.551073
 0.345000   -3.024929   17.497350
 0.350000   -2.937416   17.591421
 0.355000   -2.849015   17.858089
 0.360000   -2.758835   18.512902
 0.365000   -2.663886   19.414991
 0.370000   -2.564685   20.030759
 0.375000   -2.463579   20.321795
 0.380000   -2.361467   20.433914
 0.385000   -2.259239   20.473613
 0.390000   -2.156731   20.621089
 0.395000   -2.053029   19.961235
 0.400000   -1.957118   18.672092
 0.405000   -1.866308   17.607941
 0.410000   -1.781039   16.477640
 0.415000   -1.701531   15.364442
 0.420000   -1.627395   14.489942
 0.425000   -1.556632   13.128841
 0.430000   -1.496106   11.446524
 0.435000   -1.442167   10.111274
 0.440000   -1.394993   8.739918
 0.445000   -1.354767   7.333859
 0.450000   -1.321655   5.832748
 0.455000   -1.296440   4.253891
 0.460000   -1.279116   2.912458
 0.465000   -1.267315   1.899413
 0.470000   -1.260122   1.034793
 0.475000   -1.256967   0.259857
 0.480000   -1.257523   -0.492360
 0.485000   -1.261891   -1.272555
 0.490000   -1.270249   -2.094209
 0.495000   -1.282833   -2.912958
 0.500000   -1.299378   -3.678639
 0.505000   -1.319620   -4.388466
 0.510000   -1.343263   -5.026066
 0.515000   -1.369880   -5.614804
 0.520000   -1.399411   -6.185403
 0.525000   -1.431734   -6.729298
 0.530000   -1.466704   -7.253146
 0.535000   -1.504266   -7.771749
 0.540000   -1.544422   -8.296890
 0.545000   -1.587235   -8.862901
 0.550000   -1.633051   -9.424662
 0.555000   -1.681481   -9.913399
 0.560000   -1.732185   -10.335937
 0.565000   -1.784841   -10.697392
 0.570000   -1.839158   -11.046043
 0.575000   -1.895301   -11.473569
 0.580000   -1.953894   -11.959961
 0.585000   -2.014901   -12.443843
 0.590000   -2.078333   -12.924420
 0.595000   -2.144145   -13.403564
 0.600000   -2.212368   -14.026807
 0.605000   -2.284413   -14.688274
 0.610000   -2.359251   -15.000406
 0.615000   -2.434417   -15.140989
 0.620000   -2.510661   -15.309184
 0.625000   -2.587509   -15.374224
 0.630000   -2.664403   -15.471484
 0.635000   -2.742224   -15.505146
 0.640000   -2.819455   -15.094518
 0.645000   -2.893169   -14.804333
 0.650000   -2.967498   -15.225078
 0.655000   -3.045420   -16.253603
 0.660000   -3.130034   -18.211360
 0.665000   -3.227533   -21.190470
 0.670000   -3.341939   -22.797384
 0.675000   -3.455507   -23.135895
 0.680000   -3.573298   -23.765941
 0.685000   -3.693166   -23.908381
 0.690000   -3.812381   -23.754358
 0.695000   -3.930710   -23.599995
 0.700000   -4.048381   -20.895644
 0.705000   -4.139666   -16.562861
 0.710000   -4.214010   -12.881645
 0.715000   -4.268483   -8.649349
 0.720000   -4.300503   -3.941084
 0.725000   -4.307894   1.865375
 0.730000   -4.281850   7.257640
 0.735000   -4.235317   10.993364
 0.740000   -4.171916   13.987424
 0.745000   -4.095443   16.195444
 0.750000   -4.009962   17.577928
 0.755000   -3.919664   19.239681
 0.760000   -3.817565   18.689617
 0.765000   -3.732768   16.262508
 0.770000   -3.654940   14.706610
 0.775000   -3.585702   12.862678
 0.780000   -3.526313   10.815355
 0.785000   -3.477548   8.289812
 0.790000   -3.443415   5.728999
 0.795000   -3.420258   4.129043
 0.800000   -3.402124   3.277457
 0.805000   -3.387483   2.654398
 0.810000   -3.375580   2.115190
 0.815000   -3.366332   1.065197
 0.820000   -3.364928   0.434052
 0.825000   -3.361991   0.349696
 0.830000   -3.361431   -0.630559
 0.835000   -3.368297   -2.464510
 0.840000   -3.386077   -4.984943
 0.845000   -3.418146   -9.207315
 0.850000   -3.478150   -13.833525
 0.855000   -3.556481   -17.256260
 0.860000   -3.650712   -20.935967
 0.865000   -3.765841   -25.156628
 0.870000   -3.902279   -29.487452
 0.875000   -4.060715   -35.999653
 0.880000   -4.262275   -43.643794
 0.885000   -4.497153   -49.840606
 0.890000   -4.760681   -57.274301
 0.895000   -5.069896   -67.092682
 0.900000   -5.431608   -78.584188
 0.905000   -5.855738   -96.927354
 0.910000   -6.400882   -120.797952
 0.915000   -7.063718   -139.427479
 0.920000   -7.795156   -160.051463
 0.925000   -8.664232   -191.280624
 0.930000   -9.707963   -230.411683
 0.935000   -10.968349   -284.572995
 0.940000   -12.553692   -353.031412
 0.945000   -14.498663   -405.156174
 0.950000   -16.605254   -439.778212
 0.955000   -18.896446   -462.719738
 0.960000   -21.232452   -446.228031
 0.965000   -23.358726   -378.752082
 0.970000   -25.019972   -253.492028
 0.975000   -25.893646   -64.439125
 0.980000   -25.664364   132.721141
 0.985000   -24.566435   289.620980
 0.990000   -22.768154   409.701349
 0.995000   -20.469421   490.535987
 1.000000   -17.862794   552.114903
201 psinorm omgeb(kRad/s) domgeb/dpsiN
 0.000000   77.986633   83.541148
 0.005000   78.276470   32.393392
 0.010000   78.310567   4.006267
 0.015000   78.316532   -0.515045
 0.020000   78.305417   -2.756085
 0.025000   78.288971   -4.072079
 0.030000   78.264696   -5.534665
 0.035000   78.233625   -6.671981
 0.040000   78.197976   -7.673353
 0.045000   78.156891   -8.736564
 0.050000   78.110611   -9.528387
 0.055000   78.061607   -9.954967
 0.060000   78.011061   -10.914413
 0.065000   77.952463   -12.099433
 0.070000   77.890067   -12.821791
 0.075000   77.824245   -13.503136
 0.080000   77.755035   -14.099334
 0.085000   77.683252   -14.430959
 0.090000   77.610726   -14.852786
 0.095000   77.534724   -14.955209
 0.100000   77.461173   -14.357770
 0.105000   77.391146   -13.450402
 0.110000   77.326669   -12.385269
 0.115000   77.267294   -11.373828
 0.120000   77.212931   -10.507208
 0.125000   77.162222   -9.862603
 0.130000   77.114305   -9.182195
 0.135000   77.070400   -8.735794
 0.140000   77.026947   -8.513722
 0.145000   76.985263   -8.410822
 0.150000   76.942839   -8.651781
 0.155000   76.898745   -9.030353
 0.160000   76.852535   -9.498940
 0.165000   76.803755   -10.091136
 0.170000   76.751624   -10.936989
 0.175000   76.694385   -12.041379
 0.180000   76.631210   -13.511081
 0.185000   76.559275   -14.918991
 0.190000   76.482020   -16.026214
 0.195000   76.399013   -17.175020
 0.200000   76.310270   -18.125003
 0.205000   76.217762   -19.375300
 0.210000   76.116517   -20.455550
 0.215000   76.013207   -21.065334
 0.220000   75.905864   -21.928194
 0.225000   75.793925   -22.766610
 0.230000   75.678198   -23.624392
 0.235000   75.557681   -24.603381
 0.240000   75.432164   -25.033438
 0.245000   75.307347   -25.036607
 0.250000   75.181798   -25.088837
 0.255000   75.056458   -25.176555
 0.260000   74.930032   -25.458419
 0.265000   74.801874   -25.624458
 0.270000   74.673788   -25.970967
 0.275000   74.542165   -26.927156
 0.280000   74.404516   -28.352449
 0.285000   74.258640   -30.333080
 0.290000   74.101185   -32.766143
 0.295000   73.930979   -35.389105
 0.300000   73.747294   -38.441771
 0.305000   73.546561   -41.739593
 0.310000   73.329898   -44.689996
 0.315000   73.099661   -47.306531
 0.320000   72.856833   -49.348850
 0.325000   72.606172   -50.986075
 0.330000   72.346972   -52.638480
 0.335000   72.079788   -53.864089
 0.340000   71.808331   -54.816796
 0.345000   71.531620   -56.036213
 0.350000   71.247969   -57.447950
 0.355000   70.957140   -59.150829
 0.360000   70.656461   -60.899971
 0.365000   70.348140   -62.609436
 0.370000   70.030367   -64.594614
 0.375000   69.702194   -66.666070
 0.380000   69.363706   -68.851143
 0.385000   69.013683   -71.472220
 0.390000   68.648984   -75.010798
 0.395000   68.263575   -80.787361
 0.400000   67.841110   -88.789389
 0.405000   67.375681   -98.408721
 0.410000   66.857023   -110.731219
 0.415000   66.268369   -124.207980
 0.420000   65.614943   -136.995905
 0.425000   64.898410   -149.926504
 0.430000   64.115678   -162.195710
 0.435000   63.276453   -172.644530
 0.440000   62.389233   -180.414789
 0.445000   61.472305   -183.909466
 0.450000   60.550138   -183.139139
 0.455000   59.640913   -178.712251
 0.460000   58.763016   -170.786422
 0.465000   57.933049   -159.750819
 0.470000   57.165507   -146.255397
 0.475000   56.470495   -132.714432
 0.480000   55.838363   -120.835455
 0.485000   55.262141   -110.605288
 0.490000   54.732310   -102.266713
 0.495000   54.239474   -95.852365
 0.500000   53.773787   -91.894439
 0.505000   53.320529   -90.006910
 0.510000   52.873718   -88.882615
 0.515000   52.431703   -88.070683
 0.520000   51.993011   -87.450989
 0.525000   51.557193   -86.789771
 0.530000   51.125113   -85.889078
 0.535000   50.698302   -84.678038
 0.540000   50.278333   -82.946174
 0.545000   49.868841   -80.669062
 0.550000   49.471642   -77.981288
 0.555000   49.089028   -74.962336
 0.560000   48.722019   -71.546465
 0.565000   48.373563   -67.840002
 0.570000   48.043619   -64.264316
 0.575000   47.730920   -61.010616
 0.580000   47.433512   -58.097375
 0.585000   47.149946   -55.581388
 0.590000   46.877699   -53.595283
 0.595000   46.613993   -52.004919
 0.600000   46.357649   -50.886084
 0.605000   46.105132   -50.192543
 0.610000   45.855724   -49.429647
 0.615000   45.610836   -48.626525
 0.620000   45.369459   -47.787969
 0.625000   45.132956   -46.978772
 0.630000   44.899671   -46.442710
 0.635000   44.668529   -45.985846
 0.640000   44.439813   -45.384155
 0.645000   44.214688   -45.258055
 0.650000   43.987232   -46.203161
 0.655000   43.752656   -48.098710
 0.660000   43.506245   -51.216439
 0.665000   43.240492   -55.524581
 0.670000   42.950999   -58.492054
 0.675000   42.655571   -60.243097
 0.680000   42.348568   -62.448943
 0.685000   42.031082   -64.378918
 0.690000   41.704779   -66.253127
 0.695000   41.368550   -68.411092
 0.700000   41.020668   -68.278012
 0.705000   40.685770   -66.788473
 0.710000   40.352783   -66.269750
 0.715000   40.023073   -65.435789
 0.720000   39.698425   -64.280473
 0.725000   39.380268   -62.231187
 0.730000   39.076113   -60.853730
 0.735000   38.771731   -61.470180
 0.740000   38.461412   -63.582596
 0.745000   38.135905   -67.626681
 0.750000   37.785145   -73.437408
 0.755000   37.401531   -79.582573
 0.760000   36.989319   -88.641674
 0.765000   36.515114   -100.381849
 0.770000   35.985501   -112.165265
 0.775000   35.393461   -125.045911
 0.780000   34.735042   -138.226021
 0.785000   34.011201   -151.762354
 0.790000   33.217418   -165.632292
 0.795000   32.354878   -178.589034
 0.800000   31.431528   -190.712723
 0.805000   30.447751   -202.948053
 0.810000   29.402047   -214.512009
 0.815000   28.302631   -224.992389
 0.820000   27.152123   -232.939274
 0.825000   25.973238   -237.302635
 0.830000   24.779097   -239.424146
 0.835000   23.578997   -240.079349
 0.840000   22.378303   -239.012473
 0.845000   21.188872   -237.239060
 0.850000   20.005913   -234.492649
 0.855000   18.843945   -230.409085
 0.860000   17.701822   -227.615453
 0.865000   16.567791   -228.307949
 0.870000   15.418742   -233.626111
 0.875000   14.231530   -247.414929
 0.880000   12.944593   -271.359673
 0.885000   11.517933   -304.004091
 0.890000   9.904552   -348.007731
 0.895000   8.037856   -403.120566
 0.900000   5.873347   -462.190772
 0.905000   3.415948   -521.328513
 0.910000   0.660061   -568.547768
 0.915000   -2.269530   -583.323446
 0.920000   -5.173173   -567.200807
 0.925000   -7.941538   -525.858671
 0.930000   -10.431760   -464.125582
 0.935000   -12.582794   -415.779079
 0.940000   -14.589550   -420.662836
 0.945000   -16.789422   -475.879877
 0.950000   -19.348349   -573.020549
 0.955000   -22.519627   -671.572225
 0.960000   -26.064072   -669.202451
 0.965000   -29.211652   -488.137928
 0.970000   -30.945451   -121.843019
 0.975000   -30.430082   352.989349
 0.980000   -27.415557   766.688206
 0.985000   -22.763200   987.003343
 0.990000   -17.545524   1007.814410
 0.995000   -12.685056   884.993168
 1.000000   -8.695592   710.792323
201 psinorm er(kV/m) der/dpsiN
 0.000000   0.960022   1353.405854
 0.005000   6.382647   815.644018
 0.010000   9.116462   484.346798
 0.015000   11.226115   387.423808
 0.020000   12.990700   332.946030
 0.025000   14.555575   297.838994
 0.030000   15.969090   270.847655
 0.035000   17.264051   249.606222
 0.040000   18.465152   232.494798
 0.045000   19.588999   218.148680
 0.050000   20.646639   206.963928
 0.055000   21.658639   196.958728
 0.060000   22.616226   186.184158
 0.065000   23.520480   177.025504
 0.070000   24.386481   171.145206
 0.075000   25.231932   163.729603
 0.080000   26.023777   156.266843
 0.085000   26.794601   152.498560
 0.090000   27.548763   144.742705
 0.095000   28.242028   140.800629
 0.100000   28.956769   137.042837
 0.105000   29.612456   132.454976
 0.110000   30.281319   129.302439
 0.115000   30.905481   125.423987
 0.120000   31.535559   122.432367
 0.125000   32.129804   119.134810
 0.130000   32.726907   116.089821
 0.135000   33.290702   113.483622
 0.140000   33.861743   110.136784
 0.145000   34.392070   108.091807
 0.150000   34.942661   104.367508
 0.155000   35.435745   102.789370
 0.160000   35.970555   98.752046
 0.165000   36.423266   95.996254
 0.170000   36.930518   95.038226
 0.175000   37.373648   89.942314
 0.180000   37.829941   89.858694
 0.185000   38.272235   84.130011
 0.190000   38.671241   83.629844
 0.195000   39.108533   79.217048
 0.200000   39.463411   75.778440
 0.205000   39.866318   77.335835
 0.210000   40.236770   70.838343
 0.215000   40.574701   71.028580
 0.220000   40.947055   67.393593
 0.225000   41.248637   63.662481
 0.230000   41.583680   65.932797
 0.235000   41.907965   59.512873
 0.240000   42.178809   58.444720
 0.245000   42.492412   59.178048
 0.250000   42.770590   54.064940
 0.255000   43.033062   55.122815
 0.260000   43.321818   52.515992
 0.265000   43.558222   49.010993
 0.270000   43.811928   51.624327
 0.275000   44.074465   46.142825
 0.280000   44.273356   43.033081
 0.285000   44.504796   45.178840
 0.290000   44.725144   38.313012
 0.295000   44.887926   35.113267
 0.300000   45.076277   35.780930
 0.305000   45.245735   28.831348
 0.310000   45.364590   25.681593
 0.315000   45.502551   25.964592
 0.320000   45.624236   20.217569
 0.325000   45.704727   17.905264
 0.330000   45.803289   18.550670
 0.335000   45.890233   13.636682
 0.340000   45.939656   11.636987
 0.345000   46.006603   12.586381
 0.350000   46.065520   7.807287
 0.355000   46.084676   5.094343
 0.360000   46.116463   5.647335
 0.365000   46.141150   1.295830
 0.370000   46.129421   -1.896418
 0.375000   46.122185   -2.156586
 0.380000   46.107855   -5.683039
 0.385000   46.065355   -9.589876
 0.390000   46.011957   -11.767239
 0.395000   45.947683   -16.496854
 0.400000   45.846988   -24.316655
 0.405000   45.704516   -31.559299
 0.410000   45.531395   -40.050888
 0.415000   45.304007   -51.690174
 0.420000   45.014493   -61.791186
 0.425000   44.686095   -70.610601
 0.430000   44.308387   -81.379786
 0.435000   43.872297   -90.417135
 0.440000   43.404216   -96.042192
 0.445000   42.911876   -99.960079
 0.450000   42.404615   -101.501394
 0.455000   41.896862   -99.338012
 0.460000   41.411235   -94.314668
 0.465000   40.953715   -88.497174
 0.470000   40.526263   -80.144246
 0.475000   40.152272   -70.580486
 0.480000   39.820459   -63.549225
 0.485000   39.516780   -57.556465
 0.490000   39.244894   -51.745289
 0.495000   38.999327   -47.638191
 0.500000   38.768512   -46.226207
 0.505000   38.537065   -45.509829
 0.510000   38.313414   -44.517697
 0.515000   38.091888   -45.222192
 0.520000   37.861192   -45.732839
 0.525000   37.634560   -45.088036
 0.530000   37.410311   -44.933330
 0.535000   37.185227   -45.328916
 0.540000   36.957022   -44.487297
 0.545000   36.740354   -42.531237
 0.550000   36.531710   -41.742865
 0.555000   36.322925   -40.333348
 0.560000   36.128376   -37.481764
 0.565000   35.948107   -35.050252
 0.570000   35.777874   -33.603837
 0.575000   35.612069   -31.459377
 0.580000   35.463280   -28.779697
 0.585000   35.324272   -27.852264
 0.590000   35.184757   -27.173127
 0.595000   35.052541   -25.617669
 0.600000   34.928581   -24.655264
 0.605000   34.805988   -25.475580
 0.610000   34.673825   -25.208764
 0.615000   34.553900   -23.754959
 0.620000   34.436275   -23.769153
 0.625000   34.316209   -24.191005
 0.630000   34.194365   -23.561405
 0.635000   34.080595   -22.599550
 0.640000   33.968370   -23.362359
 0.645000   33.846971   -23.842412
 0.650000   33.729946   -23.705534
 0.655000   33.609916   -25.117259
 0.660000   33.478773   -29.012470
 0.665000   33.319791   -32.423296
 0.670000   33.154540   -33.543234
 0.675000   32.984359   -35.643792
 0.680000   32.798102   -38.554910
 0.685000   32.598810   -39.619087
 0.690000   32.401911   -40.195041
 0.695000   32.196859   -43.242711
 0.700000   31.969484   -43.919950
 0.705000   31.757660   -41.675712
 0.710000   31.552727   -40.794208
 0.715000   31.349718   -42.130471
 0.720000   31.131422   -41.495064
 0.725000   30.934767   -38.166359
 0.730000   30.749759   -37.420445
 0.735000   30.560563   -39.692894
 0.740000   30.352830   -41.129575
 0.745000   30.149267   -42.804326
 0.750000   29.924787   -48.295874
 0.755000   29.666308   -54.495401
 0.760000   29.379833   -61.139240
 0.765000   29.054916   -69.533505
 0.770000   28.684498   -80.178829
 0.775000   28.253128   -91.517350
 0.780000   27.769324   -101.372295
 0.785000   27.239405   -111.786479
 0.790000   26.651459   -124.538463
 0.795000   25.994020   -135.935100
 0.800000   25.292108   -144.980210
 0.805000   24.544218   -154.830587
 0.810000   23.743802   -166.153851
 0.815000   22.882679   -175.611295
 0.820000   21.987690   -181.307239
 0.825000   21.069607   -185.143667
 0.830000   20.136253   -189.094827
 0.835000   19.178659   -190.573363
 0.840000   18.230519   -188.892908
 0.845000   17.289730   -187.936274
 0.850000   16.351156   -187.874884
 0.855000   15.410981   -185.370092
 0.860000   14.497456   -182.239816
 0.865000   13.588583   -183.349023
 0.870000   12.663965   -189.689275
 0.875000   11.691690   -201.773399
 0.880000   10.646231   -220.734002
 0.885000   9.484350   -248.076865
 0.890000   8.165463   -285.861183
 0.895000   6.625738   -331.899445
 0.900000   4.846468   -380.225807
 0.905000   2.823480   -429.658345
 0.910000   0.549885   -469.565897
 0.915000   -1.872179   -481.827952
 0.920000   -4.268395   -468.518299
 0.925000   -6.557362   -437.658582
 0.930000   -8.644981   -396.870974
 0.935000   -10.526072   -357.372660
 0.940000   -12.218707   -354.597809
 0.945000   -14.072050   -411.839765
 0.950000   -16.337105   -546.784427
 0.955000   -19.539894   -631.672755
 0.960000   -22.653832   -590.599939
 0.965000   -25.445893   -437.391189
 0.970000   -27.027744   -172.679939
 0.975000   -27.172693   250.606704
 0.980000   -24.521677   677.581474
 0.985000   -20.396878   877.830426
 0.990000   -15.743373   900.778687
 0.995000   -11.389091   792.164653
 1.000000   -7.821726   634.781288
201 psinorm ommvb() dommvb/dpsiN
 0.000000   -51.167878   14304.474929
 0.005000   17.322127   13091.527029
 0.010000   79.747392   10878.514870
 0.015000   126.107275   8800.556128
 0.020000   167.752953   7727.556584
 0.025000   203.382841   6743.891516
 0.030000   235.191869   6014.310117
 0.035000   263.525942   5323.179558
 0.040000   288.423664   4695.436479
 0.045000   310.480307   4289.009662
 0.050000   331.313761   3666.428804
 0.055000   347.144595   3297.545749
 0.060000   364.289218   3032.764843
 0.065000   377.472244   2607.240086
 0.070000   390.361619   2391.100325
 0.075000   401.383247   2046.484831
 0.080000   410.826467   1771.270847
 0.085000   419.095955   1551.996463
 0.090000   426.346432   1302.824232
 0.095000   432.124198   1065.927218
 0.100000   437.005704   913.757310
 0.105000   441.261771   772.992786
 0.110000   444.735632   556.707476
 0.115000   446.828846   315.203736
 0.120000   447.887669   133.889310
 0.125000   448.167739   -47.969165
 0.130000   447.407978   -207.161182
 0.135000   446.096127   -356.627422
 0.140000   443.841704   -578.902091
 0.145000   440.307106   -667.665101
 0.150000   437.165053   -720.025998
 0.155000   433.106846   -851.964964
 0.160000   428.645403   -930.615247
 0.165000   423.800694   -1013.000185
 0.170000   418.515401   -1090.901954
 0.175000   412.891674   -1114.732016
 0.180000   407.368081   -1130.015432
 0.185000   401.591520   -1204.454234
 0.190000   395.323539   -1291.993988
 0.195000   388.671580   -1344.721951
 0.200000   381.876319   -1367.647741
 0.205000   374.995102   -1450.310833
 0.210000   367.373211   -1592.464224
 0.215000   359.070460   -1528.033049
 0.220000   352.092880   -1427.384709
 0.225000   344.796613   -1449.899186
 0.230000   337.593888   -1411.833908
 0.235000   330.678274   -1354.775137
 0.240000   324.046137   -1473.690217
 0.245000   315.941372   -1493.490655
 0.250000   309.111231   -1284.943186
 0.255000   303.091940   -1184.849628
 0.260000   297.262734   -1146.809103
 0.265000   291.623849   -1138.268961
 0.270000   285.880045   -1247.614019
 0.275000   279.147709   -1133.896665
 0.280000   274.541078   -910.349847
 0.285000   270.044210   -885.349410
 0.290000   265.687584   -865.069377
 0.295000   261.393516   -960.842086
 0.300000   256.079163   -871.705520
 0.305000   252.676461   -658.900303
 0.310000   249.490160   -616.876675
 0.315000   246.507695   -619.917477
 0.320000   243.290985   -638.802957
 0.325000   240.119665   -516.198768
 0.330000   238.128998   -380.799769
 0.335000   236.311667   -348.165424
 0.340000   234.647343   -384.914513
 0.345000   232.462522   -349.331620
 0.350000   231.154027   -230.954821
 0.355000   230.152974   -186.917009
 0.360000   229.284857   -179.660010
 0.365000   228.356374   -165.895500
 0.370000   227.625902   -103.161371
 0.375000   227.324760   -49.807180
 0.380000   227.127830   -31.001351
 0.385000   227.014747   -32.348956
 0.390000   226.804341   -10.969480
 0.395000   226.905052   27.712510
 0.400000   227.081466   41.991630
 0.405000   227.324968   40.570253
 0.410000   227.487168   40.637586
 0.415000   227.731344   47.328805
 0.420000   227.960456   42.978136
 0.425000   228.161125   33.959402
 0.430000   228.300050   29.810700
 0.435000   228.459232   30.157227
 0.440000   228.601623   28.420905
 0.445000   228.743441   32.322768
 0.450000   228.924850   41.925588
 0.455000   229.162697   57.452581
 0.460000   229.499376   74.412529
 0.465000   229.906823   88.205706
 0.470000   230.381433   110.418681
 0.475000   231.011009   134.126781
 0.480000   231.722701   151.669955
 0.485000   232.527709   169.745367
 0.490000   233.420155   187.932293
 0.495000   234.407032   197.813613
 0.500000   235.398291   201.654622
 0.505000   236.423578   207.789796
 0.510000   237.476189   215.806345
 0.515000   238.581642   223.285774
 0.520000   239.709046   226.454799
 0.525000   240.846190   230.495967
 0.530000   242.014006   240.789771
 0.535000   243.254087   252.859939
 0.540000   244.542606   261.542515
 0.545000   245.869512   273.576099
 0.550000   247.278367   291.612465
 0.555000   248.785637   314.546274
 0.560000   250.423829   326.062178
 0.565000   252.046259   334.267555
 0.570000   253.766505   353.762450
 0.575000   255.583883   382.278256
 0.580000   257.589287   414.973329
 0.585000   259.733617   428.207092
 0.590000   261.871358   441.549202
 0.595000   264.149109   471.000801
 0.600000   266.581366   499.924907
 0.605000   269.148358   525.258859
 0.610000   271.833955   544.406324
 0.615000   274.592421   566.326051
 0.620000   277.497215   600.323790
 0.625000   280.595659   667.065735
 0.630000   284.167873   687.075773
 0.635000   287.466417   675.633259
 0.640000   290.924205   707.035408
 0.645000   294.536771   736.531421
 0.650000   298.289520   806.926308
 0.655000   302.606034   837.399520
 0.660000   306.663515   826.918362
 0.665000   310.875217   859.027256
 0.670000   315.253787   895.259053
 0.675000   319.827808   970.832735
 0.680000   324.962115   1034.594705
 0.685000   330.173755   1039.462184
 0.690000   335.356737   1054.431380
 0.695000   340.718069   1091.472226
 0.700000   346.271459   1133.363615
 0.705000   352.051705   1212.496027
 0.710000   358.396419   1244.533959
 0.715000   364.497044   1240.249437
 0.720000   370.798913   1281.653717
 0.725000   377.313582   1324.192927
 0.730000   384.040843   1362.829377
 0.735000   390.941875   1419.301708
 0.740000   398.233860   1442.842062
 0.745000   405.370296   1438.947081
 0.750000   412.623331   1467.101015
 0.755000   420.041306   1503.168344
 0.760000   427.655014   1539.363579
 0.765000   435.434942   1572.690529
 0.770000   443.381919   1611.074387
 0.775000   451.545686   1664.996811
 0.780000   460.031887   1726.191049
 0.785000   468.807596   1789.178131
 0.790000   477.923669   1863.882418
 0.795000   487.446420   1947.870081
 0.800000   497.402370   2029.874323
 0.805000   507.745164   2099.825632
 0.810000   518.400626   2177.256174
 0.815000   529.517725   2296.148218
 0.820000   541.362108   2439.134352
 0.825000   553.909069   2590.988823
 0.830000   567.271996   2758.544806
 0.835000   581.494517   2933.535698
 0.840000   596.607353   3121.295280
 0.845000   612.707470   3329.152976
 0.850000   629.898883   3562.117720
 0.855000   648.328647   3836.422796
 0.860000   668.263111   4094.552066
 0.865000   689.274168   4381.352837
 0.870000   712.076639   4813.326727
 0.875000   737.407435   5319.439331
 0.880000   765.271033   5855.416793
 0.885000   795.961603   6457.880145
 0.890000   829.849834   7147.176080
 0.895000   867.433364   7937.318005
 0.900000   909.223014   8797.962213
 0.905000   955.412986   9711.101651
 0.910000   1006.334031   10657.572325
 0.915000   1061.988709   11510.393573
 0.920000   1121.437966   12081.613942
 0.925000   1182.804848   12191.615128
 0.930000   1243.354118   11866.159235
 0.935000   1301.466441   11700.661170
 0.940000   1360.360729   13296.119931
 0.945000   1434.427640   19263.273173
 0.950000   1552.993461   32069.205760
 0.955000   1755.119698   51259.541752
 0.960000   2065.588879   71859.931225
 0.965000   2473.719010   86226.480710
 0.970000   2927.853686   88219.338425
 0.975000   3355.912394   75532.471458
 0.980000   3683.178400   57029.454539
 0.985000   3926.206940   56538.989098
 0.990000   4248.568291   86995.238364
 0.995000   4796.159323   402768.703349
 1.000000   8276.255325   989269.697253
201 psinorm ommpp() dommpp/dpsiN
 0.000000   129.154511   -14220.933780
 0.005000   60.954343   -13059.133638
 0.010000   -1.436825   -10874.508603
 0.015000   -47.790743   -8801.071173
 0.020000   -89.447537   -7730.312669
 0.025000   -125.093870   -6747.963596
 0.030000   -156.927173   -6019.844782
 0.035000   -185.292318   -5329.851539
 0.040000   -210.225688   -4703.109831
 0.045000   -232.323416   -4297.746226
 0.050000   -253.203150   -3675.957191
 0.055000   -269.082988   -3307.500716
 0.060000   -286.278157   -3043.679256
 0.065000   -299.519780   -2619.339519
 0.070000   -312.471553   -2403.922116
 0.075000   -323.559002   -2059.987967
 0.080000   -333.071432   -1785.370181
 0.085000   -341.412703   -1566.427423
 0.090000   -348.735706   -1317.677018
 0.095000   -354.589474   -1080.882427
 0.100000   -359.544531   -928.115080
 0.105000   -363.870624   -786.443188
 0.110000   -367.408963   -569.092745
 0.115000   -369.561552   -326.577564
 0.120000   -370.674738   -144.396519
 0.125000   -371.005517   38.106562
 0.130000   -370.293673   197.978988
 0.135000   -369.025727   347.891628
 0.140000   -366.814756   570.388369
 0.145000   -363.321843   659.254278
 0.150000   -360.222214   711.374217
 0.155000   -356.208101   842.934611
 0.160000   -351.792867   921.116307
 0.165000   -346.996938   1002.909049
 0.170000   -341.763777   1079.964966
 0.175000   -336.197289   1102.690637
 0.180000   -330.736871   1116.504352
 0.185000   -325.032245   1189.535243
 0.190000   -318.841518   1275.967774
 0.195000   -312.272567   1327.546931
 0.200000   -305.566049   1349.522738
 0.205000   -298.777340   1430.935533
 0.210000   -291.256694   1572.008674
 0.215000   -283.057253   1506.967715
 0.220000   -276.187016   1405.456515
 0.225000   -269.002688   1427.132577
 0.230000   -261.915691   1388.209516
 0.235000   -255.120593   1330.171756
 0.240000   -248.613973   1448.656779
 0.245000   -240.634025   1468.454048
 0.250000   -233.929433   1259.854349
 0.255000   -228.035482   1159.673074
 0.260000   -222.332702   1121.350684
 0.265000   -216.821975   1112.644503
 0.270000   -211.206257   1221.643052
 0.275000   -204.605544   1106.969509
 0.280000   -200.136562   881.997398
 0.285000   -195.785570   855.016330
 0.290000   -191.586398   832.303233
 0.295000   -187.462538   925.452981
 0.300000   -182.331869   833.263749
 0.305000   -179.129900   617.160710
 0.310000   -176.160262   572.186679
 0.315000   -173.408034   572.610946
 0.320000   -170.434152   589.454107
 0.325000   -167.513493   465.212693
 0.330000   -165.782025   328.161289
 0.335000   -164.231880   294.301335
 0.340000   -162.839012   330.097717
 0.345000   -160.930902   293.295407
 0.350000   -159.906058   173.506871
 0.355000   -159.195834   127.766180
 0.360000   -158.628396   118.760039
 0.365000   -158.008233   103.286064
 0.370000   -157.595535   38.566757
 0.375000   -157.622566   -16.858890
 0.380000   -157.764124   -37.849792
 0.385000   -158.001064   -39.123264
 0.390000   -158.155357   -64.041318
 0.395000   -158.641477   -108.499871
 0.400000   -159.240356   -130.781019
 0.405000   -159.949287   -138.978974
 0.410000   -160.630145   -151.368805
 0.415000   -161.462975   -171.536785
 0.420000   -162.345513   -179.974041
 0.425000   -163.262716   -183.885906
 0.430000   -164.184372   -192.006410
 0.435000   -165.182780   -202.801756
 0.440000   -166.212390   -208.835694
 0.445000   -167.271137   -216.232234
 0.450000   -168.374712   -225.064727
 0.455000   -169.521784   -236.164832
 0.460000   -170.736360   -245.198951
 0.465000   -171.973773   -247.956525
 0.470000   -173.215926   -256.674078
 0.475000   -174.540514   -266.841213
 0.480000   -175.884338   -272.505410
 0.485000   -177.265568   -280.350655
 0.490000   -178.687844   -290.199006
 0.495000   -180.167558   -293.665978
 0.500000   -181.624504   -293.549061
 0.505000   -183.103049   -297.796706
 0.510000   -184.602471   -304.688960
 0.515000   -186.149939   -311.356457
 0.520000   -187.716036   -313.905788
 0.525000   -189.288996   -317.285738
 0.530000   -190.888893   -326.678848
 0.535000   -192.555785   -337.537978
 0.540000   -194.264273   -344.488689
 0.545000   -196.000672   -354.245161
 0.550000   -197.806725   -369.593752
 0.555000   -199.696609   -389.508610
 0.560000   -201.701811   -397.608643
 0.565000   -203.672696   -402.107557
 0.570000   -205.722886   -418.026766
 0.575000   -207.852963   -443.288872
 0.580000   -210.155775   -473.070704
 0.585000   -212.583670   -483.788480
 0.590000   -214.993660   -495.144485
 0.595000   -217.535115   -523.005721
 0.600000   -220.223717   -550.810991
 0.605000   -223.043225   -575.451402
 0.610000   -225.978231   -593.835972
 0.615000   -228.981585   -614.952576
 0.620000   -232.127757   -648.111759
 0.625000   -235.462703   -714.044507
 0.630000   -239.268202   -733.518483
 0.635000   -242.797887   -721.619105
 0.640000   -246.484393   -752.419563
 0.645000   -250.322083   -781.789476
 0.650000   -254.302288   -853.129469
 0.655000   -258.853378   -885.498230
 0.660000   -263.157270   -878.134801
 0.665000   -267.634726   -914.551837
 0.670000   -272.302788   -953.751107
 0.675000   -277.172237   -1031.075832
 0.680000   -282.613547   -1097.043648
 0.685000   -288.142673   -1103.841102
 0.690000   -293.651958   -1120.684508
 0.695000   -299.349518   -1159.883319
 0.700000   -305.250791   -1201.641627
 0.705000   -311.365935   -1279.284500
 0.710000   -318.043636   -1310.803709
 0.715000   -324.473972   -1305.685226
 0.720000   -331.100488   -1345.934190
 0.725000   -337.933314   -1386.424114
 0.730000   -344.964729   -1423.683107
 0.735000   -352.170145   -1480.771889
 0.740000   -359.772448   -1506.424659
 0.745000   -367.234391   -1506.573762
 0.750000   -374.838186   -1540.538423
 0.755000   -382.639775   -1582.750918
 0.760000   -390.665695   -1628.005253
 0.765000   -398.919828   -1673.072378
 0.770000   -407.396419   -1723.239652
 0.775000   -416.152225   -1790.042722
 0.780000   -425.296846   -1864.417070
 0.785000   -434.796395   -1940.940485
 0.790000   -444.706251   -2029.514710
 0.795000   -455.091542   -2126.459116
 0.800000   -465.970842   -2220.587046
 0.805000   -477.297413   -2302.773685
 0.810000   -488.998579   -2391.768183
 0.815000   -501.215095   -2521.140607
 0.820000   -514.209985   -2672.073626
 0.825000   -527.935831   -2828.291458
 0.830000   -542.492899   -2997.968952
 0.835000   -557.915520   -3173.615046
 0.840000   -574.229050   -3360.307752
 0.845000   -591.518598   -3566.392036
 0.850000   -609.892970   -3796.610369
 0.855000   -629.484702   -4066.831881
 0.860000   -650.561289   -4322.167519
 0.865000   -672.706377   -4609.660787
 0.870000   -696.657897   -5046.952839
 0.875000   -723.175905   -5566.854259
 0.880000   -752.326439   -6126.776465
 0.885000   -784.443670   -6761.884236
 0.890000   -819.945282   -7495.183810
 0.895000   -859.395508   -8340.438571
 0.900000   -903.349668   -9260.152985
 0.905000   -951.997038   -10232.430165
 0.910000   -1005.673969   -11226.120093
 0.915000   -1064.258239   -12093.717019
 0.920000   -1126.611139   -12648.814749
 0.925000   -1190.746386   -12717.473800
 0.930000   -1253.785877   -12330.284816
 0.935000   -1314.049234   -12116.440249
 0.940000   -1374.950280   -13716.782767
 0.945000   -1451.217062   -19739.153050
 0.950000   -1572.341810   -32642.226309
 0.955000   -1777.639325   -51931.113977
 0.960000   -2091.652950   -72529.133676
 0.965000   -2502.930662   -86714.618638
 0.970000   -2958.799137   -88341.181444
 0.975000   -3386.342476   -75179.482109
 0.980000   -3710.593958   -56262.766333
 0.985000   -3948.970140   -55551.985755
 0.990000   -4266.113815   -85987.423954
 0.995000   -4808.844379   -401883.710182
 1.000000   -8284.950917   -988558.904930
201 psinorm omevb() domevb/dpsiN
 0.000000   68.583850   68.286405
 0.005000   68.784379   11.924879
 0.010000   68.703099   -18.989910
 0.015000   68.594479   -23.351100
 0.020000   68.469588   -25.428670
 0.025000   68.340193   -26.577881
 0.030000   68.203809   -27.870406
 0.035000   68.061489   -28.834418
 0.040000   67.915465   -29.659281
 0.045000   67.764896   -30.542815
 0.050000   67.610037   -31.151832
 0.055000   67.453378   -31.392515
 0.060000   67.296112   -32.163013
 0.065000   67.131747   -33.156076
 0.070000   66.964551   -33.683506
 0.075000   66.794912   -34.166998
 0.080000   66.622881   -34.562458
 0.085000   66.449288   -34.690504
 0.090000   66.275976   -34.905955
 0.095000   66.100228   -34.799250
 0.100000   65.927984   -33.989975
 0.105000   65.760328   -32.868109
 0.110000   65.599302   -31.585863
 0.115000   65.444470   -30.354741
 0.120000   65.295755   -29.265920
 0.125000   65.151811   -28.396641
 0.130000   65.011789   -27.489134
 0.135000   64.876919   -26.813261
 0.140000   64.743656   -26.359391
 0.145000   64.613325   -26.022419
 0.150000   64.483432   -26.027081
 0.155000   64.353055   -26.167182
 0.160000   64.221760   -26.395177
 0.165000   64.089103   -26.744711
 0.170000   63.954313   -27.345885
 0.175000   63.815644   -28.203631
 0.180000   63.672277   -29.424777
 0.185000   63.521396   -30.582273
 0.190000   63.366454   -31.437277
 0.195000   63.207023   -32.332113
 0.200000   63.043133   -33.026432
 0.205000   62.876759   -34.019422
 0.210000   62.702939   -34.840779
 0.215000   62.528351   -35.190139
 0.220000   62.351037   -35.791099
 0.225000   62.170440   -36.366196
 0.230000   61.987375   -36.959294
 0.235000   61.800847   -37.672290
 0.240000   61.610652   -37.835104
 0.245000   61.422496   -37.569833
 0.250000   61.234954   -37.352484
 0.255000   61.048972   -37.169540
 0.260000   60.863259   -37.179717
 0.265000   60.677174   -37.073099
 0.270000   60.492528   -37.146039
 0.275000   60.305714   -37.827804
 0.280000   60.114250   -38.977875
 0.285000   59.915935   -40.682542
 0.290000   59.707424   -42.838956
 0.295000   59.487546   -45.184641
 0.300000   59.255578   -47.959459
 0.305000   59.007951   -50.978919
 0.310000   58.745789   -53.650502
 0.315000   58.471446   -55.987817
 0.320000   58.185910   -57.750571
 0.325000   57.893940   -59.107943
 0.330000   57.594831   -60.480262
 0.335000   57.289138   -61.425611
 0.340000   56.980575   -62.097937
 0.345000   56.668158   -63.036908
 0.350000   56.350206   -64.168191
 0.355000   56.026476   -65.590662
 0.360000   55.694299   -67.059499
 0.365000   55.355881   -68.488814
 0.370000   55.009411   -70.194053
 0.375000   54.653941   -71.985835
 0.380000   54.289553   -73.891553
 0.385000   53.915025   -76.233647
 0.390000   53.527216   -79.493668
 0.395000   53.120089   -84.992153
 0.400000   52.677295   -92.716634
 0.405000   52.192922   -102.059002
 0.410000   51.656705   -114.105172
 0.415000   51.051871   -127.306292
 0.420000   50.383642   -139.819313
 0.425000   49.653678   -152.475796
 0.430000   48.858884   -164.471725
 0.435000   48.008960   -174.648155
 0.440000   47.112402   -182.146963
 0.445000   46.187491   -185.371174
 0.450000   45.258690   -184.331416
 0.455000   44.344176   -179.636178
 0.460000   43.462329   -171.443128
 0.465000   42.629745   -160.141480
 0.470000   41.860914   -146.381236
 0.475000   41.165933   -132.576716
 0.480000   40.535147   -120.435497
 0.485000   39.961578   -109.944445
 0.490000   39.435702   -101.346386
 0.495000   38.948114   -94.673999
 0.500000   38.488962   -90.459520
 0.505000   38.043519   -88.316968
 0.510000   37.605793   -86.939221
 0.515000   37.174127   -85.875449
 0.520000   36.747038   -85.005566
 0.525000   36.324071   -84.095849
 0.530000   35.906080   -82.948388
 0.535000   35.494587   -81.492349
 0.540000   35.091156   -79.517290
 0.545000   34.699414   -76.998827
 0.550000   34.321168   -74.071580
 0.555000   33.958698   -70.815068
 0.560000   33.613017   -67.163586
 0.565000   33.287062   -63.223493
 0.570000   32.980782   -59.416191
 0.575000   32.692901   -55.932922
 0.580000   32.421453   -52.792190
 0.585000   32.164979   -50.050818
 0.590000   31.920945   -47.841466
 0.595000   31.686564   -46.030018
 0.600000   31.460645   -44.692290
 0.605000   31.239641   -43.782070
 0.610000   31.022824   -42.804735
 0.615000   30.811594   -41.789433
 0.620000   30.604930   -40.740976
 0.625000   30.404184   -39.724175
 0.630000   30.207688   -38.982818
 0.635000   30.014356   -38.322979
 0.640000   29.824458   -37.520637
 0.645000   29.639149   -37.196210
 0.650000   29.452496   -37.945306
 0.655000   29.259696   -39.647148
 0.660000   29.056024   -42.573446
 0.665000   28.833962   -46.692392
 0.670000   28.589101   -49.472850
 0.675000   28.339233   -51.038982
 0.680000   28.078711   -53.061914
 0.685000   27.808614   -54.810838
 0.690000   27.530602   -56.505677
 0.695000   27.243558   -58.485718
 0.700000   26.945745   -58.175854
 0.705000   26.661799   -56.510281
 0.710000   26.380642   -55.815767
 0.715000   26.103641   -54.805611
 0.720000   25.832586   -53.472866
 0.725000   25.568913   -51.243858
 0.730000   25.320148   -49.683031
 0.735000   25.072082   -50.110738
 0.740000   24.819040   -52.026839
 0.745000   24.551814   -55.864242
 0.750000   24.260398   -61.454371
 0.755000   23.937270   -67.360520
 0.760000   23.586793   -76.156489
 0.765000   23.175705   -87.602220
 0.770000   22.710770   -99.050810
 0.775000   22.185197   -111.544849
 0.780000   21.595322   -124.272290
 0.785000   20.942474   -137.272068
 0.790000   20.222601   -150.499412
 0.795000   19.437480   -162.680139
 0.800000   18.595800   -173.860750
 0.805000   17.698873   -184.944930
 0.810000   16.746351   -195.100139
 0.815000   15.747871   -203.855074
 0.820000   14.707800   -209.690370
 0.825000   13.650968   -211.476043
 0.830000   12.593039   -210.464303
 0.835000   11.546325   -207.334713
 0.840000   10.519692   -201.735327
 0.845000   9.528971   -194.596936
 0.850000   8.573723   -185.599761
 0.855000   7.672974   -174.390687
 0.860000   6.829816   -163.724834
 0.865000   6.035725   -156.125667
 0.870000   5.268559   -153.385315
 0.875000   4.501872   -160.516576
 0.880000   3.663394   -181.168183
 0.885000   2.690190   -217.047291
 0.890000   1.492921   -275.740571
 0.895000   -0.067215   -364.436029
 0.900000   -2.151440   -486.839095
 0.905000   -4.935606   -654.263366
 0.910000   -8.694073   -874.816582
 0.915000   -13.683772   -1152.239433
 0.920000   -20.216468   -1512.927130
 0.925000   -28.813043   -1979.172551
 0.930000   -40.008193   -2547.843549
 0.935000   -54.291479   -3196.792323
 0.940000   -71.976116   -3839.556070
 0.945000   -92.687040   -4274.451072
 0.950000   -114.720627   -4264.830526
 0.955000   -135.335345   -3608.252429
 0.960000   -150.803151   -2218.569957
 0.965000   -157.521044   -264.503114
 0.970000   -153.448182   1849.366660
 0.975000   -139.027378   3634.547911
 0.980000   -117.102703   4678.444419
 0.985000   -92.242934   4852.458539
 0.990000   -68.578118   4351.602905
 0.995000   -48.726905   3501.352116
 1.000000   -33.564597   2563.570993
201 psinorm omepp() domepp/dpsiN
 0.000000   9.402783   15.254744
 0.005000   9.492091   20.468512
 0.010000   9.607468   22.996177
 0.015000   9.722053   22.836055
 0.020000   9.835829   22.672585
 0.025000   9.948779   22.505802
 0.030000   10.060887   22.335741
 0.035000   10.172136   22.162437
 0.040000   10.282511   21.985928
 0.045000   10.391995   21.806251
 0.050000   10.500574   21.623445
 0.055000   10.608230   21.437548
 0.060000   10.714949   21.248600
 0.065000   10.820716   21.056642
 0.070000   10.925515   20.861716
 0.075000   11.029333   20.663862
 0.080000   11.132154   20.463124
 0.085000   11.233964   20.259545
 0.090000   11.334750   20.053169
 0.095000   11.434496   19.844040
 0.100000   11.533190   19.632204
 0.105000   11.630818   19.417707
 0.110000   11.727367   19.200594
 0.115000   11.822824   18.980913
 0.120000   11.917176   18.758712
 0.125000   12.010411   18.534038
 0.130000   12.102516   18.306940
 0.135000   12.193480   18.077467
 0.140000   12.283291   17.845669
 0.145000   12.371937   17.611597
 0.150000   12.459407   17.375300
 0.155000   12.545690   17.136829
 0.160000   12.630775   16.896237
 0.165000   12.714653   16.653576
 0.170000   12.797311   16.408896
 0.175000   12.878741   16.162252
 0.180000   12.958934   15.913696
 0.185000   13.037878   15.663282
 0.190000   13.115567   15.411063
 0.195000   13.191989   15.157094
 0.200000   13.267137   14.901429
 0.205000   13.341003   14.644122
 0.210000   13.413579   14.385229
 0.215000   13.484856   14.124805
 0.220000   13.554827   13.862906
 0.225000   13.623485   13.599586
 0.230000   13.690823   13.334902
 0.235000   13.756834   13.068910
 0.240000   13.821512   12.801665
 0.245000   13.884850   12.533226
 0.250000   13.946844   12.263647
 0.255000   14.007487   11.992985
 0.260000   14.066774   11.721298
 0.265000   14.124700   11.448641
 0.270000   14.181260   11.175073
 0.275000   14.236451   10.900649
 0.280000   14.290267   10.625426
 0.285000   14.342705   10.349462
 0.290000   14.393761   10.072813
 0.295000   14.443433   9.795536
 0.300000   14.491717   9.517688
 0.305000   14.538610   9.239326
 0.310000   14.584110   8.960506
 0.315000   14.628215   8.681286
 0.320000   14.670923   8.401721
 0.325000   14.712232   8.121867
 0.330000   14.752141   7.841782
 0.335000   14.790650   7.561521
 0.340000   14.827757   7.281140
 0.345000   14.863461   7.000695
 0.350000   14.897764   6.720241
 0.355000   14.930664   6.439834
 0.360000   14.962162   6.159528
 0.365000   14.992259   5.879378
 0.370000   15.020956   5.599439
 0.375000   15.048253   5.319765
 0.380000   15.074153   5.040410
 0.385000   15.098657   4.761427
 0.390000   15.121768   4.482870
 0.395000   15.143486   4.204792
 0.400000   15.163816   3.927245
 0.405000   15.182759   3.650282
 0.410000   15.200318   3.373953
 0.415000   15.216498   3.098312
 0.420000   15.231302   2.823408
 0.425000   15.244732   2.549292
 0.430000   15.256794   2.276015
 0.435000   15.267492   2.003626
 0.440000   15.276831   1.732174
 0.445000   15.284814   1.461708
 0.450000   15.291448   1.192276
 0.455000   15.296737   0.923927
 0.460000   15.300687   0.656706
 0.465000   15.303304   0.390661
 0.470000   15.304594   0.125839
 0.475000   15.304562   -0.137716
 0.480000   15.303216   -0.399958
 0.485000   15.300563   -0.660843
 0.490000   15.296608   -0.920327
 0.495000   15.291359   -1.178366
 0.500000   15.284824   -1.434918
 0.505000   15.277010   -1.689941
 0.510000   15.267925   -1.943394
 0.515000   15.257576   -2.195235
 0.520000   15.245973   -2.445424
 0.525000   15.233122   -2.693922
 0.530000   15.219033   -2.940690
 0.535000   15.203715   -3.185689
 0.540000   15.187177   -3.428883
 0.545000   15.169426   -3.670235
 0.550000   15.150474   -3.909708
 0.555000   15.130329   -4.147268
 0.560000   15.109001   -4.382880
 0.565000   15.086501   -4.616509
 0.570000   15.062836   -4.848125
 0.575000   15.038019   -5.077694
 0.580000   15.012059   -5.305185
 0.585000   14.984967   -5.530569
 0.590000   14.956754   -5.753817
 0.595000   14.927429   -5.974901
 0.600000   14.897005   -6.193795
 0.605000   14.865491   -6.410473
 0.610000   14.832900   -6.624913
 0.615000   14.799242   -6.837092
 0.620000   14.764529   -7.046992
 0.625000   14.728772   -7.254597
 0.630000   14.691983   -7.459892
 0.635000   14.654173   -7.662868
 0.640000   14.615354   -7.863519
 0.645000   14.575538   -8.061845
 0.650000   14.534736   -8.257855
 0.655000   14.492960   -8.451562
 0.660000   14.450220   -8.642994
 0.665000   14.406530   -8.832189
 0.670000   14.361899   -9.019204
 0.675000   14.316338   -9.204116
 0.680000   14.269857   -9.387029
 0.685000   14.222467   -9.568080
 0.690000   14.174177   -9.747450
 0.695000   14.124993   -9.925374
 0.700000   14.074923   -10.102158
 0.705000   14.023971   -10.278192
 0.710000   13.972141   -10.453983
 0.715000   13.919431   -10.630178
 0.720000   13.865839   -10.807607
 0.725000   13.811355   -10.987329
 0.730000   13.755966   -11.170699
 0.735000   13.699648   -11.359442
 0.740000   13.642371   -11.555757
 0.745000   13.584091   -11.762439
 0.750000   13.524747   -11.983037
 0.755000   13.464260   -12.222053
 0.760000   13.402526   -12.485185
 0.765000   13.339409   -12.779629
 0.770000   13.274730   -13.114455
 0.775000   13.208264   -13.501062
 0.780000   13.139720   -13.953731
 0.785000   13.068727   -14.490286
 0.790000   12.994817   -15.132880
 0.795000   12.917398   -15.908895
 0.800000   12.835728   -16.851973
 0.805000   12.748878   -18.003123
 0.810000   12.655697   -19.411871
 0.815000   12.554759   -21.137315
 0.820000   12.444323   -23.248904
 0.825000   12.322270   -25.826592
 0.830000   12.186057   -28.959844
 0.835000   12.032672   -32.744635
 0.840000   11.858611   -37.277146
 0.845000   11.659901   -42.642124
 0.850000   11.432190   -48.892888
 0.855000   11.170972   -56.018398
 0.860000   10.872006   -63.890618
 0.865000   10.532065   -72.182282
 0.870000   10.150183   -80.240797
 0.875000   9.729658   -86.898352
 0.880000   9.281200   -90.191490
 0.885000   8.827743   -86.956800
 0.890000   8.411632   -72.267159
 0.895000   8.105071   -38.684537
 0.900000   8.024786   24.648323
 0.905000   8.351554   132.934852
 0.910000   9.354135   306.268813
 0.915000   11.414242   568.915987
 0.920000   15.043295   945.726323
 0.925000   20.871506   1453.313879
 0.930000   29.576433   2083.717968
 0.935000   41.708685   2781.013244
 0.940000   57.386566   3418.893234
 0.945000   75.897618   3798.571195
 0.950000   95.372278   3691.809977
 0.955000   112.815717   2936.680204
 0.960000   124.739080   1549.367506
 0.965000   128.309392   -223.634814
 0.970000   122.502732   -1971.209680
 0.975000   108.597296   -3281.558563
 0.980000   89.687146   -3911.756213
 0.985000   69.479734   -3865.455196
 0.990000   51.032594   -3343.788495
 0.995000   36.041849   -2616.358949
 1.000000   24.869005   -1852.778671
201 psinorm kpol(km/s/T) dkpol/dpsiN
 0.000000   0.006981   103.915005
 0.005000   0.427721   64.381021
 0.010000   0.650791   43.101640
 0.015000   0.858737   41.058350
 0.020000   1.061374   41.060795
 0.025000   1.269345   41.677041
 0.030000   1.478145   41.801167
 0.035000   1.687357   41.877015
 0.040000   1.896915   41.638098
 0.045000   2.103738   40.894449
 0.050000   2.305860   39.872668
 0.055000   2.502465   38.678929
 0.060000   2.692649   36.995395
 0.065000   2.872418   35.085702
 0.070000   3.043506   33.309131
 0.075000   3.205510   31.462043
 0.080000   3.358126   29.544580
 0.085000   3.500956   27.765389
 0.090000   3.635780   26.434465
 0.095000   3.765300   25.704706
 0.100000   3.892827   25.444577
 0.105000   4.019746   25.594098
 0.110000   4.148768   26.006769
 0.115000   4.279814   26.508563
 0.120000   4.413854   27.069210
 0.125000   4.550506   27.266383
 0.130000   4.686518   27.264216
 0.135000   4.823148   26.963518
 0.140000   4.956153   26.385670
 0.145000   5.087005   25.628978
 0.150000   5.212443   24.479302
 0.155000   5.331798   23.178483
 0.160000   5.444227   21.750003
 0.165000   5.549298   20.214646
 0.170000   5.646374   18.467365
 0.175000   5.733971   16.660297
 0.180000   5.812977   14.857451
 0.185000   5.882546   13.283641
 0.190000   5.945813   12.006373
 0.195000   6.002610   10.711333
 0.200000   6.052927   9.672990
 0.205000   6.099339   8.718311
 0.210000   6.140110   7.592805
 0.215000   6.175268   6.237315
 0.220000   6.202483   4.521875
 0.225000   6.220486   2.616654
 0.230000   6.228649   0.438120
 0.235000   6.224867   -1.807362
 0.240000   6.210576   -4.067467
 0.245000   6.184193   -6.527910
 0.250000   6.145297   -8.821693
 0.255000   6.095976   -11.104760
 0.260000   6.034249   -13.572888
 0.265000   5.960247   -15.940061
 0.270000   5.874849   -18.508286
 0.275000   5.775164   -21.245156
 0.280000   5.662397   -23.919844
 0.285000   5.535966   -26.816568
 0.290000   5.394231   -29.815447
 0.295000   5.237811   -32.805805
 0.300000   5.066173   -35.904203
 0.305000   4.878769   -38.894020
 0.310000   4.677233   -41.565606
 0.315000   4.463113   -43.981556
 0.320000   4.237417   -45.706271
 0.325000   4.006050   -46.807309
 0.330000   3.769344   -47.882312
 0.335000   3.527227   -48.947976
 0.340000   3.279865   -50.007233
 0.345000   3.027155   -51.400889
 0.350000   2.765856   -53.271924
 0.355000   2.494436   -55.799078
 0.360000   2.207865   -58.976439
 0.365000   1.904671   -62.523509
 0.370000   1.582630   -66.160200
 0.375000   1.243069   -69.624548
 0.380000   0.886384   -73.118674
 0.385000   0.511883   -77.137736
 0.390000   0.115007   -82.527801
 0.395000   -0.313395   -89.761005
 0.400000   -0.782603   -98.967879
 0.405000   -1.303074   -110.311907
 0.410000   -1.885722   -124.774371
 0.415000   -2.550818   -140.517176
 0.420000   -3.290894   -155.456404
 0.425000   -4.105382   -169.741129
 0.430000   -4.988305   -182.530941
 0.435000   -5.930691   -193.023587
 0.440000   -6.918541   -199.593728
 0.445000   -7.926629   -200.398251
 0.450000   -8.922524   -195.374330
 0.455000   -9.880372   -185.285833
 0.460000   -10.775382   -170.818648
 0.465000   -11.588558   -152.591902
 0.470000   -12.301301   -131.400083
 0.475000   -12.902559   -110.751585
 0.480000   -13.408817   -92.826634
 0.485000   -13.830826   -77.354528
 0.490000   -14.182362   -64.581397
 0.495000   -14.476640   -54.533171
 0.500000   -14.727694   -47.962351
 0.505000   -14.956263   -44.371974
 0.510000   -15.171413   -41.993280
 0.515000   -15.376196   -40.146677
 0.520000   -15.572880   -38.619843
 0.525000   -15.762394   -37.097069
 0.530000   -15.943851   -35.275602
 0.535000   -16.115150   -33.042850
 0.540000   -16.274279   -30.097737
 0.545000   -16.416128   -26.339048
 0.550000   -16.537670   -22.003223
 0.555000   -16.636160   -17.279598
 0.560000   -16.710466   -12.048060
 0.565000   -16.756640   -6.487400
 0.570000   -16.775340   -1.149755
 0.575000   -16.768138   3.811865
 0.580000   -16.737221   8.311388
 0.585000   -16.685024   12.178388
 0.590000   -16.615437   15.181294
 0.595000   -16.533211   17.547406
 0.600000   -16.439963   19.445819
 0.605000   -16.338753   20.799429
 0.610000   -16.231969   21.780728
 0.615000   -16.120946   22.614033
 0.620000   -16.005829   23.525441
 0.625000   -15.885691   24.355487
 0.630000   -15.762274   25.066452
 0.635000   -15.635027   25.768104
 0.640000   -15.504593   26.289516
 0.645000   -15.372132   26.596278
 0.650000   -15.238630   26.767872
 0.655000   -15.104453   26.848495
 0.660000   -14.970145   26.771343
 0.665000   -14.836740   26.552533
 0.670000   -14.704620   26.280418
 0.675000   -14.573935   25.883958
 0.680000   -14.445780   25.265700
 0.685000   -14.321278   24.445239
 0.690000   -14.201328   23.409581
 0.695000   -14.087183   22.101704
 0.700000   -13.980311   20.564212
 0.705000   -13.881540   18.764954
 0.710000   -13.792661   16.649334
 0.715000   -13.715047   14.337775
 0.720000   -13.649283   11.893624
 0.725000   -13.596111   9.262355
 0.730000   -13.556660   6.503074
 0.735000   -13.531080   3.739773
 0.740000   -13.519262   0.973376
 0.745000   -13.521346   -1.780481
 0.750000   -13.537067   -4.581965
 0.755000   -13.567166   -7.425587
 0.760000   -13.611323   -10.587598
 0.765000   -13.673042   -14.510046
 0.770000   -13.756423   -19.290585
 0.775000   -13.865948   -25.038853
 0.780000   -14.006812   -31.907724
 0.785000   -14.185025   -39.943288
 0.790000   -14.406245   -49.401424
 0.795000   -14.679039   -59.808619
 0.800000   -15.004331   -70.452582
 0.805000   -15.383565   -81.355218
 0.810000   -15.817883   -92.068580
 0.815000   -16.304251   -101.978668
 0.820000   -16.837670   -110.247886
 0.825000   -17.406730   -115.774642
 0.830000   -17.995416   -118.279013
 0.835000   -18.589520   -117.939385
 0.840000   -19.174810   -114.703162
 0.845000   -19.736552   -108.768870
 0.850000   -20.262499   -100.852441
 0.855000   -20.745076   -92.323158
 0.860000   -21.185730   -83.619574
 0.865000   -21.581272   -74.702596
 0.870000   -21.932756   -66.424375
 0.875000   -22.245515   -58.983150
 0.880000   -22.522588   -51.915698
 0.885000   -22.764672   -44.147249
 0.890000   -22.964060   -34.425002
 0.895000   -23.108922   -20.712747
 0.900000   -23.171188   0.134609
 0.905000   -23.107576   31.627916
 0.910000   -22.854909   79.616365
 0.915000   -22.311413   145.380766
 0.920000   -21.401101   225.037129
 0.925000   -20.061041   312.899865
 0.930000   -18.272102   397.652131
 0.935000   -16.084520   448.176724
 0.940000   -13.790335   413.490311
 0.945000   -11.949617   264.978724
 0.950000   -11.140548   28.893316
 0.955000   -11.660684   -209.478272
 0.960000   -13.235330   -322.398685
 0.965000   -14.884671   -201.090127
 0.970000   -15.246232   150.919459
 0.975000   -13.375476   596.018109
 0.980000   -9.286051   944.603888
 0.985000   -3.929437   1055.546958
 0.990000   1.269419   907.378541
 0.995000   5.144348   589.874709
 1.000000   7.168166   219.652424
201 psinorm omghb() domghb/dpsiN
 0.000000   -0.000053   0.024792
 0.005000   -0.000002   -0.004374
 0.010000   -0.000097   0.002624
 0.015000   0.000024   0.025784
 0.020000   0.000161   0.029209
 0.025000   0.000316   0.031632
 0.030000   0.000477   0.036383
 0.035000   0.000680   0.039384
 0.040000   0.000871   0.048711
 0.045000   0.001167   0.056313
 0.050000   0.001434   0.054585
 0.055000   0.001713   0.058391
 0.060000   0.002018   0.061057
 0.065000   0.002324   0.048759
 0.070000   0.002506   0.074218
 0.075000   0.003066   0.101475
 0.080000   0.003521   0.072694
 0.085000   0.003793   0.063271
 0.090000   0.004153   0.048976
 0.095000   0.004283   0.016228
 0.100000   0.004316   -0.003863
 0.105000   0.004244   -0.014216
 0.110000   0.004173   -0.022014
 0.115000   0.004024   -0.032466
 0.120000   0.003849   -0.026133
 0.125000   0.003763   -0.022885
 0.130000   0.003620   -0.020046
 0.135000   0.003562   -0.001585
 0.140000   0.003604   0.014487
 0.145000   0.003707   0.042539
 0.150000   0.004030   0.048999
 0.155000   0.004197   0.060439
 0.160000   0.004634   0.073821
 0.165000   0.004935   0.111248
 0.170000   0.005746   0.145201
 0.175000   0.006387   0.155719
 0.180000   0.007304   0.190519
 0.185000   0.008292   0.189567
 0.190000   0.009199   0.202283
 0.195000   0.010315   0.177541
 0.200000   0.010975   0.149861
 0.205000   0.011814   0.163212
 0.210000   0.012607   0.161341
 0.215000   0.013427   0.199840
 0.220000   0.014605   0.231713
 0.225000   0.015744   0.157077
 0.230000   0.016176   0.124605
 0.235000   0.016990   0.127211
 0.240000   0.017448   0.125049
 0.245000   0.018241   0.117979
 0.250000   0.018628   0.079295
 0.255000   0.019034   0.060532
 0.260000   0.019233   0.078207
 0.265000   0.019816   0.134882
 0.270000   0.020582   0.194156
 0.275000   0.021757   0.233757
 0.280000   0.022920   0.264941
 0.285000   0.024407   0.461422
 0.290000   0.027534   0.582253
 0.295000   0.030229   0.576597
 0.300000   0.033300   0.619322
 0.305000   0.036423   0.602655
 0.310000   0.039326   0.597896
 0.315000   0.042402   0.564324
 0.320000   0.044970   0.459131
 0.325000   0.046993   0.389393
 0.330000   0.048863   0.347678
 0.335000   0.050470   0.314436
 0.340000   0.052008   0.406113
 0.345000   0.054531   0.402629
 0.350000   0.056034   0.340894
 0.355000   0.057940   0.421558
 0.360000   0.060250   0.505941
 0.365000   0.062999   0.573623
 0.370000   0.065986   0.521446
 0.375000   0.068214   0.496779
 0.380000   0.070954   0.629005
 0.385000   0.074504   0.800078
 0.390000   0.078954   1.140881
 0.395000   0.085912   1.695252
 0.400000   0.095907   2.083075
 0.405000   0.106743   2.478130
 0.410000   0.120688   2.910821
 0.415000   0.135851   3.101471
 0.420000   0.151703   3.340793
 0.425000   0.169259   3.295645
 0.430000   0.184659   2.784661
 0.435000   0.197106   2.237876
 0.440000   0.207038   1.614796
 0.445000   0.213254   0.794184
 0.450000   0.214980   -0.260898
 0.455000   0.210645   -1.374398
 0.460000   0.201236   -2.114063
 0.465000   0.189504   -2.523257
 0.470000   0.176004   -2.796124
 0.475000   0.161543   -2.824545
 0.480000   0.147758   -2.772651
 0.485000   0.133817   -2.305996
 0.490000   0.124698   -1.536045
 0.495000   0.118456   -1.004345
 0.500000   0.114655   -0.561472
 0.505000   0.112841   -0.277017
 0.510000   0.111884   -0.095204
 0.515000   0.111889   0.009577
 0.520000   0.111980   -0.026473
 0.525000   0.111625   -0.109220
 0.530000   0.110888   -0.183573
 0.535000   0.109789   -0.246053
 0.540000   0.108428   -0.368253
 0.545000   0.106106   -0.539431
 0.550000   0.103033   -0.653035
 0.555000   0.099576   -0.757737
 0.560000   0.095456   -0.867262
 0.565000   0.090903   -0.892957
 0.570000   0.086526   -0.829207
 0.575000   0.082611   -0.764652
 0.580000   0.078880   -0.689661
 0.585000   0.075715   -0.501897
 0.590000   0.073861   -0.389024
 0.595000   0.071824   -0.335342
 0.600000   0.070507   -0.228136
 0.605000   0.069543   -0.166177
 0.610000   0.068846   -0.136259
 0.615000   0.068181   -0.040322
 0.620000   0.068442   -0.139429
 0.625000   0.066786   -0.250970
 0.630000   0.065933   -0.158978
 0.635000   0.065196   -0.110229
 0.640000   0.064830   -0.020497
 0.645000   0.064991   0.270330
 0.650000   0.067534   0.563757
 0.655000   0.070629   0.744664
 0.660000   0.074980   0.926806
 0.665000   0.079897   0.957003
 0.670000   0.084550   0.882009
 0.675000   0.088717   1.187188
 0.680000   0.096422   0.871907
 0.685000   0.097436   0.207041
 0.690000   0.098493   0.294780
 0.695000   0.100384   0.319908
 0.700000   0.101692   0.200865
 0.705000   0.102393   0.141395
 0.710000   0.103106   -0.280573
 0.715000   0.099587   -0.599892
 0.720000   0.097107   -0.380226
 0.725000   0.095785   -0.178320
 0.730000   0.095324   0.038786
 0.735000   0.096173   0.183481
 0.740000   0.097158   0.692628
 0.745000   0.103099   1.722109
 0.750000   0.114379   2.335145
 0.755000   0.126450   2.827527
 0.760000   0.142655   3.299944
 0.765000   0.159450   3.461606
 0.770000   0.177271   3.962015
 0.775000   0.199070   4.559117
 0.780000   0.222862   4.625376
 0.785000   0.245324   4.566178
 0.790000   0.268524   4.506131
 0.795000   0.290385   4.393959
 0.800000   0.312463   4.417179
 0.805000   0.334557   4.078238
 0.810000   0.353246   3.632558
 0.815000   0.370882   3.351551
 0.820000   0.386761   2.600708
 0.825000   0.396889   1.550107
 0.830000   0.402262   0.872731
 0.835000   0.405617   0.017135
 0.840000   0.402434   -0.693844
 0.845000   0.398678   -0.660273
 0.850000   0.395831   -0.606254
 0.855000   0.392616   -0.592563
 0.860000   0.389905   0.475106
 0.865000   0.397367   0.945492
 0.870000   0.399360   2.401009
 0.875000   0.421377   6.181319
 0.880000   0.461173   9.956687
 0.885000   0.520944   13.999275
 0.890000   0.601166   19.805678
 0.895000   0.719001   20.729735
 0.900000   0.808463   19.049601
 0.905000   0.909497   18.047112
 0.910000   0.988935   11.355636
 0.915000   1.023053   1.695589
 0.920000   1.005890   -5.282488
 0.925000   0.970228   -17.153268
 0.930000   0.834358   -23.864468
 0.935000   0.731583   -11.089287
 0.940000   0.723465   10.650508
 0.945000   0.838088   34.720863
 0.950000   1.070674   54.971652
 0.955000   1.387805   28.407439
 0.960000   1.354748   -41.438423
 0.965000   0.973421   -113.880131
 0.970000   0.215947   -170.254238
 0.975000   -0.729122   -179.613099
 0.980000   -1.580184   -132.510684
 0.985000   -2.054229   -55.333123
 0.990000   -2.133516   19.338878
 0.995000   -1.860840   67.184165
 1.000000   -1.461674   92.482156
201 psinorm nz1(10^20/m^3) dnz1/dpsiN
 0.000000   0.041990   0.000005
 0.005000   0.041988   -0.000845
 0.010000   0.041981   -0.001706
 0.015000   0.041971   -0.002588
 0.020000   0.041955   -0.003487
 0.025000   0.041936   -0.004397
 0.030000   0.041911   -0.005314
 0.035000   0.041883   -0.006229
 0.040000   0.041849   -0.007134
 0.045000   0.041811   -0.008022
 0.050000   0.041769   -0.008891
 0.055000   0.041722   -0.009735
 0.060000   0.041672   -0.010551
 0.065000   0.041617   -0.011333
 0.070000   0.041558   -0.012078
 0.075000   0.041496   -0.012790
 0.080000   0.041430   -0.013472
 0.085000   0.041361   -0.014122
 0.090000   0.041289   -0.014738
 0.095000   0.041214   -0.015318
 0.100000   0.041136   -0.015862
 0.105000   0.041055   -0.016372
 0.110000   0.040972   -0.016848
 0.115000   0.040887   -0.017287
 0.120000   0.040799   -0.017689
 0.125000   0.040710   -0.018053
 0.130000   0.040619   -0.018381
 0.135000   0.040526   -0.018673
 0.140000   0.040432   -0.018926
 0.145000   0.040337   -0.019140
 0.150000   0.040241   -0.019312
 0.155000   0.040144   -0.019443
 0.160000   0.040046   -0.019532
 0.165000   0.039948   -0.019580
 0.170000   0.039851   -0.019586
 0.175000   0.039753   -0.019553
 0.180000   0.039655   -0.019480
 0.185000   0.039558   -0.019370
 0.190000   0.039461   -0.019226
 0.195000   0.039366   -0.019060
 0.200000   0.039271   -0.018883
 0.205000   0.039177   -0.018696
 0.210000   0.039084   -0.018496
 0.215000   0.038992   -0.018281
 0.220000   0.038901   -0.018053
 0.225000   0.038811   -0.017811
 0.230000   0.038723   -0.017534
 0.235000   0.038636   -0.017209
 0.240000   0.038551   -0.016841
 0.245000   0.038467   -0.016426
 0.250000   0.038386   -0.015964
 0.255000   0.038308   -0.015451
 0.260000   0.038232   -0.014880
 0.265000   0.038159   -0.014256
 0.270000   0.038089   -0.013589
 0.275000   0.038023   -0.012884
 0.280000   0.037961   -0.012148
 0.285000   0.037902   -0.011379
 0.290000   0.037847   -0.010596
 0.295000   0.037796   -0.009817
 0.300000   0.037749   -0.009044
 0.305000   0.037705   -0.008285
 0.310000   0.037666   -0.007546
 0.315000   0.037630   -0.006829
 0.320000   0.037597   -0.006140
 0.325000   0.037568   -0.005479
 0.330000   0.037543   -0.004837
 0.335000   0.037520   -0.004209
 0.340000   0.037501   -0.003592
 0.345000   0.037484   -0.002986
 0.350000   0.037471   -0.002388
 0.355000   0.037460   -0.001802
 0.360000   0.037453   -0.001231
 0.365000   0.037448   -0.000682
 0.370000   0.037446   -0.000158
 0.375000   0.037446   0.000336
 0.380000   0.037449   0.000796
 0.385000   0.037454   0.001216
 0.390000   0.037461   0.001595
 0.395000   0.037470   0.001928
 0.400000   0.037481   0.002215
 0.405000   0.037492   0.002452
 0.410000   0.037505   0.002642
 0.415000   0.037519   0.002786
 0.420000   0.037533   0.002887
 0.425000   0.037548   0.002946
 0.430000   0.037563   0.002962
 0.435000   0.037577   0.002935
 0.440000   0.037592   0.002865
 0.445000   0.037606   0.002745
 0.450000   0.037619   0.002568
 0.455000   0.037632   0.002333
 0.460000   0.037643   0.002034
 0.465000   0.037652   0.001669
 0.470000   0.037659   0.001237
 0.475000   0.037664   0.000736
 0.480000   0.037667   0.000170
 0.485000   0.037666   -0.000460
 0.490000   0.037662   -0.001148
 0.495000   0.037655   -0.001888
 0.500000   0.037643   -0.002674
 0.505000   0.037628   -0.003498
 0.510000   0.037608   -0.004357
 0.515000   0.037584   -0.005245
 0.520000   0.037556   -0.006158
 0.525000   0.037523   -0.007091
 0.530000   0.037485   -0.008040
 0.535000   0.037442   -0.009012
 0.540000   0.037395   -0.010015
 0.545000   0.037342   -0.011045
 0.550000   0.037284   -0.012104
 0.555000   0.037221   -0.013194
 0.560000   0.037152   -0.014310
 0.565000   0.037078   -0.015443
 0.570000   0.036998   -0.016585
 0.575000   0.036912   -0.017731
 0.580000   0.036821   -0.018877
 0.585000   0.036723   -0.020019
 0.590000   0.036620   -0.021156
 0.595000   0.036512   -0.022291
 0.600000   0.036398   -0.023430
 0.605000   0.036278   -0.024572
 0.610000   0.036152   -0.025716
 0.615000   0.036020   -0.026860
 0.620000   0.035883   -0.028013
 0.625000   0.035740   -0.029162
 0.630000   0.035592   -0.030286
 0.635000   0.035437   -0.031387
 0.640000   0.035278   -0.032459
 0.645000   0.035113   -0.033502
 0.650000   0.034943   -0.034583
 0.655000   0.034767   -0.035826
 0.660000   0.034584   -0.037317
 0.665000   0.034394   -0.039087
 0.670000   0.034194   -0.041136
 0.675000   0.033982   -0.043438
 0.680000   0.033759   -0.046119
 0.685000   0.033521   -0.049000
 0.690000   0.033269   -0.051738
 0.695000   0.033004   -0.054327
 0.700000   0.032726   -0.056736
 0.705000   0.032436   -0.058871
 0.710000   0.032137   -0.060698
 0.715000   0.031830   -0.061996
 0.720000   0.031517   -0.062565
 0.725000   0.031204   -0.062483
 0.730000   0.030892   -0.061802
 0.735000   0.030586   -0.060545
 0.740000   0.030287   -0.058647
 0.745000   0.029999   -0.056140
 0.750000   0.029726   -0.053353
 0.755000   0.029466   -0.050495
 0.760000   0.029221   -0.047619
 0.765000   0.028990   -0.044824
 0.770000   0.028772   -0.042132
 0.775000   0.028568   -0.039655
 0.780000   0.028376   -0.037614
 0.785000   0.028192   -0.035990
 0.790000   0.028016   -0.034655
 0.795000   0.027846   -0.033545
 0.800000   0.027680   -0.032573
 0.805000   0.027520   -0.031636
 0.810000   0.027364   -0.030674
 0.815000   0.027213   -0.029702
 0.820000   0.027067   -0.028748
 0.825000   0.026926   -0.027822
 0.830000   0.026789   -0.026933
 0.835000   0.026656   -0.026075
 0.840000   0.026528   -0.025246
 0.845000   0.026404   -0.024468
 0.850000   0.026283   -0.023789
 0.855000   0.026166   -0.023276
 0.860000   0.026051   -0.022998
 0.865000   0.025936   -0.023079
 0.870000   0.025820   -0.023476
 0.875000   0.025701   -0.024112
 0.880000   0.025579   -0.025080
 0.885000   0.025450   -0.026480
 0.890000   0.025314   -0.028444
 0.895000   0.025166   -0.031430
 0.900000   0.025000   -0.035493
 0.905000   0.024811   -0.040776
 0.910000   0.024592   -0.048043
 0.915000   0.024331   -0.057998
 0.920000   0.024012   -0.071612
 0.925000   0.023615   -0.091785
 0.930000   0.023094   -0.119952
 0.935000   0.022415   -0.156597
 0.940000   0.021528   -0.203595
 0.945000   0.020379   -0.260682
 0.950000   0.018921   -0.324490
 0.955000   0.017134   -0.390312
 0.960000   0.015018   -0.442925
 0.965000   0.012705   -0.465141
 0.970000   0.010367   -0.452478
 0.975000   0.008180   -0.408456
 0.980000   0.006282   -0.344047
 0.985000   0.004740   -0.272952
 0.990000   0.003553   -0.206171
 0.995000   0.002678   -0.150345
 1.000000   0.002049   -0.101161
201 psinorm vtor1(km/s) dvtor1/dpsiN
 0.000000   136.743239   668.939008
 0.005000   139.339040   369.381405
 0.010000   140.437053   193.409733
 0.015000   141.273137   153.000389
 0.020000   141.967057   129.588268
 0.025000   142.569020   114.439038
 0.030000   143.111447   103.865919
 0.035000   143.607679   94.924020
 0.040000   144.060687   87.465488
 0.045000   144.482334   81.634446
 0.050000   144.877032   76.450971
 0.055000   145.246844   71.631622
 0.060000   145.593348   67.414214
 0.065000   145.920986   63.810015
 0.070000   146.231448   60.330250
 0.075000   146.524288   57.069395
 0.080000   146.802142   54.190629
 0.085000   147.066195   51.522163
 0.090000   147.317364   48.891233
 0.095000   147.555107   46.425577
 0.100000   147.781620   44.234487
 0.105000   147.997452   42.031672
 0.110000   148.201936   39.830291
 0.115000   148.395755   37.708844
 0.120000   148.579025   35.589483
 0.125000   148.751650   33.380890
 0.130000   148.912834   31.100873
 0.135000   149.062658   28.823141
 0.140000   149.201065   26.499217
 0.145000   149.327651   24.078682
 0.150000   149.441852   21.600905
 0.155000   149.543660   19.115283
 0.160000   149.633005   16.540410
 0.165000   149.709064   13.924858
 0.170000   149.772253   11.376710
 0.175000   149.822831   8.835225
 0.180000   149.860606   6.284059
 0.185000   149.885671   3.801366
 0.190000   149.898619   1.423555
 0.195000   149.899907   -0.859189
 0.200000   149.890027   -3.023094
 0.205000   149.869676   -5.041236
 0.210000   149.839615   -6.918216
 0.215000   149.800494   -8.680371
 0.220000   149.752811   -10.261759
 0.225000   149.697876   -11.590811
 0.230000   149.636903   -12.817782
 0.235000   149.569698   -13.996372
 0.240000   149.496939   -15.036169
 0.245000   149.419337   -15.953938
 0.250000   149.337400   -16.787210
 0.255000   149.251465   -17.487502
 0.260000   149.162525   -18.198080
 0.265000   149.069484   -19.063119
 0.270000   148.971894   -20.017516
 0.275000   148.869309   -21.064116
 0.280000   148.761253   -22.225421
 0.285000   148.647054   -23.516287
 0.290000   148.526090   -24.850717
 0.295000   148.398547   -26.141910
 0.300000   148.264671   -27.397523
 0.305000   148.124572   -28.624411
 0.310000   147.978427   -29.790865
 0.315000   147.826663   -30.873160
 0.320000   147.669695   -31.914692
 0.325000   147.507516   -32.931810
 0.330000   147.340377   -33.906988
 0.335000   147.168447   -34.844325
 0.340000   146.991934   -35.751206
 0.345000   146.810935   -36.606996
 0.350000   146.625864   -37.412378
 0.355000   146.436811   -38.177877
 0.360000   146.244085   -38.840993
 0.365000   146.048401   -39.360495
 0.370000   145.850480   -39.740192
 0.375000   145.650999   -39.946727
 0.380000   145.451013   -39.998209
 0.385000   145.251017   -39.987744
 0.390000   145.051135   -40.005990
 0.395000   144.850957   -40.189794
 0.400000   144.649237   -40.682701
 0.405000   144.444130   -41.752549
 0.410000   144.231712   -43.587946
 0.415000   144.008250   -46.012684
 0.420000   143.771585   -48.863530
 0.425000   143.519615   -52.124457
 0.430000   143.250340   -55.767005
 0.435000   142.961945   -59.967602
 0.440000   142.650664   -64.591048
 0.445000   142.316035   -69.100336
 0.450000   141.959661   -73.419862
 0.455000   141.581836   -77.612947
 0.460000   141.183532   -81.571795
 0.465000   140.766118   -85.314789
 0.470000   140.330384   -88.568610
 0.475000   139.880432   -90.911879
 0.480000   139.421265   -92.490746
 0.485000   138.955524   -93.597774
 0.490000   138.485287   -94.367898
 0.495000   138.011846   -94.969340
 0.500000   137.535594   -95.507542
 0.505000   137.056770   -95.958679
 0.510000   136.576007   -96.319345
 0.515000   136.093577   -96.620200
 0.520000   135.609805   -96.854612
 0.525000   135.125031   -97.040313
 0.530000   134.639402   -97.205067
 0.535000   134.152980   -97.311145
 0.540000   133.666290   -97.345859
 0.545000   133.179521   -97.341625
 0.550000   132.692874   -97.300868
 0.555000   132.206513   -97.248946
 0.560000   131.720385   -97.216809
 0.565000   131.234345   -97.148394
 0.570000   130.748901   -97.003067
 0.575000   130.264314   -96.769000
 0.580000   129.781211   -96.412605
 0.585000   129.300188   -95.936628
 0.590000   128.821844   -95.273269
 0.595000   128.347455   -94.489146
 0.600000   127.876953   -93.703173
 0.605000   127.410423   -92.913162
 0.610000   126.947821   -92.154411
 0.615000   126.488879   -91.455177
 0.620000   126.033270   -90.729360
 0.625000   125.581586   -90.152602
 0.630000   125.131744   -89.906885
 0.635000   124.682517   -89.955133
 0.640000   124.232192   -90.377886
 0.645000   123.778738   -91.236016
 0.650000   123.319832   -92.673534
 0.655000   122.852003   -94.726147
 0.660000   122.372571   -97.176647
 0.665000   121.880236   -99.788498
 0.670000   121.374686   -102.401753
 0.675000   120.856219   -104.959111
 0.680000   120.325095   -107.548186
 0.685000   119.780737   -110.307061
 0.690000   119.222024   -113.295881
 0.695000   118.647778   -116.519407
 0.700000   118.056830   -119.978723
 0.705000   117.447991   -123.668714
 0.710000   116.820143   -127.621234
 0.715000   116.171778   -131.825980
 0.720000   115.501883   -136.193670
 0.725000   114.809842   -140.764147
 0.730000   114.094241   -145.748063
 0.735000   113.352361   -151.485423
 0.740000   112.579387   -158.894639
 0.745000   111.763415   -168.865053
 0.750000   110.890737   -180.872316
 0.755000   109.954691   -194.201607
 0.760000   108.948721   -208.655517
 0.765000   107.868136   -223.841998
 0.770000   106.710301   -239.863776
 0.775000   105.469499   -256.331077
 0.780000   104.146990   -271.475318
 0.785000   102.754745   -284.768135
 0.790000   101.299309   -296.761849
 0.795000   99.787127   -307.578575
 0.800000   98.223523   -317.963963
 0.805000   96.607487   -328.830240
 0.810000   94.935220   -338.759686
 0.815000   93.219890   -346.394371
 0.820000   91.471277   -351.774573
 0.825000   89.702145   -354.413971
 0.830000   87.927137   -354.441305
 0.835000   86.157732   -353.378475
 0.840000   84.393352   -351.086321
 0.845000   82.646868   -347.258846
 0.850000   80.920764   -343.129111
 0.855000   79.215577   -339.500076
 0.860000   77.525763   -338.354251
 0.865000   75.832035   -344.012837
 0.870000   74.085635   -358.772218
 0.875000   72.244313   -386.341756
 0.880000   70.222217   -433.537647
 0.885000   67.908936   -504.446175
 0.890000   65.177755   -600.830242
 0.895000   61.900634   -722.495616
 0.900000   57.952799   -859.513336
 0.905000   53.305500   -996.500465
 0.910000   47.987794   -1117.680845
 0.915000   42.128692   -1202.794799
 0.920000   35.959846   -1233.369649
 0.925000   29.794995   -1194.558986
 0.930000   24.014257   -1087.142284
 0.935000   18.923573   -927.302257
 0.940000   14.741234   -735.131057
 0.945000   11.572262   -533.637651
 0.950000   9.404858   -344.080728
 0.955000   8.131455   -181.823903
 0.960000   7.586619   -56.950627
 0.965000   7.561948   29.213005
 0.970000   7.878749   82.626438
 0.975000   8.388213   109.583682
 0.980000   8.974585   116.699725
 0.985000   9.555210   109.589773
 0.990000   10.070483   94.666081
 0.995000   10.501871   77.456526
 1.000000   10.845048   59.814476
201 psinorm vpol1(km/s) dvpol1/dpsiN
 0.000000   0.000047   3.575000
 0.005000   0.019500   4.206250
 0.010000   0.042109   4.856250
 0.015000   0.068062   5.482812
 0.020000   0.096937   6.117188
 0.025000   0.129234   6.753125
 0.030000   0.164469   7.314062
 0.035000   0.202375   7.810937
 0.040000   0.242578   8.228125
 0.045000   0.284656   8.556250
 0.050000   0.328141   8.800000
 0.055000   0.372656   8.964063
 0.060000   0.417781   9.010937
 0.065000   0.462766   8.990625
 0.070000   0.507687   8.939062
 0.075000   0.552156   8.826563
 0.080000   0.595953   8.676562
 0.085000   0.638922   8.517188
 0.090000   0.681125   8.400000
 0.095000   0.722922   8.384375
 0.100000   0.764969   8.448437
 0.105000   0.807406   8.589062
 0.110000   0.850859   8.773438
 0.115000   0.895141   8.987500
 0.120000   0.940734   9.212500
 0.125000   0.987266   9.359375
 0.130000   1.034328   9.457812
 0.135000   1.081844   9.489062
 0.140000   1.129219   9.451563
 0.145000   1.176359   9.356250
 0.150000   1.222781   9.162500
 0.155000   1.267984   8.915625
 0.160000   1.311937   8.629687
 0.165000   1.354281   8.290625
 0.170000   1.394844   7.900000
 0.175000   1.433281   7.460938
 0.180000   1.469453   7.015625
 0.185000   1.503437   6.609375
 0.190000   1.535547   6.262500
 0.195000   1.566063   5.920312
 0.200000   1.594750   5.612500
 0.205000   1.622188   5.343750
 0.210000   1.648188   5.003125
 0.215000   1.672219   4.585937
 0.220000   1.694047   4.092187
 0.225000   1.713141   3.506250
 0.230000   1.729109   2.850000
 0.235000   1.741641   2.157813
 0.240000   1.750687   1.434375
 0.245000   1.755984   0.679688
 0.250000   1.757484   -0.078125
 0.255000   1.755203   -0.843750
 0.260000   1.749047   -1.634375
 0.265000   1.738859   -2.445312
 0.270000   1.724594   -3.314063
 0.275000   1.705719   -4.226562
 0.280000   1.682328   -5.157812
 0.285000   1.654141   -6.146875
 0.290000   1.620859   -7.176563
 0.295000   1.582375   -8.232812
 0.300000   1.538531   -9.309375
 0.305000   1.489281   -10.370313
 0.310000   1.434828   -11.356250
 0.315000   1.375719   -12.246875
 0.320000   1.312359   -12.937500
 0.325000   1.246344   -13.448437
 0.330000   1.177875   -13.931250
 0.335000   1.107031   -14.417187
 0.340000   1.033703   -14.910937
 0.345000   0.957922   -15.495312
 0.350000   0.878750   -16.234375
 0.355000   0.795578   -17.195313
 0.360000   0.706797   -18.359375
 0.365000   0.611984   -19.646875
 0.370000   0.510328   -20.978125
 0.375000   0.402203   -22.256250
 0.380000   0.287766   -23.546875
 0.385000   0.166734   -25.018750
 0.390000   0.037578   -26.945312
 0.395000   -0.102719   -29.487500
 0.400000   -0.257297   -32.692187
 0.405000   -0.429641   -36.621875
 0.410000   -0.623516   -41.617187
 0.415000   -0.845812   -47.060938
 0.420000   -1.094125   -52.265625
 0.425000   -1.368469   -57.295312
 0.430000   -1.667078   -61.850000
 0.435000   -1.986969   -65.635937
 0.440000   -2.323438   -68.130469
 0.445000   -2.668273   -68.710156
 0.450000   -3.010539   -67.267969
 0.455000   -3.340953   -64.091406
 0.460000   -3.651453   -59.449219
 0.465000   -3.935445   -53.450000
 0.470000   -4.185953   -46.374219
 0.475000   -4.399188   -39.479688
 0.480000   -4.580750   -33.474219
 0.485000   -4.733930   -28.219531
 0.490000   -4.862945   -23.877344
 0.495000   -4.972703   -20.497656
 0.500000   -5.067922   -18.238281
 0.505000   -5.155086   -16.981250
 0.510000   -5.237734   -16.192969
 0.515000   -5.317016   -15.572656
 0.520000   -5.393461   -15.014844
 0.525000   -5.467164   -14.478125
 0.530000   -5.538242   -13.878906
 0.535000   -5.605953   -13.078906
 0.540000   -5.669031   -12.015625
 0.545000   -5.726109   -10.717969
 0.550000   -5.776211   -9.205469
 0.555000   -5.818164   -7.508594
 0.560000   -5.851297   -5.645312
 0.565000   -5.874617   -3.702344
 0.570000   -5.888320   -1.789844
 0.575000   -5.892516   0.010937
 0.580000   -5.888211   1.614062
 0.585000   -5.876375   2.992969
 0.590000   -5.858281   4.110937
 0.595000   -5.835266   4.999609
 0.600000   -5.808285   5.685547
 0.605000   -5.778410   6.201563
 0.610000   -5.746270   6.604688
 0.615000   -5.712363   6.934766
 0.620000   -5.676922   7.275000
 0.625000   -5.639613   7.615234
 0.630000   -5.600770   7.916406
 0.635000   -5.560449   8.186328
 0.640000   -5.518906   8.395313
 0.645000   -5.476496   8.545313
 0.650000   -5.433453   8.641406
 0.655000   -5.390082   8.687500
 0.660000   -5.346578   8.685547
 0.665000   -5.303227   8.639453
 0.670000   -5.260184   8.565234
 0.675000   -5.217574   8.439453
 0.680000   -5.175789   8.240234
 0.685000   -5.135172   7.968750
 0.690000   -5.096102   7.612891
 0.695000   -5.059043   7.157227
 0.700000   -5.024529   6.617969
 0.705000   -4.992863   5.983203
 0.710000   -4.964697   5.232812
 0.715000   -4.940535   4.407617
 0.720000   -4.920621   3.528125
 0.725000   -4.905254   2.581641
 0.730000   -4.894805   1.591406
 0.735000   -4.889340   0.589062
 0.740000   -4.888914   -0.422266
 0.745000   -4.893562   -1.423242
 0.750000   -4.903146   -2.438086
 0.755000   -4.917943   -3.484082
 0.760000   -4.937987   -4.651855
 0.765000   -4.964462   -6.085059
 0.770000   -4.998838   -7.830322
 0.775000   -5.042765   -9.943945
 0.780000   -5.098277   -12.471338
 0.785000   -5.167479   -15.418262
 0.790000   -5.252460   -18.890723
 0.795000   -5.356386   -22.716016
 0.800000   -5.479620   -26.637354
 0.805000   -5.622759   -30.664990
 0.810000   -5.786270   -34.624658
 0.815000   -5.969006   -38.275537
 0.820000   -6.169025   -41.339844
 0.825000   -6.382404   -43.427148
 0.830000   -6.603297   -44.379102
 0.835000   -6.826195   -44.234180
 0.840000   -7.045639   -43.049805
 0.845000   -7.256693   -40.919727
 0.850000   -7.454836   -37.983789
 0.855000   -7.636531   -34.728125
 0.860000   -7.802117   -31.468750
 0.865000   -7.951219   -28.208594
 0.870000   -8.084203   -25.045703
 0.875000   -8.201676   -22.063672
 0.880000   -8.304840   -19.344922
 0.885000   -8.395125   -16.484375
 0.890000   -8.469684   -12.775391
 0.895000   -8.522879   -7.500000
 0.900000   -8.544684   0.280859
 0.905000   -8.520070   11.891797
 0.910000   -8.425766   28.939844
 0.915000   -8.230672   52.205469
 0.920000   -7.903711   81.357031
 0.925000   -7.417102   114.048437
 0.930000   -6.763227   143.875000
 0.935000   -5.978352   160.789062
 0.940000   -5.155336   148.552344
 0.945000   -4.492828   94.310156
 0.950000   -4.212234   5.485937
 0.955000   -4.437969   -86.078125
 0.960000   -5.073016   -130.709375
 0.965000   -5.745063   -85.201562
 0.970000   -5.925031   52.200000
 0.975000   -5.223063   229.050000
 0.980000   -3.634531   368.156250
 0.985000   -1.541500   413.365625
 0.990000   0.499125   356.760937
 0.995000   2.026109   231.965625
 1.000000   2.818781   85.103125
3 N Z A of ION SPECIES
 6.000000   6.000000   12.010700
 1.000000   1.000000   2.000000
 1.000000   1.000000   2.000000
