201 psinorm ne(10^20/m^3) dne/dpsiN
 0.000000   0.333046   -0.345482
 0.005000   0.331323   -0.343656
 0.010000   0.329610   -0.341835
 0.015000   0.327905   -0.340024
 0.020000   0.326209   -0.338223
 0.025000   0.324523   -0.336431
 0.030000   0.322845   -0.334649
 0.035000   0.321176   -0.332877
 0.040000   0.319516   -0.331115
 0.045000   0.317865   -0.329362
 0.050000   0.316223   -0.327618
 0.055000   0.314589   -0.325884
 0.060000   0.312964   -0.324159
 0.065000   0.311347   -0.322444
 0.070000   0.309739   -0.320738
 0.075000   0.308140   -0.319041
 0.080000   0.306549   -0.317353
 0.085000   0.304966   -0.315675
 0.090000   0.303392   -0.314005
 0.095000   0.301826   -0.312345
 0.100000   0.300269   -0.310693
 0.105000   0.298719   -0.309051
 0.110000   0.297178   -0.307417
 0.115000   0.295645   -0.305792
 0.120000   0.294120   -0.304176
 0.125000   0.292604   -0.302569
 0.130000   0.291095   -0.300970
 0.135000   0.289594   -0.299380
 0.140000   0.288101   -0.297799
 0.145000   0.286616   -0.296226
 0.150000   0.285139   -0.294662
 0.155000   0.283669   -0.293106
 0.160000   0.282208   -0.291558
 0.165000   0.280754   -0.290019
 0.170000   0.279307   -0.288488
 0.175000   0.277869   -0.286966
 0.180000   0.276438   -0.285451
 0.185000   0.275014   -0.283945
 0.190000   0.273598   -0.282447
 0.195000   0.272190   -0.280957
 0.200000   0.270789   -0.279475
 0.205000   0.269395   -0.278001
 0.210000   0.268009   -0.276535
 0.215000   0.266630   -0.275077
 0.220000   0.265258   -0.273627
 0.225000   0.263893   -0.272185
 0.230000   0.262536   -0.270750
 0.235000   0.261186   -0.269323
 0.240000   0.259843   -0.267904
 0.245000   0.258507   -0.266492
 0.250000   0.257178   -0.265088
 0.255000   0.255856   -0.263692
 0.260000   0.254541   -0.262303
 0.265000   0.253233   -0.260922
 0.270000   0.251932   -0.259548
 0.275000   0.250637   -0.258181
 0.280000   0.249350   -0.256822
 0.285000   0.248069   -0.255471
 0.290000   0.246795   -0.254126
 0.295000   0.245528   -0.252789
 0.300000   0.244267   -0.251459
 0.305000   0.243013   -0.250136
 0.310000   0.241766   -0.248820
 0.315000   0.240525   -0.247511
 0.320000   0.239291   -0.246209
 0.325000   0.238063   -0.244915
 0.330000   0.236842   -0.243627
 0.335000   0.235627   -0.242346
 0.340000   0.234418   -0.241072
 0.345000   0.233216   -0.239805
 0.350000   0.232020   -0.238545
 0.355000   0.230831   -0.237291
 0.360000   0.229647   -0.236045
 0.365000   0.228470   -0.234804
 0.370000   0.227299   -0.233571
 0.375000   0.226135   -0.232344
 0.380000   0.224976   -0.231124
 0.385000   0.223823   -0.229911
 0.390000   0.222677   -0.228704
 0.395000   0.221536   -0.227503
 0.400000   0.220402   -0.226309
 0.405000   0.219273   -0.225121
 0.410000   0.218151   -0.223940
 0.415000   0.217034   -0.222765
 0.420000   0.215923   -0.221596
 0.425000   0.214818   -0.220433
 0.430000   0.213719   -0.219277
 0.435000   0.212625   -0.218127
 0.440000   0.211537   -0.216983
 0.445000   0.210455   -0.215846
 0.450000   0.209379   -0.214714
 0.455000   0.208308   -0.213589
 0.460000   0.207243   -0.212469
 0.465000   0.206183   -0.211356
 0.470000   0.205129   -0.210248
 0.475000   0.204081   -0.209146
 0.480000   0.203038   -0.208051
 0.485000   0.202000   -0.206961
 0.490000   0.200968   -0.205877
 0.495000   0.199942   -0.204799
 0.500000   0.198920   -0.203726
 0.505000   0.197904   -0.202659
 0.510000   0.196894   -0.201598
 0.515000   0.195888   -0.200543
 0.520000   0.194888   -0.199493
 0.525000   0.193893   -0.198449
 0.530000   0.192904   -0.197411
 0.535000   0.191919   -0.196378
 0.540000   0.190940   -0.195350
 0.545000   0.189966   -0.194328
 0.550000   0.188997   -0.193311
 0.555000   0.188033   -0.192300
 0.560000   0.187074   -0.191293
 0.565000   0.186120   -0.190293
 0.570000   0.185171   -0.189297
 0.575000   0.184227   -0.188306
 0.580000   0.183288   -0.187321
 0.585000   0.182354   -0.186341
 0.590000   0.181424   -0.185365
 0.595000   0.180500   -0.184395
 0.600000   0.179580   -0.183429
 0.605000   0.178666   -0.182468
 0.610000   0.177756   -0.181511
 0.615000   0.176851   -0.180559
 0.620000   0.175950   -0.179611
 0.625000   0.175054   -0.178667
 0.630000   0.174163   -0.177728
 0.635000   0.173277   -0.176792
 0.640000   0.172396   -0.175859
 0.645000   0.171519   -0.174930
 0.650000   0.170646   -0.174003
 0.655000   0.169779   -0.173079
 0.660000   0.168915   -0.172157
 0.665000   0.168057   -0.171237
 0.670000   0.167203   -0.170317
 0.675000   0.166354   -0.169398
 0.680000   0.165509   -0.168478
 0.685000   0.164669   -0.167556
 0.690000   0.163834   -0.166632
 0.695000   0.163003   -0.165704
 0.700000   0.162177   -0.164770
 0.705000   0.161355   -0.163830
 0.710000   0.160538   -0.162880
 0.715000   0.159726   -0.161920
 0.720000   0.158919   -0.160945
 0.725000   0.158117   -0.159954
 0.730000   0.157319   -0.158942
 0.735000   0.156527   -0.157907
 0.740000   0.155740   -0.156842
 0.745000   0.154959   -0.155744
 0.750000   0.154183   -0.154606
 0.755000   0.153413   -0.153422
 0.760000   0.152649   -0.152185
 0.765000   0.151891   -0.150885
 0.770000   0.151140   -0.149514
 0.775000   0.150396   -0.148061
 0.780000   0.149659   -0.146514
 0.785000   0.148931   -0.144862
 0.790000   0.148211   -0.143090
 0.795000   0.147500   -0.141183
 0.800000   0.146799   -0.139127
 0.805000   0.146109   -0.136906
 0.810000   0.145430   -0.134505
 0.815000   0.144763   -0.131907
 0.820000   0.144111   -0.129101
 0.825000   0.143472   -0.126076
 0.830000   0.142850   -0.122829
 0.835000   0.142244   -0.119362
 0.840000   0.141656   -0.115689
 0.845000   0.141087   -0.111841
 0.850000   0.140538   -0.107869
 0.855000   0.140009   -0.103852
 0.860000   0.139499   -0.099907
 0.865000   0.139010   -0.096200
 0.870000   0.138537   -0.092957
 0.875000   0.138080   -0.090481
 0.880000   0.137633   -0.089165
 0.885000   0.137188   -0.089510
 0.890000   0.136737   -0.092138
 0.895000   0.136267   -0.097796
 0.900000   0.135760   -0.107355
 0.905000   0.135193   -0.121784
 0.910000   0.134542   -0.142101
 0.915000   0.133772   -0.169285
 0.920000   0.132849   -0.204156
 0.925000   0.131731   -0.247210
 0.930000   0.130377   -0.298438
 0.935000   0.128746   -0.357143
 0.940000   0.126805   -0.421826
 0.945000   0.124528   -0.490155
 0.950000   0.121904   -0.559091
 0.955000   0.118937   -0.625164
 0.960000   0.115652   -0.684873
 0.965000   0.112089   -0.735127
 0.970000   0.108301   -0.773641
 0.975000   0.104352   -0.799179
 0.980000   0.100309   -0.811611
 0.985000   0.096236   -0.811791
 0.990000   0.092191   -0.801300
 0.995000   0.088223   -0.782144
 1.000000   0.084370   -0.759190
201 psinorm te(KeV) dte/dpsiN
 0.000000   3.627508   -2.858744
 0.005000   3.613091   -2.907762
 0.010000   3.598430   -2.956435
 0.015000   3.583527   -3.004412
 0.020000   3.568386   -3.051685
 0.025000   3.553010   -3.098244
 0.030000   3.537403   -3.144082
 0.035000   3.521569   -3.189189
 0.040000   3.505511   -3.233557
 0.045000   3.489234   -3.277179
 0.050000   3.472740   -3.320048
 0.055000   3.456033   -3.362155
 0.060000   3.439118   -3.403494
 0.065000   3.421998   -3.444059
 0.070000   3.404678   -3.483843
 0.075000   3.387160   -3.522840
 0.080000   3.369449   -3.561044
 0.085000   3.351549   -3.598450
 0.090000   3.333465   -3.635052
 0.095000   3.315199   -3.670847
 0.100000   3.296756   -3.705828
 0.105000   3.278141   -3.739993
 0.110000   3.259356   -3.773336
 0.115000   3.240407   -3.805855
 0.120000   3.221298   -3.837545
 0.125000   3.202032   -3.868405
 0.130000   3.182614   -3.898430
 0.135000   3.163047   -3.927619
 0.140000   3.143337   -3.955970
 0.145000   3.123488   -3.983480
 0.150000   3.103503   -4.010147
 0.155000   3.083386   -4.035972
 0.160000   3.063143   -4.060951
 0.165000   3.042777   -4.085086
 0.170000   3.022292   -4.108375
 0.175000   3.001693   -4.130818
 0.180000   2.980984   -4.152415
 0.185000   2.960169   -4.173167
 0.190000   2.939252   -4.193075
 0.195000   2.918238   -4.212139
 0.200000   2.897131   -4.230360
 0.205000   2.875935   -4.247741
 0.210000   2.854653   -4.264283
 0.215000   2.833292   -4.279987
 0.220000   2.811854   -4.294857
 0.225000   2.790343   -4.308895
 0.230000   2.768765   -4.322103
 0.235000   2.747122   -4.334486
 0.240000   2.725420   -4.346045
 0.245000   2.703662   -4.356785
 0.250000   2.681852   -4.366710
 0.255000   2.659995   -4.375824
 0.260000   2.638094   -4.384130
 0.265000   2.616153   -4.391634
 0.270000   2.594177   -4.398341
 0.275000   2.572170   -4.404255
 0.280000   2.550135   -4.409381
 0.285000   2.528076   -4.413726
 0.290000   2.505998   -4.417294
 0.295000   2.483903   -4.420092
 0.300000   2.461797   -4.422126
 0.305000   2.439682   -4.423401
 0.310000   2.417563   -4.423925
 0.315000   2.395443   -4.423705
 0.320000   2.373326   -4.422746
 0.325000   2.351215   -4.421057
 0.330000   2.329115   -4.418644
 0.335000   2.307029   -4.415514
 0.340000   2.284960   -4.411676
 0.345000   2.262912   -4.407137
 0.350000   2.240888   -4.401905
 0.355000   2.218893   -4.395989
 0.360000   2.196929   -4.389395
 0.365000   2.174999   -4.382133
 0.370000   2.153107   -4.374211
 0.375000   2.131257   -4.365637
 0.380000   2.109451   -4.356421
 0.385000   2.087693   -4.346572
 0.390000   2.065985   -4.336098
 0.395000   2.044332   -4.325008
 0.400000   2.022735   -4.313312
 0.405000   2.001199   -4.301019
 0.410000   1.979725   -4.288139
 0.415000   1.958317   -4.274680
 0.420000   1.936978   -4.260654
 0.425000   1.915711   -4.246068
 0.430000   1.894517   -4.230934
 0.435000   1.873401   -4.215261
 0.440000   1.852365   -4.199058
 0.445000   1.831411   -4.182337
 0.450000   1.810541   -4.165107
 0.455000   1.789760   -4.147377
 0.460000   1.769068   -4.129159
 0.465000   1.748468   -4.110463
 0.470000   1.727963   -4.091298
 0.475000   1.707555   -4.071676
 0.480000   1.687246   -4.051606
 0.485000   1.667039   -4.031098
 0.490000   1.646935   -4.010164
 0.495000   1.626937   -3.988813
 0.500000   1.607047   -3.967056
 0.505000   1.587267   -3.944903
 0.510000   1.567598   -3.922365
 0.515000   1.548043   -3.899453
 0.520000   1.528604   -3.876176
 0.525000   1.509281   -3.852544
 0.530000   1.490078   -3.828570
 0.535000   1.470996   -3.804262
 0.540000   1.452036   -3.779631
 0.545000   1.433199   -3.754687
 0.550000   1.414489   -3.729442
 0.555000   1.395905   -3.703904
 0.560000   1.377450   -3.678085
 0.565000   1.359124   -3.651993
 0.570000   1.340930   -3.625641
 0.575000   1.322868   -3.599037
 0.580000   1.304939   -3.572192
 0.585000   1.287146   -3.545116
 0.590000   1.269488   -3.517818
 0.595000   1.251968   -3.490309
 0.600000   1.234585   -3.462598
 0.605000   1.217342   -3.434695
 0.610000   1.200238   -3.406609
 0.615000   1.183276   -3.378351
 0.620000   1.166455   -3.349930
 0.625000   1.149776   -3.321355
 0.630000   1.133241   -3.292635
 0.635000   1.116850   -3.263780
 0.640000   1.100603   -3.234799
 0.645000   1.084502   -3.205700
 0.650000   1.068546   -3.176494
 0.655000   1.052737   -3.147188
 0.660000   1.037074   -3.117792
 0.665000   1.021559   -3.088313
 0.670000   1.006191   -3.058761
 0.675000   0.990971   -3.029144
 0.680000   0.975900   -2.999470
 0.685000   0.960977   -2.969747
 0.690000   0.946202   -2.939983
 0.695000   0.931577   -2.910186
 0.700000   0.917101   -2.880362
 0.705000   0.902773   -2.850521
 0.710000   0.888595   -2.820668
 0.715000   0.874567   -2.790811
 0.720000   0.860687   -2.760957
 0.725000   0.846957   -2.731111
 0.730000   0.833376   -2.701279
 0.735000   0.819944   -2.671468
 0.740000   0.806661   -2.641683
 0.745000   0.793527   -2.611929
 0.750000   0.780542   -2.582209
 0.755000   0.767705   -2.552527
 0.760000   0.755017   -2.522887
 0.765000   0.742476   -2.493290
 0.770000   0.730084   -2.463739
 0.775000   0.717839   -2.434234
 0.780000   0.705742   -2.404773
 0.785000   0.693791   -2.375357
 0.790000   0.681988   -2.345981
 0.795000   0.670332   -2.316642
 0.800000   0.658822   -2.287336
 0.805000   0.647458   -2.258056
 0.810000   0.636241   -2.228797
 0.815000   0.625170   -2.199552
 0.820000   0.614246   -2.170317
 0.825000   0.603467   -2.141089
 0.830000   0.592835   -2.111871
 0.835000   0.582348   -2.082674
 0.840000   0.572008   -2.053523
 0.845000   0.561813   -2.024462
 0.850000   0.551763   -1.995565
 0.855000   0.541857   -1.966950
 0.860000   0.532094   -1.938798
 0.865000   0.522469   -1.911377
 0.870000   0.512980   -1.885082
 0.875000   0.503619   -1.860481
 0.880000   0.494375   -1.838382
 0.885000   0.485235   -1.819924
 0.890000   0.476176   -1.806694
 0.895000   0.467168   -1.800883
 0.900000   0.458167   -1.805484
 0.905000   0.449113   -1.824538
 0.910000   0.439922   -1.863429
 0.915000   0.430479   -1.929187
 0.920000   0.420630   -2.030774
 0.925000   0.410171   -2.179200
 0.930000   0.398838   -2.387265
 0.935000   0.386298   -2.668532
 0.940000   0.372153   -3.035005
 0.945000   0.355948   -3.492852
 0.950000   0.337224   -4.035797
 0.955000   0.315590   -4.636765
 0.960000   0.290856   -5.240469
 0.965000   0.263186   -5.762386
 0.970000   0.233233   -6.100882
 0.975000   0.202177   -6.165222
 0.980000   0.171580   -5.911310
 0.985000   0.143064   -5.365708
 0.990000   0.117923   -4.619919
 0.995000   0.096865   -3.795649
 1.000000   0.079967   -2.963478
201 psinorm ni(10^20/m^3) dni/dpsiN
 0.000000   0.134500   -0.425142
 0.005000   0.133023   -0.165912
 0.010000   0.132841   0.033421
 0.015000   0.133357   0.154409
 0.020000   0.134385   0.244637
 0.025000   0.135803   0.312187
 0.030000   0.137507   0.362569
 0.035000   0.139429   0.398389
 0.040000   0.141491   0.421849
 0.045000   0.143648   0.436508
 0.050000   0.145856   0.443147
 0.055000   0.148079   0.443452
 0.060000   0.150291   0.438828
 0.065000   0.152467   0.430003
 0.070000   0.154591   0.418125
 0.075000   0.156649   0.403754
 0.080000   0.158628   0.387075
 0.085000   0.160519   0.369784
 0.090000   0.162326   0.350759
 0.095000   0.164027   0.330426
 0.100000   0.165630   0.311173
 0.105000   0.167139   0.292099
 0.110000   0.168551   0.271327
 0.115000   0.169852   0.250653
 0.120000   0.171058   0.231865
 0.125000   0.172171   0.213315
 0.130000   0.173191   0.195081
 0.135000   0.174121   0.177217
 0.140000   0.174963   0.159753
 0.145000   0.175719   0.142646
 0.150000   0.176390   0.125867
 0.155000   0.176978   0.109952
 0.160000   0.177489   0.094934
 0.165000   0.177927   0.080461
 0.170000   0.178294   0.066635
 0.175000   0.178593   0.053385
 0.180000   0.178828   0.040708
 0.185000   0.179000   0.028685
 0.190000   0.179115   0.017095
 0.195000   0.179171   0.006019
 0.200000   0.179175   -0.004156
 0.205000   0.179130   -0.013543
 0.210000   0.179039   -0.022265
 0.215000   0.178907   -0.030336
 0.220000   0.178736   -0.037780
 0.225000   0.178529   -0.044609
 0.230000   0.178290   -0.050935
 0.235000   0.178020   -0.056847
 0.240000   0.177721   -0.062566
 0.245000   0.177394   -0.068165
 0.250000   0.177040   -0.073169
 0.255000   0.176663   -0.077570
 0.260000   0.176264   -0.081737
 0.265000   0.175845   -0.085698
 0.270000   0.175407   -0.089473
 0.275000   0.174951   -0.093357
 0.280000   0.174474   -0.096883
 0.285000   0.173982   -0.099737
 0.290000   0.173476   -0.102338
 0.295000   0.172958   -0.104702
 0.300000   0.172429   -0.107124
 0.305000   0.171887   -0.109330
 0.310000   0.171336   -0.111005
 0.315000   0.170777   -0.112443
 0.320000   0.170211   -0.113752
 0.325000   0.169639   -0.115124
 0.330000   0.169060   -0.116270
 0.335000   0.168477   -0.117031
 0.340000   0.167890   -0.117667
 0.345000   0.167300   -0.118388
 0.350000   0.166706   -0.119008
 0.355000   0.166110   -0.119289
 0.360000   0.165513   -0.119429
 0.365000   0.164916   -0.119639
 0.370000   0.164317   -0.119803
 0.375000   0.163718   -0.119708
 0.380000   0.163120   -0.119461
 0.385000   0.162523   -0.119318
 0.390000   0.161926   -0.119143
 0.395000   0.161332   -0.118699
 0.400000   0.160739   -0.118157
 0.405000   0.160150   -0.117821
 0.410000   0.159561   -0.117428
 0.415000   0.158976   -0.116747
 0.420000   0.158394   -0.116183
 0.425000   0.157814   -0.115872
 0.430000   0.157235   -0.115516
 0.435000   0.156659   -0.115026
 0.440000   0.156085   -0.114901
 0.445000   0.155510   -0.114982
 0.450000   0.154935   -0.114904
 0.455000   0.154361   -0.114912
 0.460000   0.153786   -0.115313
 0.465000   0.153208   -0.115743
 0.470000   0.152628   -0.115973
 0.475000   0.152048   -0.116493
 0.480000   0.151464   -0.117123
 0.485000   0.150877   -0.117504
 0.490000   0.150288   -0.117859
 0.495000   0.149698   -0.118459
 0.500000   0.149104   -0.118943
 0.505000   0.148509   -0.119137
 0.510000   0.147913   -0.119587
 0.515000   0.147313   -0.120123
 0.520000   0.146711   -0.120429
 0.525000   0.146109   -0.120804
 0.530000   0.145503   -0.121399
 0.535000   0.144895   -0.121908
 0.540000   0.144284   -0.122247
 0.545000   0.143672   -0.122866
 0.550000   0.143056   -0.123512
 0.555000   0.142437   -0.123905
 0.560000   0.141816   -0.124403
 0.565000   0.141193   -0.125020
 0.570000   0.140566   -0.125498
 0.575000   0.139938   -0.125839
 0.580000   0.139308   -0.126355
 0.585000   0.138674   -0.126817
 0.590000   0.138040   -0.127038
 0.595000   0.137404   -0.127305
 0.600000   0.136767   -0.127575
 0.605000   0.136128   -0.127686
 0.610000   0.135490   -0.127667
 0.615000   0.134852   -0.127688
 0.620000   0.134213   -0.127618
 0.625000   0.133575   -0.127361
 0.630000   0.132939   -0.127072
 0.635000   0.132305   -0.126736
 0.640000   0.131672   -0.126272
 0.645000   0.131042   -0.125689
 0.650000   0.130415   -0.125061
 0.655000   0.129791   -0.124341
 0.660000   0.129172   -0.123491
 0.665000   0.128556   -0.122553
 0.670000   0.127946   -0.121537
 0.675000   0.127341   -0.120414
 0.680000   0.126742   -0.119184
 0.685000   0.126149   -0.117869
 0.690000   0.125563   -0.116456
 0.695000   0.124985   -0.114928
 0.700000   0.124414   -0.113273
 0.705000   0.123852   -0.111471
 0.710000   0.123299   -0.109480
 0.715000   0.122757   -0.107269
 0.720000   0.122227   -0.104837
 0.725000   0.121709   -0.102170
 0.730000   0.121205   -0.099245
 0.735000   0.120716   -0.096065
 0.740000   0.120244   -0.092595
 0.745000   0.119790   -0.088798
 0.750000   0.119356   -0.084692
 0.755000   0.118943   -0.080289
 0.760000   0.118553   -0.075585
 0.765000   0.118188   -0.070604
 0.770000   0.117847   -0.065333
 0.775000   0.117534   -0.059861
 0.780000   0.117249   -0.054452
 0.785000   0.116990   -0.049257
 0.790000   0.116756   -0.044355
 0.795000   0.116546   -0.039888
 0.800000   0.116357   -0.035970
 0.805000   0.116186   -0.032741
 0.810000   0.116030   -0.030212
 0.815000   0.115884   -0.028267
 0.820000   0.115747   -0.026836
 0.825000   0.115616   -0.025810
 0.830000   0.115489   -0.025102
 0.835000   0.115365   -0.024747
 0.840000   0.115242   -0.024566
 0.845000   0.115119   -0.024398
 0.850000   0.114998   -0.024316
 0.855000   0.114876   -0.024245
 0.860000   0.114755   -0.024173
 0.865000   0.114634   -0.024264
 0.870000   0.114513   -0.024477
 0.875000   0.114390   -0.024968
 0.880000   0.114263   -0.026294
 0.885000   0.114127   -0.029063
 0.890000   0.113972   -0.034037
 0.895000   0.113786   -0.041940
 0.900000   0.113553   -0.053761
 0.905000   0.113249   -0.070625
 0.910000   0.112847   -0.093484
 0.915000   0.112314   -0.123280
 0.920000   0.111614   -0.160758
 0.925000   0.110706   -0.206281
 0.930000   0.109551   -0.259740
 0.935000   0.108109   -0.320315
 0.940000   0.106348   -0.386327
 0.945000   0.104246   -0.455314
 0.950000   0.101795   -0.524127
 0.955000   0.099004   -0.589183
 0.960000   0.095903   -0.646930
 0.965000   0.092535   -0.694203
 0.970000   0.088961   -0.728541
 0.975000   0.085250   -0.748557
 0.980000   0.081475   -0.753913
 0.985000   0.077711   -0.744874
 0.990000   0.074027   -0.722677
 0.995000   0.070484   -0.689374
 1.000000   0.067133   -0.651020
201 psinorm ti(KeV) dti/dpsiN
 0.000000   5.776852   0.000568
 0.005000   5.775569   -0.513475
 0.010000   5.771717   -1.027831
 0.015000   5.765291   -1.542619
 0.020000   5.756291   -2.057526
 0.025000   5.744716   -2.572470
 0.030000   5.730566   -3.087593
 0.035000   5.713840   -3.603153
 0.040000   5.694534   -4.120658
 0.045000   5.672633   -4.639752
 0.050000   5.648137   -5.158999
 0.055000   5.621043   -5.678552
 0.060000   5.591351   -6.197865
 0.065000   5.559065   -6.715835
 0.070000   5.524193   -7.232692
 0.075000   5.486738   -7.743812
 0.080000   5.446755   -8.242907
 0.085000   5.404309   -8.727832
 0.090000   5.359477   -9.195123
 0.095000   5.312357   -9.640559
 0.100000   5.263071   -10.058794
 0.105000   5.211769   -10.445641
 0.110000   5.158615   -10.800957
 0.115000   5.103760   -11.124666
 0.120000   5.047368   -11.415291
 0.125000   4.989607   -11.671878
 0.130000   4.930649   -11.891018
 0.135000   4.870697   -12.072576
 0.140000   4.809923   -12.221300
 0.145000   4.748484   -12.337838
 0.150000   4.686545   -12.421743
 0.155000   4.624266   -12.474851
 0.160000   4.561797   -12.497676
 0.165000   4.499290   -12.496383
 0.170000   4.436833   -12.481806
 0.175000   4.374472   -12.456200
 0.180000   4.312271   -12.417036
 0.185000   4.250301   -12.362242
 0.190000   4.188648   -12.288469
 0.195000   4.127416   -12.193280
 0.200000   4.066715   -12.077554
 0.205000   4.006641   -11.943822
 0.210000   3.947277   -11.793748
 0.215000   3.888703   -11.628322
 0.220000   3.830994   -11.448832
 0.225000   3.774215   -11.256554
 0.230000   3.718428   -11.049990
 0.235000   3.663715   -10.827629
 0.240000   3.610152   -10.589928
 0.245000   3.557816   -10.337464
 0.250000   3.506778   -10.071764
 0.255000   3.457098   -9.797370
 0.260000   3.408804   -9.523635
 0.265000   3.361862   -9.255620
 0.270000   3.316248   -8.992797
 0.275000   3.271934   -8.735187
 0.280000   3.228896   -8.482482
 0.285000   3.187109   -8.235755
 0.290000   3.146538   -7.986898
 0.295000   3.107240   -7.730349
 0.300000   3.069235   -7.470294
 0.305000   3.032537   -7.207671
 0.310000   2.997158   -6.943583
 0.315000   2.963101   -6.678479
 0.320000   2.930373   -6.413003
 0.325000   2.898971   -6.149677
 0.330000   2.868876   -5.891074
 0.335000   2.840061   -5.638756
 0.340000   2.812489   -5.394108
 0.345000   2.786120   -5.155117
 0.350000   2.760938   -4.924685
 0.355000   2.736873   -4.707703
 0.360000   2.713861   -4.503651
 0.365000   2.691836   -4.313047
 0.370000   2.670730   -4.136426
 0.375000   2.650472   -3.970672
 0.380000   2.631024   -3.817344
 0.385000   2.612299   -3.680428
 0.390000   2.594219   -3.558298
 0.395000   2.576716   -3.450418
 0.400000   2.559715   -3.357338
 0.405000   2.543142   -3.279288
 0.410000   2.526922   -3.221253
 0.415000   2.510930   -3.186944
 0.420000   2.495053   -3.173955
 0.425000   2.479190   -3.180979
 0.430000   2.463243   -3.207258
 0.435000   2.447117   -3.253672
 0.440000   2.430706   -3.316725
 0.445000   2.413950   -3.388892
 0.450000   2.396817   -3.468900
 0.455000   2.379261   -3.557607
 0.460000   2.361241   -3.653820
 0.465000   2.342723   -3.756909
 0.470000   2.323672   -3.863883
 0.475000   2.304084   -3.970894
 0.480000   2.283963   -4.079655
 0.485000   2.263288   -4.194517
 0.490000   2.242018   -4.319329
 0.495000   2.220094   -4.460071
 0.500000   2.197417   -4.623347
 0.505000   2.173861   -4.804270
 0.510000   2.149375   -4.996903
 0.515000   2.123892   -5.201627
 0.520000   2.097358   -5.415498
 0.525000   2.069737   -5.637454
 0.530000   2.040984   -5.866803
 0.535000   2.011069   -6.084372
 0.540000   1.980140   -6.278419
 0.545000   1.948285   -6.452463
 0.550000   1.915615   -6.601471
 0.555000   1.882270   -6.721166
 0.560000   1.848404   -6.805976
 0.565000   1.814210   -6.847632
 0.570000   1.779927   -6.845701
 0.575000   1.745753   -6.804576
 0.580000   1.711882   -6.725505
 0.585000   1.678498   -6.610496
 0.590000   1.645777   -6.453527
 0.595000   1.613963   -6.269157
 0.600000   1.583085   -6.073687
 0.605000   1.553226   -5.864106
 0.610000   1.524444   -5.644993
 0.615000   1.496776   -5.420692
 0.620000   1.470237   -5.187405
 0.625000   1.444902   -4.959389
 0.630000   1.420643   -4.748731
 0.635000   1.397415   -4.547673
 0.640000   1.375167   -4.357068
 0.645000   1.353844   -4.177763
 0.650000   1.333389   -4.011122
 0.655000   1.313733   -3.858690
 0.660000   1.294802   -3.715526
 0.665000   1.276578   -3.573753
 0.670000   1.259065   -3.430142
 0.675000   1.242276   -3.284212
 0.680000   1.226222   -3.137733
 0.685000   1.210899   -2.993872
 0.690000   1.196284   -2.854955
 0.695000   1.182349   -2.721957
 0.700000   1.169064   -2.595617
 0.705000   1.156393   -2.476666
 0.710000   1.144297   -2.365497
 0.715000   1.132738   -2.262919
 0.720000   1.121668   -2.170196
 0.725000   1.111036   -2.088119
 0.730000   1.100787   -2.017282
 0.735000   1.090863   -1.958228
 0.740000   1.081205   -1.912117
 0.745000   1.071742   -1.880877
 0.750000   1.062396   -1.865047
 0.755000   1.053092   -1.864306
 0.760000   1.043753   -1.878334
 0.765000   1.034308   -1.906008
 0.770000   1.024693   -1.946924
 0.775000   1.014839   -1.998972
 0.780000   1.004703   -2.057761
 0.785000   0.994262   -2.122688
 0.790000   0.983476   -2.195203
 0.795000   0.972309   -2.275511
 0.800000   0.960721   -2.365045
 0.805000   0.948659   -2.465990
 0.810000   0.936061   -2.576060
 0.815000   0.922898   -2.692043
 0.820000   0.909141   -2.812776
 0.825000   0.894771   -2.935754
 0.830000   0.879783   -3.059010
 0.835000   0.864181   -3.181218
 0.840000   0.847971   -3.294860
 0.845000   0.831232   -3.393892
 0.850000   0.814032   -3.476645
 0.855000   0.796466   -3.538223
 0.860000   0.778650   -3.573657
 0.865000   0.760729   -3.575710
 0.870000   0.742893   -3.543340
 0.875000   0.725296   -3.481844
 0.880000   0.708074   -3.395334
 0.885000   0.691342   -3.289256
 0.890000   0.675182   -3.169647
 0.895000   0.659646   -3.038508
 0.900000   0.644797   -2.906215
 0.905000   0.630584   -2.779102
 0.910000   0.617006   -2.653168
 0.915000   0.604052   -2.530586
 0.920000   0.591700   -2.413338
 0.925000   0.579919   -2.304969
 0.930000   0.568650   -2.206064
 0.935000   0.557858   -2.113442
 0.940000   0.547516   -2.026116
 0.945000   0.537597   -1.944416
 0.950000   0.528072   -1.868771
 0.955000   0.518909   -1.805286
 0.960000   0.510019   -1.751046
 0.965000   0.501399   -1.700515
 0.970000   0.493014   -1.659161
 0.975000   0.484807   -1.631096
 0.980000   0.476703   -1.620946
 0.985000   0.468597   -1.641130
 0.990000   0.460291   -1.698873
 0.995000   0.451609   -1.796938
 1.000000   0.442322   -1.917767
201 psinorm nb(10^20/m^3) dnb/dpsiN
 0.000000   0.157076   0.079634
 0.005000   0.156836   -0.175461
 0.010000   0.155321   -0.370628
 0.015000   0.153130   -0.487388
 0.020000   0.150447   -0.573335
 0.025000   0.147396   -0.636559
 0.030000   0.144082   -0.682577
 0.035000   0.140571   -0.714005
 0.040000   0.136941   -0.733052
 0.045000   0.133240   -0.743295
 0.050000   0.129509   -0.745543
 0.055000   0.125785   -0.741516
 0.060000   0.122093   -0.732653
 0.065000   0.118458   -0.719715
 0.070000   0.114896   -0.703902
 0.075000   0.111419   -0.685777
 0.080000   0.108038   -0.665490
 0.085000   0.104764   -0.644740
 0.090000   0.101591   -0.622397
 0.095000   0.098540   -0.598871
 0.100000   0.095602   -0.576526
 0.105000   0.092775   -0.554415
 0.110000   0.090058   -0.530641
 0.115000   0.087469   -0.507032
 0.120000   0.084988   -0.485409
 0.125000   0.082614   -0.464160
 0.130000   0.080346   -0.443391
 0.135000   0.078181   -0.423194
 0.140000   0.076114   -0.403618
 0.145000   0.074144   -0.384618
 0.150000   0.072268   -0.366163
 0.155000   0.070483   -0.348788
 0.160000   0.068780   -0.332541
 0.165000   0.067157   -0.317075
 0.170000   0.065610   -0.302443
 0.175000   0.064133   -0.288543
 0.180000   0.062724   -0.275357
 0.185000   0.061379   -0.262923
 0.190000   0.060095   -0.250988
 0.195000   0.058869   -0.239574
 0.200000   0.057699   -0.229007
 0.205000   0.056579   -0.219172
 0.210000   0.055507   -0.209961
 0.215000   0.054480   -0.201359
 0.220000   0.053494   -0.193339
 0.225000   0.052546   -0.185888
 0.230000   0.051635   -0.178977
 0.235000   0.050757   -0.172564
 0.240000   0.049909   -0.166413
 0.245000   0.049093   -0.160458
 0.250000   0.048305   -0.155180
 0.255000   0.047541   -0.150585
 0.260000   0.046799   -0.146342
 0.265000   0.046077   -0.142415
 0.270000   0.045375   -0.138734
 0.275000   0.044690   -0.134969
 0.280000   0.044025   -0.131558
 0.285000   0.043374   -0.128789
 0.290000   0.042737   -0.126227
 0.295000   0.042112   -0.123850
 0.300000   0.041499   -0.121360
 0.305000   0.040899   -0.119025
 0.310000   0.040308   -0.117156
 0.315000   0.039727   -0.115452
 0.320000   0.039154   -0.113805
 0.325000   0.038589   -0.112032
 0.330000   0.038034   -0.110422
 0.335000   0.037485   -0.109135
 0.340000   0.036942   -0.107908
 0.345000   0.036406   -0.106538
 0.350000   0.035877   -0.105206
 0.355000   0.035354   -0.104138
 0.360000   0.034835   -0.103139
 0.365000   0.034322   -0.101999
 0.370000   0.033815   -0.100830
 0.375000   0.033314   -0.099848
 0.380000   0.032817   -0.098932
 0.385000   0.032325   -0.097816
 0.390000   0.031839   -0.096651
 0.395000   0.031358   -0.095679
 0.400000   0.030882   -0.094731
 0.405000   0.030411   -0.093495
 0.410000   0.029947   -0.092240
 0.415000   0.029488   -0.091236
 0.420000   0.029035   -0.090111
 0.425000   0.028587   -0.088750
 0.430000   0.028147   -0.087473
 0.435000   0.027712   -0.086393
 0.440000   0.027283   -0.085040
 0.445000   0.026862   -0.083577
 0.450000   0.026447   -0.082366
 0.455000   0.026038   -0.081167
 0.460000   0.025636   -0.079673
 0.465000   0.025242   -0.078259
 0.470000   0.024853   -0.077148
 0.475000   0.024470   -0.075794
 0.480000   0.024095   -0.074358
 0.485000   0.023727   -0.073202
 0.490000   0.023363   -0.072093
 0.495000   0.023006   -0.070749
 0.500000   0.022656   -0.069514
 0.505000   0.022311   -0.068555
 0.510000   0.021970   -0.067356
 0.515000   0.021637   -0.066107
 0.520000   0.021309   -0.065128
 0.525000   0.020986   -0.064121
 0.530000   0.020668   -0.062932
 0.535000   0.020356   -0.061868
 0.540000   0.020049   -0.061015
 0.545000   0.019746   -0.059920
 0.550000   0.019450   -0.058832
 0.555000   0.019158   -0.058028
 0.560000   0.018870   -0.057147
 0.565000   0.018586   -0.056173
 0.570000   0.018308   -0.055361
 0.575000   0.018033   -0.054700
 0.580000   0.017761   -0.053871
 0.585000   0.017494   -0.053097
 0.590000   0.017230   -0.052559
 0.595000   0.016969   -0.051958
 0.600000   0.016710   -0.051331
 0.605000   0.016455   -0.050833
 0.610000   0.016202   -0.050428
 0.615000   0.015951   -0.049945
 0.620000   0.015703   -0.049508
 0.625000   0.015456   -0.049210
 0.630000   0.015211   -0.048892
 0.635000   0.014967   -0.048568
 0.640000   0.014725   -0.048315
 0.645000   0.014484   -0.048121
 0.650000   0.014244   -0.047909
 0.655000   0.014005   -0.047721
 0.660000   0.013766   -0.047596
 0.665000   0.013529   -0.047484
 0.670000   0.013292   -0.047376
 0.675000   0.013055   -0.047298
 0.680000   0.012819   -0.047251
 0.685000   0.012583   -0.047210
 0.690000   0.012347   -0.047181
 0.695000   0.012111   -0.047171
 0.700000   0.011875   -0.047173
 0.705000   0.011639   -0.047182
 0.710000   0.011403   -0.047199
 0.715000   0.011167   -0.047221
 0.720000   0.010931   -0.047249
 0.725000   0.010694   -0.047285
 0.730000   0.010458   -0.047333
 0.735000   0.010221   -0.047386
 0.740000   0.009984   -0.047436
 0.745000   0.009747   -0.047488
 0.750000   0.009509   -0.047546
 0.755000   0.009271   -0.047598
 0.760000   0.009033   -0.047636
 0.765000   0.008795   -0.047667
 0.770000   0.008557   -0.047695
 0.775000   0.008318   -0.047706
 0.780000   0.008080   -0.047698
 0.785000   0.007841   -0.047681
 0.790000   0.007603   -0.047645
 0.795000   0.007365   -0.047581
 0.800000   0.007127   -0.047499
 0.805000   0.006890   -0.047410
 0.810000   0.006653   -0.047313
 0.815000   0.006416   -0.047198
 0.820000   0.006181   -0.047042
 0.825000   0.005946   -0.046854
 0.830000   0.005712   -0.046651
 0.835000   0.005480   -0.046417
 0.840000   0.005248   -0.046147
 0.845000   0.005018   -0.045837
 0.850000   0.004790   -0.045435
 0.855000   0.004564   -0.044970
 0.860000   0.004340   -0.044484
 0.865000   0.004119   -0.043940
 0.870000   0.003901   -0.043334
 0.875000   0.003686   -0.042665
 0.880000   0.003474   -0.041929
 0.885000   0.003266   -0.041102
 0.890000   0.003063   -0.040157
 0.895000   0.002865   -0.039158
 0.900000   0.002671   -0.038139
 0.905000   0.002483   -0.037062
 0.910000   0.002301   -0.035936
 0.915000   0.002124   -0.034768
 0.920000   0.001953   -0.033572
 0.925000   0.001788   -0.032357
 0.930000   0.001630   -0.031131
 0.935000   0.001477   -0.029889
 0.940000   0.001331   -0.028621
 0.945000   0.001191   -0.027308
 0.950000   0.001058   -0.025918
 0.955000   0.000932   -0.024396
 0.960000   0.000814   -0.022675
 0.965000   0.000705   -0.020745
 0.970000   0.000606   -0.018662
 0.975000   0.000518   -0.016518
 0.980000   0.000441   -0.014516
 0.985000   0.000373   -0.013023
 0.990000   0.000311   -0.012409
 0.995000   0.000249   -0.013144
 1.000000   0.000179   -0.014711
201 psinorm pb(KPa) dpb/dpsiN
 0.000000   63.428214   -8.104566
 0.005000   63.167939   -96.005430
 0.010000   62.468160   -166.817818
 0.015000   61.499761   -213.247465
 0.020000   60.335685   -247.131264
 0.025000   59.028448   -271.418159
 0.030000   57.621503   -288.677739
 0.035000   56.141671   -299.985164
 0.040000   54.621652   -306.331580
 0.045000   53.078355   -309.054014
 0.050000   51.531112   -308.461875
 0.055000   49.993736   -305.600729
 0.060000   48.475104   -300.947768
 0.065000   46.984259   -294.756526
 0.070000   45.527539   -287.518884
 0.075000   44.109070   -279.475292
 0.080000   42.732786   -270.648600
 0.085000   41.402584   -261.693777
 0.090000   40.115848   -252.176855
 0.095000   38.880815   -242.252031
 0.100000   37.693328   -232.869128
 0.105000   36.552124   -223.631911
 0.110000   35.457009   -213.780915
 0.115000   34.414315   -204.056135
 0.120000   33.416448   -195.172441
 0.125000   32.462590   -186.478811
 0.130000   31.551659   -178.013821
 0.135000   30.682452   -169.810011
 0.140000   29.853559   -161.875194
 0.145000   29.063700   -154.199820
 0.150000   28.311561   -146.779495
 0.155000   27.595905   -139.808566
 0.160000   26.913476   -133.310868
 0.165000   26.262797   -127.145337
 0.170000   25.642022   -121.319631
 0.175000   25.049600   -115.797331
 0.180000   24.484049   -110.574509
 0.185000   23.943855   -105.654235
 0.190000   23.427507   -100.932079
 0.195000   22.934534   -96.418812
 0.200000   22.463318   -92.232729
 0.205000   22.012207   -88.330156
 0.210000   21.580017   -84.668416
 0.215000   21.165523   -81.245804
 0.220000   20.767559   -78.056313
 0.225000   20.384960   -75.095466
 0.230000   20.016604   -72.350416
 0.235000   19.661456   -69.805583
 0.240000   19.318548   -67.372181
 0.245000   18.987734   -65.025647
 0.250000   18.668292   -62.944857
 0.255000   18.358285   -61.130696
 0.260000   18.056985   -59.453766
 0.265000   17.763748   -57.900197
 0.270000   17.477983   -56.445302
 0.275000   17.199295   -54.970600
 0.280000   16.928277   -53.634829
 0.285000   16.662946   -52.540988
 0.290000   16.402867   -51.527659
 0.295000   16.147670   -50.583217
 0.300000   15.897035   -49.609300
 0.305000   15.651577   -48.703473
 0.310000   15.410000   -47.967697
 0.315000   15.171900   -47.293983
 0.320000   14.937060   -46.645369
 0.325000   14.705446   -45.964545
 0.330000   14.477415   -45.347730
 0.335000   14.251969   -44.842298
 0.340000   14.028992   -44.359089
 0.345000   13.808378   -43.840302
 0.350000   13.590589   -43.339255
 0.355000   13.374985   -42.920960
 0.360000   13.161379   -42.527177
 0.365000   12.949713   -42.098627
 0.370000   12.740393   -41.665638
 0.375000   12.533057   -41.284650
 0.380000   12.327546   -40.919168
 0.385000   12.123865   -40.495484
 0.390000   11.922592   -40.054259
 0.395000   11.723323   -39.661710
 0.400000   11.525975   -39.271411
 0.405000   11.330609   -38.789181
 0.410000   11.138083   -38.291429
 0.415000   10.947694   -37.860783
 0.420000   10.759475   -37.387616
 0.425000   10.573818   -36.832312
 0.430000   10.391152   -36.295580
 0.435000   10.210862   -35.818182
 0.440000   10.032970   -35.244779
 0.445000   9.858415   -34.628391
 0.450000   9.686686   -34.092416
 0.455000   9.517490   -33.559160
 0.460000   9.351094   -32.921355
 0.465000   9.188277   -32.309638
 0.470000   9.027998   -31.804740
 0.475000   8.870230   -31.220379
 0.480000   8.715794   -30.610632
 0.485000   8.564123   -30.100861
 0.490000   8.414786   -29.612593
 0.495000   8.267997   -29.054637
 0.500000   8.124239   -28.535038
 0.505000   7.982647   -28.103606
 0.510000   7.843203   -27.594106
 0.515000   7.706706   -27.069217
 0.520000   7.572511   -26.633573
 0.525000   7.440370   -26.188557
 0.530000   7.310625   -25.679440
 0.535000   7.183576   -25.211168
 0.540000   7.058514   -24.815216
 0.545000   6.935424   -24.335774
 0.550000   6.815156   -23.858941
 0.555000   6.696834   -23.481650
 0.560000   6.580340   -23.079145
 0.565000   6.466043   -22.646925
 0.570000   6.353870   -22.274151
 0.575000   6.243301   -21.956508
 0.580000   6.134305   -21.585783
 0.585000   6.027443   -21.237837
 0.590000   5.921927   -20.972448
 0.595000   5.817719   -20.690355
 0.600000   5.715023   -20.404160
 0.605000   5.613677   -20.163213
 0.610000   5.513391   -19.954428
 0.615000   5.414133   -19.727264
 0.620000   5.316119   -19.518003
 0.625000   5.218953   -19.350486
 0.630000   5.122614   -19.179583
 0.635000   5.027157   -19.010146
 0.640000   4.932512   -18.861573
 0.645000   4.838541   -18.728763
 0.650000   4.745225   -18.594149
 0.655000   4.652600   -18.467644
 0.660000   4.560548   -18.355612
 0.665000   4.469044   -18.246882
 0.670000   4.378079   -18.142969
 0.675000   4.287614   -18.046825
 0.680000   4.197611   -17.955052
 0.685000   4.108064   -17.865444
 0.690000   4.018957   -17.780536
 0.695000   3.930258   -17.698688
 0.700000   3.841970   -17.617043
 0.705000   3.754088   -17.537869
 0.710000   3.666591   -17.459933
 0.715000   3.579488   -17.380875
 0.720000   3.492782   -17.301642
 0.725000   3.406472   -17.223187
 0.730000   3.320550   -17.145362
 0.735000   3.235018   -17.066095
 0.740000   3.149890   -16.984567
 0.745000   3.065173   -16.900572
 0.750000   2.980884   -16.815227
 0.755000   2.897020   -16.726224
 0.760000   2.813622   -16.631477
 0.765000   2.730706   -16.533089
 0.770000   2.648291   -16.430573
 0.775000   2.566400   -16.320361
 0.780000   2.485087   -16.206253
 0.785000   2.404337   -16.091563
 0.790000   2.324171   -15.968989
 0.795000   2.244648   -15.831423
 0.800000   2.165857   -15.689938
 0.805000   2.087748   -15.551656
 0.810000   2.010341   -15.412300
 0.815000   1.933625   -15.276715
 0.820000   1.857574   -15.101982
 0.825000   1.782605   -14.906674
 0.830000   1.708507   -14.729706
 0.835000   1.635308   -14.545531
 0.840000   1.563051   -14.352591
 0.845000   1.491782   -14.149288
 0.850000   1.421559   -13.914451
 0.855000   1.352638   -13.663192
 0.860000   1.284927   -13.415196
 0.865000   1.218486   -13.154043
 0.870000   1.153386   -12.879019
 0.875000   1.089696   -12.590266
 0.880000   1.027484   -12.287204
 0.885000   0.966824   -11.961266
 0.890000   0.907871   -11.601118
 0.895000   0.850813   -11.234971
 0.900000   0.795521   -10.877045
 0.905000   0.742042   -10.512448
 0.910000   0.690397   -10.145483
 0.915000   0.640587   -9.780825
 0.920000   0.592588   -9.424953
 0.925000   0.546338   -9.085333
 0.930000   0.501735   -8.768372
 0.935000   0.458654   -8.477742
 0.940000   0.416958   -8.213885
 0.945000   0.376515   -7.974022
 0.950000   0.337217   -7.746964
 0.955000   0.299045   -7.508187
 0.960000   0.262136   -7.224681
 0.965000   0.226799   -6.865179
 0.970000   0.193484   -6.407295
 0.975000   0.162726   -5.850449
 0.980000   0.134979   -5.225030
 0.985000   0.110475   -4.576731
 0.990000   0.089212   -3.993018
 0.995000   0.070545   -3.700491
 1.000000   0.052207   -3.634762
201 psinorm ptot(KPa) dptot/dpsiN
 0.000000   95.873008   -82.787883
 0.005000   95.296351   -147.875083
 0.010000   94.394258   -201.426510
 0.015000   93.282086   -237.875109
 0.020000   92.015506   -264.670480
 0.025000   90.635381   -284.022824
 0.030000   89.175278   -297.997137
 0.035000   87.655410   -307.427184
 0.040000   86.101006   -313.101199
 0.045000   84.524398   -316.022612
 0.050000   82.940780   -316.417950
 0.055000   81.360218   -315.170443
 0.060000   79.789076   -312.618821
 0.065000   78.234030   -308.938208
 0.070000   76.699694   -304.508006
 0.075000   75.188950   -299.497455
 0.080000   73.704719   -293.886843
 0.085000   72.250081   -288.168345
 0.090000   70.823036   -281.985729
 0.095000   69.430224   -275.436681
 0.100000   68.068669   -269.244398
 0.105000   66.737780   -263.073335
 0.110000   65.437936   -256.311819
 0.115000   64.174662   -249.543249
 0.120000   62.942503   -243.326615
 0.125000   61.741396   -237.141158
 0.130000   60.571092   -231.005486
 0.135000   59.431341   -224.944196
 0.140000   58.321650   -218.974236
 0.145000   57.241599   -213.090083
 0.150000   56.190749   -207.287449
 0.155000   55.168724   -201.726365
 0.160000   54.173485   -196.431262
 0.165000   53.204412   -191.307491
 0.170000   52.260410   -186.389831
 0.175000   51.340513   -181.656356
 0.180000   50.443847   -177.098523
 0.185000   49.569528   -172.710869
 0.190000   48.716738   -168.396856
 0.195000   47.885559   -164.157771
 0.200000   47.075160   -160.092652
 0.205000   46.284633   -156.176448
 0.210000   45.513396   -152.382928
 0.215000   44.760804   -148.717394
 0.220000   44.026222   -145.182530
 0.225000   43.308978   -141.781437
 0.230000   42.608407   -138.505745
 0.235000   41.923921   -135.343041
 0.240000   41.254977   -132.221050
 0.245000   40.601710   -129.122871
 0.250000   39.963748   -126.206857
 0.255000   39.339642   -123.489422
 0.260000   38.728854   -120.890945
 0.265000   38.130732   -118.415230
 0.270000   37.544702   -116.038493
 0.275000   36.970347   -113.658976
 0.280000   36.408112   -111.411090
 0.285000   35.856237   -109.386150
 0.290000   35.314251   -107.422842
 0.295000   34.782008   -105.495539
 0.300000   34.259295   -103.533343
 0.305000   33.746675   -101.623826
 0.310000   33.243057   -99.857744
 0.315000   32.748097   -98.143825
 0.320000   32.261619   -96.452703
 0.325000   31.783570   -94.743419
 0.330000   31.314184   -93.106261
 0.335000   30.852508   -91.585928
 0.340000   30.398325   -90.109499
 0.345000   29.951413   -88.622927
 0.350000   29.512096   -87.179136
 0.355000   29.079621   -85.846057
 0.360000   28.653635   -84.572756
 0.365000   28.233894   -83.310054
 0.370000   27.820535   -82.084418
 0.375000   27.413050   -80.934317
 0.380000   27.011192   -79.831973
 0.385000   26.614730   -78.724860
 0.390000   26.223943   -77.642875
 0.395000   25.838301   -76.640456
 0.400000   25.457538   -75.679414
 0.405000   25.081507   -74.678090
 0.410000   24.710758   -73.714642
 0.415000   24.344360   -72.871165
 0.420000   23.982046   -72.047152
 0.425000   23.623889   -71.203870
 0.430000   23.270007   -70.427358
 0.435000   22.919615   -69.756298
 0.440000   22.572444   -69.045026
 0.445000   22.229165   -68.320220
 0.450000   21.889242   -67.687548
 0.455000   21.552290   -67.080686
 0.460000   21.218435   -66.400545
 0.465000   20.888284   -65.761948
 0.470000   20.560816   -65.229238
 0.475000   20.235992   -64.625032
 0.480000   19.914565   -64.000984
 0.485000   19.595982   -63.480032
 0.490000   19.279765   -63.001362
 0.495000   18.965968   -62.497870
 0.500000   18.654786   -62.080436
 0.505000   18.345164   -61.780167
 0.510000   18.036985   -61.434555
 0.515000   17.730818   -61.100646
 0.520000   17.425978   -60.864715
 0.525000   17.122171   -60.635382
 0.530000   16.819624   -60.360873
 0.535000   16.518563   -60.089956
 0.540000   16.218725   -59.823924
 0.545000   15.920323   -59.430557
 0.550000   15.624419   -58.976875
 0.555000   15.330555   -58.542153
 0.560000   15.038998   -58.000877
 0.565000   14.750546   -57.331003
 0.570000   14.465688   -56.614879
 0.575000   14.184397   -55.860472
 0.580000   13.907083   -54.972879
 0.585000   13.634668   -54.027819
 0.590000   13.366805   -53.068003
 0.595000   13.103988   -52.036731
 0.600000   12.846437   -50.983539
 0.605000   12.594153   -49.947477
 0.610000   12.346963   -48.927312
 0.615000   12.104880   -47.886790
 0.620000   11.868095   -46.851028
 0.625000   11.636369   -45.873401
 0.630000   11.409361   -44.939028
 0.635000   11.186979   -44.034768
 0.640000   10.969013   -43.179740
 0.645000   10.755182   -42.370590
 0.650000   10.545307   -41.593905
 0.655000   10.339243   -40.861471
 0.660000   10.136692   -40.167786
 0.665000   9.937565   -39.485581
 0.670000   9.741837   -38.809655
 0.675000   9.549468   -38.141501
 0.680000   9.360422   -37.481500
 0.685000   9.174653   -36.834534
 0.690000   8.992076   -36.207630
 0.695000   8.812577   -35.600646
 0.700000   8.636070   -35.011860
 0.705000   8.462458   -34.444479
 0.710000   8.291625   -33.897141
 0.715000   8.123487   -33.368409
 0.720000   7.957941   -32.861484
 0.725000   7.794872   -32.378338
 0.730000   7.634158   -31.919332
 0.735000   7.475679   -31.483165
 0.740000   7.319326   -31.070491
 0.745000   7.164974   -30.684007
 0.750000   7.012486   -30.325740
 0.755000   6.861716   -29.992560
 0.760000   6.712560   -29.681401
 0.765000   6.564902   -29.392136
 0.770000   6.418639   -29.123095
 0.775000   6.273672   -28.867656
 0.780000   6.129962   -28.624479
 0.785000   5.987427   -28.397510
 0.790000   5.845987   -28.183111
 0.795000   5.705596   -27.976134
 0.800000   5.566226   -27.791494
 0.805000   5.427681   -27.641769
 0.810000   5.289808   -27.517928
 0.815000   5.152501   -27.416692
 0.820000   5.015641   -27.291746
 0.825000   4.879584   -27.155228
 0.830000   4.744089   -27.041064
 0.835000   4.609173   -26.921647
 0.840000   4.474873   -26.779256
 0.845000   4.341381   -26.599544
 0.850000   4.208877   -26.360049
 0.855000   4.077780   -26.067044
 0.860000   3.948207   -25.732364
 0.865000   3.820457   -25.330075
 0.870000   3.694906   -24.860149
 0.875000   3.571855   -24.338172
 0.880000   3.451524   -23.781418
 0.885000   3.334041   -23.202936
 0.890000   3.219495   -22.616489
 0.895000   3.107876   -22.068502
 0.900000   2.998810   -21.610932
 0.905000   2.891767   -21.261826
 0.910000   2.786192   -21.038911
 0.915000   2.681378   -20.973044
 0.920000   2.576461   -21.095284
 0.925000   2.470425   -21.436336
 0.930000   2.362098   -22.012954
 0.935000   2.250295   -22.819282
 0.940000   2.133905   -23.830465
 0.945000   2.011991   -24.993762
 0.950000   1.883967   -26.212506
 0.955000   1.749866   -27.343970
 0.960000   1.610528   -28.182565
 0.965000   1.468040   -28.498540
 0.970000   1.325542   -28.106090
 0.975000   1.186979   -26.912139
 0.980000   1.056421   -24.977148
 0.985000   0.937208   -22.516203
 0.990000   0.831259   -19.866287
 0.995000   0.738545   -17.505390
 1.000000   0.656205   -15.430511
201 psinorm omeg(kRad/s) domeg/dpsiN
 0.000000   18.886417   0.020508
 0.005000   18.885748   -0.288241
 0.010000   18.883535   -0.629433
 0.015000   18.879454   -1.042187
 0.020000   18.873113   -1.540509
 0.025000   18.864049   -2.140969
 0.030000   18.851703   -2.863871
 0.035000   18.835410   -3.733394
 0.040000   18.814370   -4.789105
 0.045000   18.787519   -6.061517
 0.050000   18.753754   -7.576932
 0.055000   18.711750   -9.378788
 0.060000   18.659966   -11.507335
 0.065000   18.596676   -13.996711
 0.070000   18.519999   -16.887900
 0.075000   18.427797   -20.150559
 0.080000   18.318494   -23.727180
 0.085000   18.190525   -27.598716
 0.090000   18.042507   -31.713199
 0.095000   17.873393   -35.992872
 0.100000   17.682578   -40.281305
 0.105000   17.470580   -44.469701
 0.110000   17.237881   -48.573927
 0.115000   16.984841   -52.566511
 0.120000   16.712216   -56.395414
 0.125000   16.420887   -60.042685
 0.130000   16.111789   -63.398536
 0.135000   15.786902   -66.444127
 0.140000   15.447348   -69.282427
 0.145000   15.094077   -71.861935
 0.150000   14.728728   -74.126676
 0.155000   14.352811   -76.116351
 0.160000   13.967565   -77.820869
 0.165000   13.574602   -79.428280
 0.170000   13.173282   -81.302385
 0.175000   12.761578   -83.506090
 0.180000   12.338221   -85.934362
 0.185000   11.902234   -88.489844
 0.190000   11.453323   -90.992716
 0.195000   10.992307   -93.265679
 0.200000   10.520666   -95.278923
 0.205000   10.039518   -97.076899
 0.210000   9.549897   -98.661504
 0.215000   9.052903   -100.016832
 0.220000   8.549729   -101.133580
 0.225000   8.041567   -102.010420
 0.230000   7.529624   -102.569408
 0.235000   7.015873   -102.715646
 0.240000   6.502468   -102.402818
 0.245000   5.991845   -101.588464
 0.250000   5.486583   -100.262029
 0.255000   4.989225   -98.515755
 0.260000   4.501426   -96.503406
 0.265000   4.024191   -94.270718
 0.270000   3.558719   -91.770784
 0.275000   3.106483   -88.933201
 0.280000   2.669387   -85.669975
 0.285000   2.249783   -81.929129
 0.290000   1.850095   -77.359668
 0.295000   1.476186   -71.747705
 0.300000   1.132618   -65.240507
 0.305000   0.823781   -57.889174
 0.310000   0.553726   -49.777801
 0.315000   0.326003   -41.002282
 0.320000   0.143704   -31.719310
 0.325000   0.008810   -22.140486
 0.330000   -0.077701   -12.455780
 0.335000   -0.115748   -2.841417
 0.340000   -0.106115   6.534065
 0.345000   -0.050407   15.464199
 0.350000   0.048527   23.800920
 0.355000   0.187602   31.483211
 0.360000   0.363359   38.445955
 0.365000   0.572062   44.651222
 0.370000   0.809871   50.084925
 0.375000   1.072911   54.584890
 0.380000   1.355720   58.165251
 0.385000   1.654563   60.996710
 0.390000   1.965687   63.075687
 0.395000   2.285320   64.454654
 0.400000   2.610233   65.260476
 0.405000   2.937925   65.602848
 0.410000   3.266262   65.933101
 0.415000   3.597256   66.657057
 0.420000   3.932832   67.733086
 0.425000   4.274587   69.124879
 0.430000   4.624081   70.787625
 0.435000   4.982463   72.741273
 0.440000   5.351494   74.690160
 0.445000   5.729365   76.043962
 0.450000   6.111934   76.618559
 0.455000   6.495550   76.397411
 0.460000   6.875908   75.258427
 0.465000   7.248135   73.162508
 0.470000   7.607533   69.982009
 0.475000   7.947955   65.549017
 0.480000   8.263023   59.988609
 0.485000   8.547841   53.520078
 0.490000   8.798224   46.295252
 0.495000   9.010793   38.473721
 0.500000   9.182961   30.214591
 0.505000   9.312939   21.713555
 0.510000   9.400097   13.168076
 0.515000   9.444620   4.740867
 0.520000   9.447505   -3.412393
 0.525000   9.410496   -11.138986
 0.530000   9.336115   -18.265960
 0.535000   9.227837   -24.704093
 0.540000   9.089074   -30.422082
 0.545000   8.923616   -35.375703
 0.550000   8.735317   -39.565543
 0.555000   8.527960   -43.002961
 0.560000   8.305288   -45.675660
 0.565000   8.071204   -47.778552
 0.570000   7.827502   -49.469194
 0.575000   7.576512   -50.720908
 0.580000   7.320293   -51.574060
 0.585000   7.060771   -52.038673
 0.590000   6.799906   -52.067611
 0.595000   6.540095   -51.689880
 0.600000   6.283008   -50.954523
 0.605000   6.030550   -49.851970
 0.610000   5.784488   -48.409343
 0.615000   5.546456   -46.652136
 0.620000   5.317967   -44.610690
 0.625000   5.100349   -42.313271
 0.630000   4.894834   -39.767092
 0.635000   4.702679   -36.975743
 0.640000   4.525076   -33.952656
 0.645000   4.363152   -30.712185
 0.650000   4.217955   -27.288746
 0.655000   4.090265   -23.679903
 0.660000   3.981156   -19.876585
 0.665000   3.891499   -15.923760
 0.670000   3.821918   -11.881352
 0.675000   3.772685   -7.829092
 0.680000   3.743627   -3.860288
 0.685000   3.734082   -0.080154
 0.690000   3.742825   3.416790
 0.695000   3.768250   6.565174
 0.700000   3.808477   9.319420
 0.705000   3.861444   11.652550
 0.710000   3.925003   13.527977
 0.715000   3.996724   14.960943
 0.720000   4.074612   16.028490
 0.725000   4.157009   16.774691
 0.730000   4.242359   17.234565
 0.735000   4.329355   17.457418
 0.740000   4.416933   17.479577
 0.745000   4.504150   17.374763
 0.750000   4.590681   17.217337
 0.755000   4.676324   17.005261
 0.760000   4.760733   16.714865
 0.765000   4.843472   16.321708
 0.770000   4.923951   15.804192
 0.775000   5.001514   15.131098
 0.780000   5.075262   14.250716
 0.785000   5.144022   13.152136
 0.790000   5.206783   11.854031
 0.795000   5.262562   10.364703
 0.800000   5.310430   8.701345
 0.805000   5.349575   6.880199
 0.810000   5.379232   4.910299
 0.815000   5.398678   2.822633
 0.820000   5.407458   0.664040
 0.825000   5.405319   -1.522260
 0.830000   5.392236   -3.689022
 0.835000   5.368428   -5.784516
 0.840000   5.334391   -7.752316
 0.845000   5.290905   -9.543624
 0.850000   5.238954   -11.122264
 0.855000   5.179683   -12.461057
 0.860000   5.114344   -13.543045
 0.865000   5.044252   -14.355160
 0.870000   4.970792   -14.908065
 0.875000   4.895172   -15.214626
 0.880000   4.818646   -15.277753
 0.885000   4.742394   -15.114106
 0.890000   4.667505   -14.742110
 0.895000   4.594973   -14.192662
 0.900000   4.525578   -13.460745
 0.905000   4.460366   -12.515643
 0.910000   4.400422   -11.348716
 0.915000   4.346878   -9.953467
 0.920000   4.300887   -8.329525
 0.925000   4.263583   -6.494188
 0.930000   4.235945   -4.448401
 0.935000   4.219099   -2.212324
 0.940000   4.213822   0.150264
 0.945000   4.220602   2.576733
 0.950000   4.239589   4.993908
 0.955000   4.270541   7.334973
 0.960000   4.312939   9.493910
 0.965000   4.365480   11.332973
 0.970000   4.426269   12.724024
 0.975000   4.492720   13.513231
 0.980000   4.561401   13.520592
 0.985000   4.627926   12.577280
 0.990000   4.687174   10.451200
 0.995000   4.732438   6.887790
 1.000000   4.756052   2.557687
201 psinorm omegp(kRad/s) domegp/dpsiN
 0.000000   -0.014010   63.767071
 0.005000   0.243482   39.229521
 0.010000   0.378285   26.251817
 0.015000   0.506000   25.453368
 0.020000   0.632819   25.188165
 0.025000   0.757881   24.493526
 0.030000   0.877754   23.060978
 0.035000   0.988491   21.315881
 0.040000   1.090913   19.520877
 0.045000   1.183700   17.609086
 0.050000   1.267004   15.821848
 0.055000   1.341918   14.294604
 0.060000   1.409950   13.043763
 0.065000   1.472356   12.086826
 0.070000   1.530818   11.408699
 0.075000   1.586443   10.910912
 0.080000   1.639927   10.556563
 0.085000   1.692009   10.396231
 0.090000   1.743890   10.477744
 0.095000   1.796786   10.634635
 0.100000   1.850236   10.787511
 0.105000   1.904661   10.978774
 0.110000   1.960024   11.146376
 0.115000   2.016125   11.287187
 0.120000   2.072896   11.307866
 0.125000   2.129204   11.174838
 0.130000   2.184644   10.867662
 0.135000   2.237880   10.407210
 0.140000   2.288716   9.815718
 0.145000   2.336037   9.109731
 0.150000   2.379813   8.360908
 0.155000   2.419647   7.652167
 0.160000   2.456335   6.998833
 0.165000   2.489635   6.381407
 0.170000   2.520149   5.799493
 0.175000   2.547630   5.263083
 0.180000   2.572780   4.778736
 0.185000   2.595417   4.254110
 0.190000   2.615321   3.666913
 0.195000   2.632086   2.950325
 0.200000   2.644824   2.110642
 0.205000   2.653193   1.085304
 0.210000   2.655677   -0.096770
 0.215000   2.652225   -1.326927
 0.220000   2.642408   -2.590263
 0.225000   2.626322   -3.780266
 0.230000   2.604605   -4.893190
 0.235000   2.577390   -5.861144
 0.240000   2.545994   -6.662604
 0.245000   2.510764   -7.369978
 0.250000   2.472294   -7.939376
 0.255000   2.431371   -8.462453
 0.260000   2.387670   -8.991065
 0.265000   2.341460   -9.528263
 0.270000   2.292387   -10.137467
 0.275000   2.240085   -10.737315
 0.280000   2.185014   -11.340995
 0.285000   2.126675   -11.991986
 0.290000   2.065094   -12.599966
 0.295000   2.000676   -13.212486
 0.300000   1.932969   -13.842140
 0.305000   1.862254   -14.413727
 0.310000   1.788832   -14.981981
 0.315000   1.712435   -15.543296
 0.320000   1.633399   -16.056786
 0.325000   1.551867   -16.600705
 0.330000   1.467392   -17.200185
 0.335000   1.379865   -17.857091
 0.340000   1.288821   -18.621227
 0.345000   1.193653   -19.475962
 0.350000   1.094061   -20.458204
 0.355000   0.989071   -21.575811
 0.360000   0.878303   -22.729433
 0.365000   0.761776   -23.904736
 0.370000   0.639256   -25.105812
 0.375000   0.510718   -26.271506
 0.380000   0.376541   -27.328898
 0.385000   0.237429   -28.180847
 0.390000   0.094732   -28.784384
 0.395000   -0.050415   -29.169197
 0.400000   -0.196960   -29.351357
 0.405000   -0.343928   -29.365907
 0.410000   -0.490619   -29.248390
 0.415000   -0.636412   -29.197529
 0.420000   -0.782594   -29.340645
 0.425000   -0.929819   -29.653654
 0.430000   -1.079130   -30.145318
 0.435000   -1.231272   -30.832323
 0.440000   -1.387454   -31.834124
 0.445000   -1.549613   -32.955142
 0.450000   -1.717005   -33.937216
 0.455000   -1.888985   -34.835034
 0.460000   -2.065355   -35.720701
 0.465000   -2.246192   -36.866564
 0.470000   -2.434021   -39.035154
 0.475000   -2.636544   -42.425358
 0.480000   -2.858275   -46.656592
 0.485000   -3.103110   -51.611647
 0.490000   -3.374391   -57.164096
 0.495000   -3.674751   -63.295992
 0.500000   -4.007351   -69.451129
 0.505000   -4.369262   -74.458084
 0.510000   -4.751932   -77.835042
 0.515000   -5.147612   -79.500243
 0.520000   -5.546934   -79.227899
 0.525000   -5.939891   -76.713204
 0.530000   -6.314066   -71.592713
 0.535000   -6.655819   -64.407024
 0.540000   -6.958137   -56.214637
 0.545000   -7.217965   -47.532747
 0.550000   -7.433464   -38.843994
 0.555000   -7.606405   -30.428857
 0.560000   -7.737753   -23.092701
 0.565000   -7.837332   -17.460975
 0.570000   -7.912362   -13.164005
 0.575000   -7.968972   -10.051074
 0.580000   -8.012873   -7.831986
 0.585000   -8.047292   -6.191407
 0.590000   -8.074787   -4.886313
 0.595000   -8.096155   -3.565150
 0.600000   -8.110439   -2.047370
 0.605000   -8.116629   -0.363851
 0.610000   -8.114077   1.413425
 0.615000   -8.102494   3.384291
 0.620000   -8.080234   5.586756
 0.625000   -8.046627   7.813100
 0.630000   -8.002103   10.042088
 0.635000   -7.946206   12.314210
 0.640000   -7.878961   14.488465
 0.645000   -7.801321   16.374368
 0.650000   -7.715218   18.043903
 0.655000   -7.620882   19.565372
 0.660000   -7.519564   20.773990
 0.665000   -7.413142   21.726678
 0.670000   -7.302297   22.527817
 0.675000   -7.187864   23.176229
 0.680000   -7.070535   23.739921
 0.685000   -6.950465   24.390038
 0.690000   -6.826634   25.167030
 0.695000   -6.698795   25.936646
 0.700000   -6.567268   26.695330
 0.705000   -6.431841   27.485078
 0.710000   -6.292417   28.254115
 0.715000   -6.149300   28.962109
 0.720000   -6.002796   29.922691
 0.725000   -5.850073   31.597840
 0.730000   -5.686818   34.888034
 0.735000   -5.501193   40.494674
 0.740000   -5.281871   47.877457
 0.745000   -5.022418   56.479849
 0.750000   -4.717072   65.923872
 0.755000   -4.363180   75.623821
 0.760000   -3.960834   85.488396
 0.765000   -3.508296   93.286702
 0.770000   -3.027967   96.660159
 0.775000   -2.541694   95.600711
 0.780000   -2.071960   89.985913
 0.785000   -1.641835   80.038723
 0.790000   -1.271573   66.296209
 0.795000   -0.978873   50.523671
 0.800000   -0.766336   35.032544
 0.805000   -0.628547   21.196366
 0.810000   -0.554372   9.878822
 0.815000   -0.529759   1.341660
 0.820000   -0.540956   -4.732294
 0.825000   -0.577082   -9.383858
 0.830000   -0.634794   -13.829416
 0.835000   -0.715376   -18.905028
 0.840000   -0.823845   -25.244609
 0.845000   -0.967822   -33.284184
 0.850000   -1.156687   -43.017993
 0.855000   -1.398002   -53.008121
 0.860000   -1.686768   -61.938623
 0.865000   -2.017389   -69.349260
 0.870000   -2.380260   -74.464848
 0.875000   -2.762037   -76.670319
 0.880000   -3.146964   -75.178439
 0.885000   -3.513821   -69.188554
 0.890000   -3.838849   -58.811029
 0.895000   -4.101932   -44.811941
 0.900000   -4.286969   -28.140408
 0.905000   -4.383336   -9.997107
 0.910000   -4.386940   8.343851
 0.915000   -4.299897   25.985292
 0.920000   -4.127087   42.436361
 0.925000   -3.875534   57.326272
 0.930000   -3.553824   70.372092
 0.935000   -3.171813   81.171714
 0.940000   -2.742107   89.096563
 0.945000   -2.280847   93.827431
 0.950000   -1.803832   95.587882
 0.955000   -1.324968   94.871946
 0.960000   -0.855113   92.354897
 0.965000   -0.401419   88.983953
 0.970000   0.034727   86.235152
 0.975000   0.460932   84.547321
 0.980000   0.880200   83.241699
 0.985000   1.293349   81.806881
 0.990000   1.698269   79.553469
 0.995000   2.088884   76.510635
 1.000000   2.463375   73.285768
201 psinorm omgvb(kRad/s) domgvb/dpsiN
 0.000000   18.872408   63.787579
 0.005000   19.129230   38.941280
 0.010000   19.261820   25.622384
 0.015000   19.385454   24.411181
 0.020000   19.505932   23.647656
 0.025000   19.621930   22.352557
 0.030000   19.729458   20.197107
 0.035000   19.823901   17.582487
 0.040000   19.905283   14.731772
 0.045000   19.971219   11.547570
 0.050000   20.020758   8.244916
 0.055000   20.053668   4.915817
 0.060000   20.069916   1.536427
 0.065000   20.069032   -1.909885
 0.070000   20.050818   -5.479201
 0.075000   20.014240   -9.239647
 0.080000   19.958421   -13.170617
 0.085000   19.882534   -17.202484
 0.090000   19.786396   -21.235454
 0.095000   19.670180   -25.358237
 0.100000   19.532814   -29.493793
 0.105000   19.375242   -33.490927
 0.110000   19.197905   -37.427552
 0.115000   19.000966   -41.279324
 0.120000   18.785111   -45.087548
 0.125000   18.550091   -48.867847
 0.130000   18.296433   -52.530874
 0.135000   18.024782   -56.036917
 0.140000   17.736064   -59.466709
 0.145000   17.430115   -62.752204
 0.150000   17.108542   -65.765767
 0.155000   16.772457   -68.464184
 0.160000   16.423900   -70.822036
 0.165000   16.064237   -73.046873
 0.170000   15.693431   -75.502892
 0.175000   15.309208   -78.243007
 0.180000   14.911001   -81.155626
 0.185000   14.497652   -84.235733
 0.190000   14.068644   -87.325803
 0.195000   13.624394   -90.315354
 0.200000   13.165490   -93.168281
 0.205000   12.692711   -95.991595
 0.210000   12.205574   -98.758274
 0.215000   11.705128   -101.343759
 0.220000   11.192137   -103.723843
 0.225000   10.667890   -105.790686
 0.230000   10.134230   -107.462598
 0.235000   9.593264   -108.576790
 0.240000   9.048462   -109.065422
 0.245000   8.502609   -108.958442
 0.250000   7.958877   -108.201405
 0.255000   7.420595   -106.978209
 0.260000   6.889095   -105.494471
 0.265000   6.365651   -103.798981
 0.270000   5.851106   -101.908251
 0.275000   5.346568   -99.670516
 0.280000   4.854400   -97.010969
 0.285000   4.376458   -93.921115
 0.290000   3.915189   -89.959633
 0.295000   3.476862   -84.960191
 0.300000   3.065587   -79.082647
 0.305000   2.686036   -72.302901
 0.310000   2.342558   -64.759781
 0.315000   2.038438   -56.545578
 0.320000   1.777103   -47.776096
 0.325000   1.560677   -38.741191
 0.330000   1.389691   -29.655965
 0.335000   1.264117   -20.698508
 0.340000   1.182706   -12.087162
 0.345000   1.143246   -4.011763
 0.350000   1.142588   3.342716
 0.355000   1.176673   9.907400
 0.360000   1.241662   15.716521
 0.365000   1.333838   20.746486
 0.370000   1.449127   24.979113
 0.375000   1.583629   28.313384
 0.380000   1.732261   30.836353
 0.385000   1.891993   32.815864
 0.390000   2.060419   34.291302
 0.395000   2.234906   35.285456
 0.400000   2.413274   35.909119
 0.405000   2.593997   36.236942
 0.410000   2.775643   36.684711
 0.415000   2.960844   37.459528
 0.420000   3.150239   38.392441
 0.425000   3.344768   39.471225
 0.430000   3.544951   40.642307
 0.435000   3.751191   41.908951
 0.440000   3.964040   42.856036
 0.445000   4.179752   43.088820
 0.450000   4.394929   42.681343
 0.455000   4.606565   41.562376
 0.460000   4.810552   39.537727
 0.465000   5.001942   36.295943
 0.470000   5.173512   30.946855
 0.475000   5.311411   23.123659
 0.480000   5.404748   13.332016
 0.485000   5.444731   1.908432
 0.490000   5.423833   -10.868844
 0.495000   5.336043   -24.822271
 0.500000   5.175610   -39.236538
 0.505000   4.943677   -52.744529
 0.510000   4.648165   -64.666966
 0.515000   4.297008   -74.759376
 0.520000   3.900571   -82.640292
 0.525000   3.470605   -87.852191
 0.530000   3.022049   -89.858673
 0.535000   2.572018   -89.111117
 0.540000   2.130938   -86.636719
 0.545000   1.705651   -82.908449
 0.550000   1.301853   -78.409537
 0.555000   0.921555   -73.431818
 0.560000   0.567535   -68.768361
 0.565000   0.233872   -65.239527
 0.570000   -0.084860   -62.633199
 0.575000   -0.392460   -60.771982
 0.580000   -0.692580   -59.406046
 0.585000   -0.986521   -58.230080
 0.590000   -1.274881   -56.953924
 0.595000   -1.556060   -55.255031
 0.600000   -1.827431   -53.001894
 0.605000   -2.086079   -50.215820
 0.610000   -2.329589   -46.995918
 0.615000   -2.556038   -43.267845
 0.620000   -2.762268   -39.023933
 0.625000   -2.946277   -34.500170
 0.630000   -3.107269   -29.725004
 0.635000   -3.243527   -24.661533
 0.640000   -3.353885   -19.464191
 0.645000   -3.438169   -14.337817
 0.650000   -3.497263   -9.244843
 0.655000   -3.530618   -4.114531
 0.660000   -3.538408   0.897405
 0.665000   -3.521644   5.802917
 0.670000   -3.480379   10.646465
 0.675000   -3.415179   15.347136
 0.680000   -3.326908   19.879633
 0.685000   -3.216383   24.309883
 0.690000   -3.083809   28.583820
 0.695000   -2.930544   32.501820
 0.700000   -2.758791   36.014750
 0.705000   -2.570397   39.137628
 0.710000   -2.367414   41.782092
 0.715000   -2.152576   43.923052
 0.720000   -1.928184   45.951181
 0.725000   -1.693064   48.372531
 0.730000   -1.444459   52.122599
 0.735000   -1.171838   57.952092
 0.740000   -0.864938   65.357034
 0.745000   -0.518268   73.854612
 0.750000   -0.126392   83.141209
 0.755000   0.313144   92.629082
 0.760000   0.799899   102.203261
 0.765000   1.335177   109.608410
 0.770000   1.895983   112.464351
 0.775000   2.459820   110.731809
 0.780000   3.003301   104.236628
 0.785000   3.502187   93.190859
 0.790000   3.935210   78.150240
 0.795000   4.283689   60.888374
 0.800000   4.544094   43.733889
 0.805000   4.721028   28.076565
 0.810000   4.824859   14.789121
 0.815000   4.868919   4.164293
 0.820000   4.866502   -4.068255
 0.825000   4.828237   -10.906117
 0.830000   4.757441   -17.518438
 0.835000   4.653052   -24.689544
 0.840000   4.510546   -32.996925
 0.845000   4.323083   -42.827808
 0.850000   4.082268   -54.140257
 0.855000   3.781680   -65.469178
 0.860000   3.427576   -75.481669
 0.865000   3.026864   -83.704420
 0.870000   2.590532   -89.372913
 0.875000   2.133135   -91.884945
 0.880000   1.671682   -90.456191
 0.885000   1.228573   -84.302659
 0.890000   0.828656   -73.553138
 0.895000   0.493041   -59.004603
 0.900000   0.238610   -41.601154
 0.905000   0.077030   -22.512750
 0.910000   0.013482   -3.004865
 0.915000   0.046981   16.031825
 0.920000   0.173800   34.106836
 0.925000   0.388049   50.832085
 0.930000   0.682121   65.923691
 0.935000   1.047286   78.959390
 0.940000   1.471715   89.246826
 0.945000   1.939755   96.404164
 0.950000   2.435757   100.581790
 0.955000   2.945572   102.206919
 0.960000   3.457826   101.848807
 0.965000   3.964061   100.316926
 0.970000   4.460995   98.959176
 0.975000   4.953652   98.060551
 0.980000   5.441601   96.762291
 0.985000   5.921275   94.384162
 0.990000   6.385442   90.004670
 0.995000   6.821322   83.398425
 1.000000   7.219427   75.843455
201 psinorm omgpp(kRad/s) domgpp/dpsiN
 0.000000   -0.094178   -47.013099
 0.005000   -0.378918   -66.883025
 0.010000   -0.763008   -77.262793
 0.015000   -1.151546   -78.083586
 0.020000   -1.543844   -78.789464
 0.025000   -1.939441   -79.419798
 0.030000   -2.338042   -79.943543
 0.035000   -2.738876   -80.340485
 0.040000   -3.141447   -80.586696
 0.045000   -3.544743   -80.573586
 0.050000   -3.947183   -80.190462
 0.055000   -4.346648   -79.236773
 0.060000   -4.739550   -77.597858
 0.065000   -5.122626   -75.455501
 0.070000   -5.494105   -72.922867
 0.075000   -5.851855   -70.007076
 0.080000   -6.194176   -66.747628
 0.085000   -6.519331   -63.147665
 0.090000   -6.825653   -59.567286
 0.095000   -7.115004   -55.999728
 0.100000   -7.385650   -52.267818
 0.105000   -7.637682   -48.561457
 0.110000   -7.871265   -44.861959
 0.115000   -8.086302   -40.821229
 0.120000   -8.279477   -36.080898
 0.125000   -8.447111   -30.835648
 0.130000   -8.587833   -25.360511
 0.135000   -8.700716   -19.731931
 0.140000   -8.785153   -13.990166
 0.145000   -8.840618   -7.519252
 0.150000   -8.860345   -1.845834
 0.155000   -8.859076   2.696004
 0.160000   -8.833385   7.334268
 0.165000   -8.785733   11.454730
 0.170000   -8.718838   15.012491
 0.175000   -8.635608   18.401285
 0.180000   -8.534825   20.697927
 0.185000   -8.428629   22.333737
 0.190000   -8.311488   24.374796
 0.195000   -8.184881   26.068912
 0.200000   -8.050799   27.359694
 0.205000   -7.911284   27.934837
 0.210000   -7.771450   28.232856
 0.215000   -7.628956   28.995713
 0.220000   -7.481493   30.045712
 0.225000   -7.328499   31.241033
 0.230000   -7.169083   32.613439
 0.235000   -7.002364   33.897922
 0.240000   -6.830104   35.837534
 0.245000   -6.643989   38.232280
 0.250000   -6.447781   39.840588
 0.255000   -6.245583   40.779918
 0.260000   -6.039982   41.220256
 0.265000   -5.833380   41.109096
 0.270000   -5.628891   40.556677
 0.275000   -5.427814   39.851350
 0.280000   -5.230377   39.132970
 0.285000   -5.036484   38.486154
 0.290000   -4.845516   37.943148
 0.295000   -4.657052   37.339124
 0.300000   -4.472124   36.793830
 0.305000   -4.289114   36.356281
 0.310000   -4.108562   35.673996
 0.315000   -3.932374   34.734178
 0.320000   -3.761220   33.667230
 0.325000   -3.595702   32.589239
 0.330000   -3.435327   31.577267
 0.335000   -3.279929   30.260815
 0.340000   -3.132719   28.640974
 0.345000   -2.993520   26.995724
 0.350000   -2.862762   25.276258
 0.355000   -2.740757   23.672174
 0.360000   -2.626040   22.181387
 0.365000   -2.518943   20.024399
 0.370000   -2.425796   17.596533
 0.375000   -2.342978   15.562437
 0.380000   -2.270172   13.585055
 0.385000   -2.207127   11.719919
 0.390000   -2.152973   9.971773
 0.395000   -2.107409   7.755899
 0.400000   -2.075414   5.297231
 0.405000   -2.054437   3.066406
 0.410000   -2.044750   0.826371
 0.415000   -2.046173   -1.352428
 0.420000   -2.058274   -3.619963
 0.425000   -2.082373   -5.361606
 0.430000   -2.111890   -6.408451
 0.435000   -2.146458   -7.251098
 0.440000   -2.184401   -7.788116
 0.445000   -2.224339   -8.084823
 0.450000   -2.265249   -8.255250
 0.455000   -2.306891   -8.068994
 0.460000   -2.345939   -7.736401
 0.465000   -2.384255   -7.554061
 0.470000   -2.421480   -7.316109
 0.475000   -2.457416   -7.061527
 0.480000   -2.492095   -6.886778
 0.485000   -2.526284   -7.594861
 0.490000   -2.568044   -9.099485
 0.495000   -2.617279   -10.601281
 0.500000   -2.674056   -12.077451
 0.505000   -2.738053   -13.435019
 0.510000   -2.808407   -15.390360
 0.515000   -2.891957   -16.589922
 0.520000   -2.974306   -16.311228
 0.525000   -3.055069   -15.929280
 0.530000   -3.133599   -15.244460
 0.535000   -3.207514   -14.085135
 0.540000   -3.274450   -12.953947
 0.545000   -3.337053   -10.711163
 0.550000   -3.381562   -7.180269
 0.555000   -3.408856   -3.850226
 0.560000   -3.420064   -0.528831
 0.565000   -3.414144   2.952962
 0.570000   -3.390534   6.819646
 0.575000   -3.345948   10.888185
 0.580000   -3.281652   14.220941
 0.585000   -3.203739   16.833073
 0.590000   -3.113322   19.101100
 0.595000   -3.012728   20.901635
 0.600000   -2.904305   22.756754
 0.605000   -2.785160   24.088254
 0.610000   -2.663423   23.821400
 0.615000   -2.546946   23.112411
 0.620000   -2.432299   22.595395
 0.625000   -2.320992   21.801970
 0.630000   -2.214279   20.949134
 0.635000   -2.111501   19.753356
 0.640000   -2.016745   17.895060
 0.645000   -1.932550   16.140521
 0.650000   -1.855340   14.786745
 0.655000   -1.784683   13.576400
 0.660000   -1.719576   12.606706
 0.665000   -1.658616   12.178108
 0.670000   -1.597795   12.261053
 0.675000   -1.536005   12.161578
 0.680000   -1.476179   11.668862
 0.685000   -1.419316   11.002586
 0.690000   -1.366154   10.211804
 0.695000   -1.317198   9.281949
 0.700000   -1.273334   8.152707
 0.705000   -1.235671   6.868485
 0.710000   -1.204649   5.471374
 0.715000   -1.180958   3.936891
 0.720000   -1.165280   2.255311
 0.725000   -1.158405   0.258942
 0.730000   -1.162691   -1.694538
 0.735000   -1.175350   -3.519067
 0.740000   -1.197882   -5.580912
 0.745000   -1.231159   -7.815623
 0.750000   -1.276038   -10.211287
 0.755000   -1.333272   -13.392018
 0.760000   -1.409958   -15.794574
 0.765000   -1.491218   -17.026182
 0.770000   -1.580220   -18.372157
 0.775000   -1.674939   -19.253791
 0.780000   -1.772758   -19.559905
 0.785000   -1.870538   -19.464588
 0.790000   -1.967404   -18.182796
 0.795000   -2.052366   -16.093688
 0.800000   -2.128340   -14.165977
 0.805000   -2.194026   -11.978249
 0.810000   -2.248123   -9.600505
 0.815000   -2.290031   -7.060444
 0.820000   -2.318727   -4.665795
 0.825000   -2.336689   -2.595885
 0.830000   -2.344686   -0.560330
 0.835000   -2.342292   1.522134
 0.840000   -2.329465   3.579562
 0.845000   -2.306497   5.831541
 0.850000   -2.271149   7.953316
 0.855000   -2.226964   9.649606
 0.860000   -2.174653   11.317053
 0.865000   -2.113793   12.909315
 0.870000   -2.045560   14.243191
 0.875000   -1.971361   15.554046
 0.880000   -1.890020   16.324997
 0.885000   -1.808111   16.317627
 0.890000   -1.726844   16.378506
 0.895000   -1.644326   16.571463
 0.900000   -1.561129   16.652539
 0.905000   -1.477801   16.624457
 0.910000   -1.394884   16.277683
 0.915000   -1.315024   15.518677
 0.920000   -1.239698   14.498052
 0.925000   -1.170043   13.205153
 0.930000   -1.107646   11.603147
 0.935000   -1.054012   9.537026
 0.940000   -1.012276   6.903428
 0.945000   -0.984978   4.333455
 0.950000   -0.968941   1.743104
 0.955000   -0.967547   -1.323495
 0.960000   -0.982176   -4.699348
 0.965000   -1.014540   -8.740581
 0.970000   -1.069582   -13.782847
 0.975000   -1.152368   -18.361303
 0.980000   -1.253195   -23.070948
 0.985000   -1.383078   -29.304282
 0.990000   -1.546238   -36.245732
 0.995000   -1.745535   -43.862918
 1.000000   -1.984867   -51.869773
201 psinorm omgeb(kRad/s) domgeb/dpsiN
 0.000000   18.778230   16.774481
 0.005000   18.750311   -27.941745
 0.010000   18.498812   -51.640409
 0.015000   18.233907   -53.672405
 0.020000   17.962088   -55.141808
 0.025000   17.682489   -57.067241
 0.030000   17.391416   -59.746436
 0.035000   17.085025   -62.757998
 0.040000   16.763836   -65.854924
 0.045000   16.426476   -69.026016
 0.050000   16.073576   -71.945546
 0.055000   15.707020   -74.320957
 0.060000   15.330366   -76.061431
 0.065000   14.946406   -77.365386
 0.070000   14.556712   -78.402068
 0.075000   14.162385   -79.246722
 0.080000   13.764245   -79.918246
 0.085000   13.363203   -80.350150
 0.090000   12.960743   -80.802740
 0.095000   12.555175   -81.357965
 0.100000   12.147164   -81.761611
 0.105000   11.737559   -82.052385
 0.110000   11.326640   -82.289511
 0.115000   10.914664   -82.100553
 0.120000   10.505634   -81.168446
 0.125000   10.102980   -79.703495
 0.130000   9.708599   -77.891385
 0.135000   9.324066   -75.768849
 0.140000   8.950911   -73.456875
 0.145000   8.589497   -70.271456
 0.150000   8.248196   -67.611602
 0.155000   7.913381   -65.768180
 0.160000   7.590515   -63.487769
 0.165000   7.278503   -61.592144
 0.170000   6.974593   -60.490400
 0.175000   6.673599   -59.841722
 0.180000   6.376176   -60.457699
 0.185000   6.069022   -61.901997
 0.190000   5.757156   -62.951007
 0.195000   5.439512   -64.246442
 0.200000   5.114692   -65.808587
 0.205000   4.781426   -68.056758
 0.210000   4.434124   -70.525418
 0.215000   4.076172   -72.348046
 0.220000   3.710644   -73.678131
 0.225000   3.339391   -74.549654
 0.230000   2.965147   -74.849159
 0.235000   2.590899   -74.678868
 0.240000   2.218358   -73.227888
 0.245000   1.858620   -70.726162
 0.250000   1.511097   -68.360817
 0.255000   1.175012   -66.198291
 0.260000   0.849114   -64.274215
 0.265000   0.532270   -62.689885
 0.270000   0.222215   -61.351574
 0.275000   -0.081246   -59.819166
 0.280000   -0.375977   -57.878000
 0.285000   -0.660026   -55.434961
 0.290000   -0.930326   -52.016485
 0.295000   -1.180190   -47.621067
 0.300000   -1.406537   -42.288817
 0.305000   -1.603079   -35.946621
 0.310000   -1.766003   -29.085785
 0.315000   -1.893936   -21.811400
 0.320000   -1.984117   -14.108867
 0.325000   -2.035025   -6.151952
 0.330000   -2.045637   1.921301
 0.335000   -2.015812   9.562307
 0.340000   -1.950014   16.553813
 0.345000   -1.850274   22.983962
 0.350000   -1.720174   28.618974
 0.355000   -1.564084   33.579574
 0.360000   -1.384378   37.897908
 0.365000   -1.185105   40.770885
 0.370000   -0.976669   42.575646
 0.375000   -0.759349   43.875821
 0.380000   -0.537911   44.421408
 0.385000   -0.315135   44.535783
 0.390000   -0.092553   44.263075
 0.395000   0.127496   43.041355
 0.400000   0.337860   41.206350
 0.405000   0.539560   39.303347
 0.410000   0.730894   37.511082
 0.415000   0.914670   36.107101
 0.420000   1.091965   34.772478
 0.425000   1.262395   34.109619
 0.430000   1.433061   34.233856
 0.435000   1.604734   34.657853
 0.440000   1.779639   35.067920
 0.445000   1.955413   35.003997
 0.450000   2.129679   34.426092
 0.455000   2.299674   33.493382
 0.460000   2.464613   31.801326
 0.465000   2.617687   28.741882
 0.470000   2.752032   23.630746
 0.475000   2.853995   16.062132
 0.480000   2.912653   6.445239
 0.485000   2.918447   -5.686429
 0.490000   2.855789   -19.968329
 0.495000   2.718764   -35.423552
 0.500000   2.501553   -51.313989
 0.505000   2.205624   -66.179547
 0.510000   1.839758   -80.057326
 0.515000   1.405051   -91.349298
 0.520000   0.926265   -98.951520
 0.525000   0.415535   -103.781471
 0.530000   -0.111550   -105.103133
 0.535000   -0.635496   -103.196252
 0.540000   -1.143512   -99.590665
 0.545000   -1.631403   -93.619612
 0.550000   -2.079708   -85.589806
 0.555000   -2.487301   -77.282043
 0.560000   -2.852529   -69.297193
 0.565000   -3.180273   -62.286565
 0.570000   -3.475394   -55.813553
 0.575000   -3.738408   -49.883797
 0.580000   -3.974232   -45.185105
 0.585000   -4.190259   -41.397006
 0.590000   -4.388202   -37.852824
 0.595000   -4.568787   -34.353396
 0.600000   -4.731736   -30.245140
 0.605000   -4.871239   -26.127566
 0.610000   -4.993012   -23.174518
 0.615000   -5.102984   -20.155434
 0.620000   -5.194566   -16.428539
 0.625000   -5.267269   -12.698200
 0.630000   -5.321548   -8.775870
 0.635000   -5.355028   -4.908178
 0.640000   -5.370630   -1.569131
 0.645000   -5.370719   1.802704
 0.650000   -5.352603   5.541902
 0.655000   -5.315300   9.461868
 0.660000   -5.257984   13.504111
 0.665000   -5.180259   17.981025
 0.670000   -5.078174   22.907518
 0.675000   -4.951184   27.508714
 0.680000   -4.803087   31.548495
 0.685000   -4.635699   35.312469
 0.690000   -4.449962   38.795624
 0.695000   -4.247743   41.783769
 0.700000   -4.032125   44.167456
 0.705000   -3.806068   46.006112
 0.710000   -3.572064   47.253466
 0.715000   -3.333534   47.859943
 0.720000   -3.093464   48.206492
 0.725000   -2.851469   48.631473
 0.730000   -2.607149   50.428061
 0.735000   -2.347188   54.433024
 0.740000   -2.062819   59.776122
 0.745000   -1.749427   66.038989
 0.750000   -1.402429   72.929922
 0.755000   -1.020128   79.237065
 0.760000   -0.610059   86.408687
 0.765000   -0.156041   92.582228
 0.770000   0.315764   94.092194
 0.775000   0.784881   91.478018
 0.780000   1.230544   84.676724
 0.785000   1.631648   73.726272
 0.790000   1.967807   59.967443
 0.795000   2.231323   44.794686
 0.800000   2.415753   29.567912
 0.805000   2.527002   16.098316
 0.810000   2.576737   5.188616
 0.815000   2.578888   -2.896151
 0.820000   2.547775   -8.734050
 0.825000   2.491548   -13.502002
 0.830000   2.412755   -18.078768
 0.835000   2.310760   -23.167410
 0.840000   2.181081   -29.417362
 0.845000   2.016586   -36.996267
 0.850000   1.811118   -46.186940
 0.855000   1.554717   -55.819572
 0.860000   1.252923   -64.164615
 0.865000   0.913071   -70.795105
 0.870000   0.544971   -75.129723
 0.875000   0.161773   -76.330900
 0.880000   -0.218338   -74.131194
 0.885000   -0.579538   -67.985033
 0.890000   -0.898188   -57.174633
 0.895000   -1.151285   -42.433140
 0.900000   -1.322519   -24.948615
 0.905000   -1.400771   -5.888292
 0.910000   -1.381402   13.272818
 0.915000   -1.268043   31.550502
 0.920000   -1.065897   48.604888
 0.925000   -0.781994   64.037238
 0.930000   -0.425525   77.526838
 0.935000   -0.006725   88.496416
 0.940000   0.459439   96.150255
 0.945000   0.954777   100.737620
 0.950000   1.466816   102.324894
 0.955000   1.978026   100.883425
 0.960000   2.475650   97.149459
 0.965000   2.949521   91.576345
 0.970000   3.391413   85.176328
 0.975000   3.801284   79.699249
 0.980000   4.188406   73.691343
 0.985000   4.538197   65.079879
 0.990000   4.839205   53.758937
 0.995000   5.075787   39.535507
 1.000000   5.234560   23.973682
201 psinorm er(kV/m) der/dpsiN
 0.000000   0.135507   443.134593
 0.005000   1.864954   248.644200
 0.010000   2.621949   131.567840
 0.015000   3.180632   100.664549
 0.020000   3.628594   82.617897
 0.025000   4.006811   69.638646
 0.030000   4.324981   58.962458
 0.035000   4.596436   50.278519
 0.040000   4.827766   42.763349
 0.045000   5.024069   36.208621
 0.050000   5.189852   30.389316
 0.055000   5.327962   25.056671
 0.060000   5.440419   18.881792
 0.065000   5.516780   13.162154
 0.070000   5.572040   11.273920
 0.075000   5.629520   8.911656
 0.080000   5.661157   0.716479
 0.085000   5.636684   -0.626680
 0.090000   5.654890   -1.148930
 0.095000   5.625195   -8.567885
 0.100000   5.569211   -6.932122
 0.105000   5.555874   -13.858397
 0.110000   5.430627   -15.808739
 0.115000   5.397786   -15.319313
 0.120000   5.277434   -19.784316
 0.125000   5.199943   -19.113795
 0.130000   5.086296   -22.021492
 0.135000   4.979728   -21.648565
 0.140000   4.869811   -22.934723
 0.145000   4.750381   -22.790277
 0.150000   4.641908   -22.421276
 0.155000   4.526168   -23.923517
 0.160000   4.402673   -22.447798
 0.165000   4.301690   -24.719150
 0.170000   4.155481   -22.765912
 0.175000   4.074031   -26.521603
 0.180000   3.890265   -25.410795
 0.185000   3.819923   -29.703011
 0.190000   3.593235   -32.703454
 0.195000   3.492889   -29.726222
 0.200000   3.295973   -36.951992
 0.205000   3.123369   -34.288580
 0.210000   2.953087   -42.361630
 0.215000   2.699753   -41.698109
 0.220000   2.536106   -44.252452
 0.225000   2.257228   -48.852655
 0.230000   2.047579   -43.751464
 0.235000   1.819713   -50.985590
 0.240000   1.537724   -47.863651
 0.245000   1.341077   -47.042762
 0.250000   1.067296   -49.621403
 0.255000   0.844863   -42.423673
 0.260000   0.643059   -48.064815
 0.265000   0.364215   -47.091584
 0.270000   0.172143   -41.993477
 0.275000   -0.055720   -46.999007
 0.280000   -0.297847   -43.056615
 0.285000   -0.486286   -42.063511
 0.290000   -0.718482   -42.878704
 0.295000   -0.915073   -35.397877
 0.300000   -1.072461   -35.039052
 0.305000   -1.265464   -31.654186
 0.310000   -1.389003   -21.351546
 0.315000   -1.478979   -20.673629
 0.320000   -1.595739   -14.915085
 0.325000   -1.628130   -3.814530
 0.330000   -1.633884   -1.770333
 0.335000   -1.645833   4.732884
 0.340000   -1.586555   14.077782
 0.345000   -1.505056   15.956984
 0.350000   -1.426985   21.206290
 0.355000   -1.292993   28.415449
 0.360000   -1.142831   29.302839
 0.365000   -0.999964   32.321738
 0.370000   -0.819614   36.745241
 0.375000   -0.632512   35.494732
 0.380000   -0.464666   36.401430
 0.385000   -0.268498   39.340494
 0.390000   -0.071261   37.038747
 0.395000   0.101890   36.151283
 0.400000   0.290252   37.138194
 0.405000   0.473272   34.015901
 0.410000   0.630411   32.266808
 0.415000   0.795940   33.047541
 0.420000   0.960886   31.154573
 0.425000   1.107486   29.977963
 0.430000   1.260666   31.591288
 0.435000   1.423399   32.073351
 0.440000   1.581399   31.395365
 0.445000   1.737352   32.345999
 0.450000   1.904859   32.867848
 0.455000   2.066031   30.502845
 0.460000   2.209888   29.437999
 0.465000   2.360411   28.514973
 0.470000   2.495037   22.201671
 0.475000   2.582427   15.153809
 0.480000   2.646575   8.251800
 0.485000   2.664945   -3.738108
 0.490000   2.609194   -17.735328
 0.495000   2.487592   -30.915066
 0.500000   2.300044   -45.322021
 0.505000   2.034372   -60.766909
 0.510000   1.692375   -73.444355
 0.515000   1.299928   -82.713730
 0.520000   0.865237   -91.910169
 0.525000   0.380827   -97.064781
 0.530000   -0.105411   -96.903697
 0.535000   -0.588210   -96.265054
 0.540000   -1.068061   -94.321006
 0.545000   -1.531420   -88.086751
 0.550000   -1.948929   -80.000474
 0.555000   -2.331425   -74.298855
 0.560000   -2.691917   -66.871459
 0.565000   -3.000140   -58.671019
 0.570000   -3.278627   -53.988320
 0.575000   -3.540023   -49.189050
 0.580000   -3.770518   -43.677306
 0.585000   -3.976796   -39.960945
 0.590000   -4.170127   -38.002098
 0.595000   -4.356817   -34.441344
 0.600000   -4.514541   -29.382085
 0.605000   -4.650638   -26.542826
 0.610000   -4.779969   -24.120712
 0.615000   -4.891845   -20.323928
 0.620000   -4.983208   -16.763267
 0.625000   -5.059478   -13.987845
 0.630000   -5.123087   -9.962807
 0.635000   -5.159106   -5.510124
 0.640000   -5.178188   -2.910692
 0.645000   -5.188213   0.175567
 0.650000   -5.176432   4.406208
 0.655000   -5.144151   8.255528
 0.660000   -5.093877   11.735138
 0.665000   -5.026799   16.284112
 0.670000   -4.931036   21.582254
 0.675000   -4.810977   25.765126
 0.680000   -4.673385   29.639418
 0.685000   -4.514582   33.714565
 0.690000   -4.336239   37.249800
 0.695000   -4.142084   39.940487
 0.700000   -3.936834   42.415522
 0.705000   -3.717929   44.585586
 0.710000   -3.490978   45.706593
 0.715000   -3.260863   46.276467
 0.720000   -3.028214   46.854640
 0.725000   -2.792317   47.431001
 0.730000   -2.553904   49.048841
 0.735000   -2.301828   53.048995
 0.740000   -2.023414   58.558454
 0.745000   -1.716244   64.683898
 0.750000   -1.376575   71.407150
 0.755000   -1.002172   77.737389
 0.760000   -0.599201   84.948656
 0.765000   -0.152686   90.943392
 0.770000   0.310233   92.441751
 0.775000   0.771732   90.032485
 0.780000   1.210558   83.372067
 0.785000   1.605452   72.531282
 0.790000   1.935871   59.020569
 0.795000   2.195658   44.181021
 0.800000   2.377681   29.153864
 0.805000   2.487197   15.844435
 0.810000   2.536125   5.120175
 0.815000   2.538398   -2.819723
 0.820000   2.507928   -8.586850
 0.825000   2.452530   -13.318126
 0.830000   2.374747   -17.840669
 0.835000   2.274123   -22.812572
 0.840000   2.146621   -28.952942
 0.845000   1.984594   -36.462215
 0.850000   1.781999   -45.531344
 0.855000   1.529280   -54.918924
 0.860000   1.232810   -63.127478
 0.865000   0.898006   -69.718607
 0.870000   0.535624   -73.903316
 0.875000   0.158972   -75.004224
 0.880000   -0.214419   -72.875383
 0.885000   -0.569781   -66.872491
 0.890000   -0.883143   -56.114646
 0.895000   -1.130928   -41.590581
 0.900000   -1.299049   -24.503155
 0.905000   -1.375959   -5.757093
 0.910000   -1.356620   13.154748
 0.915000   -1.244412   31.058951
 0.920000   -1.046031   47.689657
 0.925000   -0.767515   62.886650
 0.930000   -0.417164   76.111307
 0.935000   -0.006402   86.731495
 0.940000   0.450151   94.154512
 0.945000   0.935143   98.690118
 0.950000   1.437052   100.141749
 0.955000   1.936560   98.527141
 0.960000   2.422323   94.867585
 0.965000   2.885236   89.297786
 0.970000   3.315301   82.748192
 0.975000   3.712718   77.200765
 0.980000   4.087309   71.396347
 0.985000   4.426682   62.352221
 0.990000   4.710831   50.404384
 0.995000   4.930725   36.953844
 1.000000   5.080370   22.903806
201 psinorm ommvb() dommvb/dpsiN
 0.000000   17.882583   31787.754373
 0.005000   144.037513   18674.217520
 0.010000   204.624758   11353.872330
 0.015000   257.576236   9552.669929
 0.020000   300.151458   7618.005385
 0.025000   333.756290   6037.132058
 0.030000   360.522778   4887.819164
 0.035000   382.634482   3956.093599
 0.040000   400.083714   3085.073788
 0.045000   413.485220   2353.197866
 0.050000   423.615693   1788.411995
 0.055000   431.369339   1384.076249
 0.060000   437.456455   872.103482
 0.065000   440.090374   563.889609
 0.070000   443.095351   239.595759
 0.075000   442.486332   -22.935506
 0.080000   442.865996   -258.733173
 0.085000   439.899000   -578.055461
 0.090000   437.085442   -588.299073
 0.095000   434.016009   -862.641493
 0.100000   428.459027   -1148.313604
 0.105000   422.532873   -1134.949187
 0.110000   417.109535   -1160.978656
 0.115000   410.923087   -1292.274791
 0.120000   404.186787   -1531.675661
 0.125000   395.606330   -1657.580049
 0.130000   387.610987   -1573.135240
 0.135000   379.874978   -1572.845754
 0.140000   371.882529   -1617.186934
 0.145000   363.703108   -1638.095906
 0.150000   355.501570   -1641.342496
 0.155000   347.289684   -1641.013841
 0.160000   339.091432   -1629.302325
 0.165000   330.996660   -1603.508384
 0.170000   323.056348   -1577.080793
 0.175000   315.225852   -1550.503672
 0.180000   307.551311   -1514.541382
 0.185000   300.080439   -1473.736416
 0.190000   292.813947   -1435.362526
 0.195000   285.726813   -1397.685122
 0.200000   278.837096   -1357.182636
 0.205000   272.154987   -1313.971041
 0.210000   265.697385   -1262.876736
 0.215000   259.526220   -1205.423703
 0.220000   253.643148   -1262.118054
 0.225000   246.905039   -1187.384863
 0.230000   241.769300   -989.659325
 0.235000   237.008446   -913.737493
 0.240000   232.631925   -839.278082
 0.245000   228.615665   -769.836793
 0.250000   224.933557   -702.809427
 0.255000   221.587571   -709.795490
 0.260000   217.835602   -693.008190
 0.265000   214.657489   -548.951293
 0.270000   212.346089   -435.599709
 0.275000   210.301492   -385.056132
 0.280000   208.495528   -336.335072
 0.285000   206.938141   -379.588512
 0.290000   204.699642   -330.803386
 0.295000   203.630107   -177.705243
 0.300000   202.922590   -121.020202
 0.305000   202.419905   -80.602989
 0.310000   202.116560   -124.179069
 0.315000   201.178114   -77.146424
 0.320000   201.345096   52.204175
 0.325000   201.700156   85.320851
 0.330000   202.198304   81.215666
 0.335000   202.512313   76.965567
 0.340000   202.967960   147.968073
 0.345000   203.991994   214.494319
 0.350000   205.112903   216.119791
 0.355000   206.153191   189.046161
 0.360000   207.003365   230.072051
 0.365000   208.453912   293.788231
 0.370000   209.941247   284.070416
 0.375000   211.294616   236.840876
 0.380000   212.309656   253.103713
 0.385000   213.825653   301.357710
 0.390000   215.323233   264.757692
 0.395000   216.473230   203.498970
 0.400000   217.358223   217.503668
 0.405000   218.648267   250.794597
 0.410000   219.866169   161.892895
 0.415000   220.267196   102.956318
 0.420000   220.895732   151.170361
 0.425000   221.778899   163.494571
 0.430000   222.530678   14.323427
 0.435000   221.922134   -5.976652
 0.440000   222.470911   102.843210
 0.445000   222.950566   12.604128
 0.450000   222.596952   -94.838263
 0.455000   222.002183   -38.695118
 0.460000   222.210001   34.459491
 0.465000   222.346778   -146.048950
 0.470000   220.749512   -161.068106
 0.475000   220.736097   -1.026918
 0.480000   220.739242   -87.548384
 0.485000   219.860613   -182.801128
 0.490000   218.911231   -101.420613
 0.495000   218.846407   -23.099612
 0.500000   218.680235   -212.194758
 0.505000   216.724459   -227.610760
 0.510000   216.404127   -75.461960
 0.515000   215.969840   -189.120244
 0.520000   214.512925   -274.525431
 0.525000   213.224586   -188.992673
 0.530000   212.622998   -146.789913
 0.535000   211.756686   -301.627832
 0.540000   209.606720   -274.845386
 0.545000   209.008233   -118.919027
 0.550000   208.417530   -227.100968
 0.555000   206.737223   -258.396890
 0.560000   205.833561   -122.740024
 0.565000   205.509823   -95.202460
 0.570000   204.881536   -177.699969
 0.575000   203.732823   -105.065524
 0.580000   203.830881   24.106526
 0.585000   203.973888   -46.329983
 0.590000   203.367581   -31.271279
 0.595000   203.661175   92.513040
 0.600000   204.292711   111.753234
 0.605000   204.778708   89.270129
 0.610000   205.185413   158.303887
 0.615000   206.361747   243.629543
 0.620000   207.621708   226.882288
 0.625000   208.630569   251.956820
 0.630000   210.141276   327.658641
 0.635000   211.907156   359.175905
 0.640000   213.733035   365.126379
 0.645000   215.558420   410.109039
 0.650000   217.834126   466.781337
 0.655000   220.226233   486.498449
 0.660000   222.699110   515.349662
 0.665000   225.379730   561.673467
 0.670000   228.315845   602.987682
 0.675000   231.409606   636.290205
 0.680000   234.678747   673.428472
 0.685000   238.143891   709.571946
 0.690000   241.774467   743.292038
 0.695000   245.576812   789.301616
 0.700000   249.667483   828.376898
 0.705000   253.860581   853.952835
 0.710000   258.207011   885.983502
 0.715000   262.720416   940.345500
 0.720000   267.610466   981.946664
 0.725000   272.539882   1007.329760
 0.730000   277.683764   1053.572038
 0.735000   283.075603   1118.639912
 0.740000   288.870163   1167.499162
 0.745000   294.750594   1206.491541
 0.750000   300.935078   1269.261130
 0.755000   307.443206   1328.956087
 0.760000   314.224639   1379.228535
 0.765000   321.235491   1440.357616
 0.770000   328.628215   1509.116916
 0.775000   336.326660   1564.182844
 0.780000   344.270044   1616.567439
 0.785000   352.492334   1668.710218
 0.790000   360.957146   1729.599198
 0.795000   369.788326   1807.790730
 0.800000   379.035053   1893.136065
 0.805000   388.719687   1935.795588
 0.810000   398.393009   2074.714085
 0.815000   409.466828   2183.108703
 0.820000   420.224096   2201.336061
 0.825000   431.480189   2360.403945
 0.830000   443.828135   2477.664793
 0.835000   456.256836   2546.671444
 0.840000   469.294850   2720.026766
 0.845000   483.457104   2910.344001
 0.850000   498.398290   3068.862988
 0.855000   514.145734   3233.811645
 0.860000   530.736406   3399.873062
 0.865000   548.144465   3364.613001
 0.870000   564.382536   3507.855956
 0.875000   583.223024   3890.478346
 0.880000   603.287320   4124.128341
 0.885000   624.464308   4361.165278
 0.890000   646.898973   4630.473838
 0.895000   670.769046   4945.251911
 0.900000   696.351492   5317.075982
 0.905000   723.939806   5774.779809
 0.910000   754.099290   6351.083350
 0.915000   787.450639   6879.386397
 0.920000   822.893154   7877.987461
 0.925000   866.230514   9514.042021
 0.930000   918.033574   11388.303929
 0.935000   980.113553   13681.470723
 0.940000   1054.848281   16538.286352
 0.945000   1145.496417   19966.464499
 0.950000   1254.512926   23670.324838
 0.955000   1382.199665   27001.261495
 0.960000   1524.525541   29238.845248
 0.965000   1674.588118   28825.185494
 0.970000   1812.777396   25771.003761
 0.975000   1932.298155   21018.050549
 0.980000   2022.957902   15965.664732
 0.985000   2091.954802   18020.174312
 0.990000   2203.159645   35154.822320
 0.995000   2443.503026   152628.167797
 1.000000   3729.441323   361747.150991
201 psinorm ommpp() dommpp/dpsiN
 0.000000   0.895647   -31770.979892
 0.005000   -125.287201   -18702.159264
 0.010000   -186.125946   -11405.512740
 0.015000   -239.342329   -9606.342334
 0.020000   -282.189369   -7673.147193
 0.025000   -316.073801   -6094.199299
 0.030000   -343.131362   -4947.565599
 0.035000   -365.549457   -4018.851597
 0.040000   -383.319878   -3150.928711
 0.045000   -397.058744   -2422.223883
 0.050000   -407.542117   -1860.357541
 0.055000   -415.662319   -1458.397205
 0.060000   -422.126089   -948.164914
 0.065000   -425.143968   -641.254995
 0.070000   -428.538639   -317.997827
 0.075000   -428.323947   -56.311217
 0.080000   -429.101751   178.814927
 0.085000   -426.535797   497.705311
 0.090000   -424.124698   507.496333
 0.095000   -421.460834   781.283529
 0.100000   -416.311863   1066.551993
 0.105000   -410.795314   1052.896803
 0.110000   -405.782895   1078.689145
 0.115000   -400.008423   1210.174238
 0.120000   -393.681153   1450.507215
 0.125000   -385.503351   1577.876554
 0.130000   -377.902387   1495.243854
 0.135000   -370.550912   1497.076905
 0.140000   -362.931618   1543.730060
 0.145000   -355.113611   1567.824450
 0.150000   -347.253374   1573.730894
 0.155000   -339.376302   1575.245662
 0.160000   -331.500917   1565.814556
 0.165000   -323.718157   1541.916240
 0.170000   -316.081755   1516.590392
 0.175000   -308.552253   1490.661951
 0.180000   -301.175135   1454.083683
 0.185000   -294.011416   1411.834419
 0.190000   -287.056791   1372.411519
 0.195000   -280.287301   1333.438680
 0.200000   -273.722404   1291.374049
 0.205000   -267.373560   1245.914282
 0.210000   -261.263261   1192.351318
 0.215000   -255.450047   1133.075657
 0.220000   -249.932505   1188.439923
 0.225000   -243.565648   1112.835209
 0.230000   -238.804153   914.810166
 0.235000   -234.417546   839.058626
 0.240000   -230.413566   766.050194
 0.245000   -226.757044   699.110631
 0.250000   -223.422460   634.448610
 0.255000   -220.412558   643.597199
 0.260000   -216.986488   628.733975
 0.265000   -214.125219   486.261409
 0.270000   -212.123874   374.248135
 0.275000   -210.382737   325.236966
 0.280000   -208.871504   278.457073
 0.285000   -207.598167   324.153551
 0.290000   -205.629969   278.786900
 0.295000   -204.810297   130.084176
 0.300000   -204.329127   78.731385
 0.305000   -204.022984   44.656369
 0.310000   -203.882563   95.093284
 0.315000   -203.072051   55.335024
 0.320000   -203.329213   -66.313042
 0.325000   -203.735181   -91.472802
 0.330000   -204.243941   -79.294365
 0.335000   -204.528125   -67.403260
 0.340000   -204.917974   -131.414261
 0.345000   -205.842267   -191.510358
 0.350000   -206.833077   -187.500817
 0.355000   -207.717276   -155.466587
 0.360000   -208.387743   -192.174143
 0.365000   -209.639017   -253.017346
 0.370000   -210.917917   -241.494770
 0.375000   -212.053965   -192.965055
 0.380000   -212.847567   -208.682305
 0.385000   -214.140788   -256.821927
 0.390000   -215.415786   -220.494617
 0.395000   -216.345734   -160.457615
 0.400000   -217.020363   -176.297318
 0.405000   -218.108707   -211.491250
 0.410000   -219.135275   -124.381813
 0.415000   -219.352525   -66.849217
 0.420000   -219.803767   -116.397882
 0.425000   -220.516504   -129.384952
 0.430000   -221.097617   19.910429
 0.435000   -220.317400   40.634506
 0.440000   -220.691272   -67.775290
 0.445000   -220.995153   22.399870
 0.450000   -220.467273   129.264356
 0.455000   -219.702509   72.188500
 0.460000   -219.745388   -2.658165
 0.465000   -219.729091   174.790832
 0.470000   -217.997480   184.698852
 0.475000   -217.882102   17.089049
 0.480000   -217.826589   93.993622
 0.485000   -216.942166   177.114699
 0.490000   -216.055442   81.452284
 0.495000   -216.127643   -12.323940
 0.500000   -216.178682   160.880769
 0.505000   -214.518836   161.431213
 0.510000   -214.564369   -4.595366
 0.515000   -214.564789   97.770946
 0.520000   -213.586660   175.573911
 0.525000   -212.809050   85.211203
 0.530000   -212.734548   41.686780
 0.535000   -212.392182   198.431580
 0.540000   -210.750232   175.254721
 0.545000   -210.639635   25.299415
 0.550000   -210.497238   141.511162
 0.555000   -209.224523   181.114847
 0.560000   -208.686090   53.442831
 0.565000   -208.690095   32.915894
 0.570000   -208.356931   121.886416
 0.575000   -207.471231   55.181726
 0.580000   -207.805113   -69.291631
 0.585000   -208.164147   4.932976
 0.590000   -207.755784   -6.581545
 0.595000   -208.229963   -126.866435
 0.600000   -209.024448   -141.998375
 0.605000   -209.649947   -115.397695
 0.610000   -210.178425   -181.478406
 0.615000   -211.464731   -263.784977
 0.620000   -212.816275   -243.310827
 0.625000   -213.897839   -264.655020
 0.630000   -215.462825   -336.434511
 0.635000   -217.262184   -364.084082
 0.640000   -219.103666   -366.695510
 0.645000   -220.929139   -408.306335
 0.650000   -223.186729   -461.239434
 0.655000   -225.541533   -477.036581
 0.660000   -227.957095   -501.845551
 0.665000   -230.559989   -543.692442
 0.670000   -233.394019   -580.080164
 0.675000   -236.360791   -608.781491
 0.680000   -239.481834   -641.879978
 0.685000   -242.779590   -674.259477
 0.690000   -246.224429   -704.496415
 0.695000   -249.824554   -747.517847
 0.700000   -253.699607   -784.209441
 0.705000   -257.666649   -807.946723
 0.710000   -261.779075   -838.730037
 0.715000   -266.053949   -892.485558
 0.720000   -270.703930   -933.740172
 0.725000   -275.391351   -958.698287
 0.730000   -280.290913   -1003.143977
 0.735000   -285.422791   -1064.206888
 0.740000   -290.932982   -1107.723040
 0.745000   -296.500021   -1140.452552
 0.750000   -302.337507   -1196.331208
 0.755000   -308.463333   -1249.719022
 0.760000   -314.834698   -1292.819847
 0.765000   -321.391532   -1347.775388
 0.770000   -328.312452   -1415.024723
 0.775000   -335.541779   -1472.704826
 0.780000   -343.039500   -1531.890715
 0.785000   -350.860686   -1594.983946
 0.790000   -358.989339   -1669.631754
 0.795000   -367.557004   -1762.996044
 0.800000   -376.619300   -1863.568153
 0.805000   -386.192685   -1919.697273
 0.810000   -395.816272   -2069.525469
 0.815000   -406.887940   -2186.004854
 0.820000   -417.676321   -2210.070112
 0.825000   -428.988641   -2373.905947
 0.830000   -441.415380   -2495.743561
 0.835000   -453.946077   -2569.838853
 0.840000   -467.113769   -2749.444129
 0.845000   -481.440518   -2947.340268
 0.850000   -496.587172   -3115.049928
 0.855000   -512.591017   -3289.631217
 0.860000   -529.483484   -3464.037677
 0.865000   -547.231394   -3435.408106
 0.870000   -563.837565   -3582.985679
 0.875000   -583.061251   -3966.809246
 0.880000   -603.505657   -4198.259535
 0.885000   -625.043846   -4429.150311
 0.890000   -647.797160   -4687.648470
 0.895000   -671.920331   -4987.685051
 0.900000   -697.674011   -5342.024597
 0.905000   -725.340577   -5780.668101
 0.910000   -755.480692   -6337.810532
 0.915000   -788.718682   -6847.835894
 0.920000   -823.959051   -7829.382573
 0.925000   -867.012508   -9450.004783
 0.930000   -918.459099   -11310.777091
 0.935000   -980.120279   -13592.974307
 0.940000   -1054.388842   -16442.136098
 0.945000   -1144.541640   -19865.726879
 0.950000   -1253.046111   -23567.999944
 0.955000   -1380.221639   -26900.378071
 0.960000   -1522.049891   -29141.695789
 0.965000   -1671.638597   -28733.609149
 0.970000   -1809.385983   -25685.827433
 0.975000   -1928.496871   -20938.351300
 0.980000   -2018.769496   -15891.973390
 0.985000   -2087.416605   -17955.094433
 0.990000   -2198.320440   -35101.063383
 0.995000   -2438.427239   -152588.632290
 1.000000   -3724.206763   -361723.177308
201 psinorm omevb() domevb/dpsiN
 0.000000   0.618811   4.031877
 0.005000   0.518291   -44.239900
 0.010000   0.176412   -69.458266
 0.015000   -0.176292   -70.972618
 0.020000   -0.533314   -71.921472
 0.025000   -0.895507   -73.323624
 0.030000   -1.266551   -75.476983
 0.035000   -1.650276   -77.960331
 0.040000   -2.046154   -80.526842
 0.045000   -2.455545   -83.165496
 0.050000   -2.877809   -85.550741
 0.055000   -3.311052   -87.390196
 0.060000   -3.751711   -88.593225
 0.065000   -4.196984   -89.358421
 0.070000   -4.645295   -89.855207
 0.075000   -5.095537   -90.159007
 0.080000   -5.546885   -90.288894
 0.085000   -5.998425   -90.178555
 0.090000   -6.448671   -90.088473
 0.095000   -6.899310   -90.100772
 0.100000   -7.349678   -89.961413
 0.105000   -7.798924   -89.709275
 0.110000   -8.246771   -89.403758
 0.115000   -8.692962   -88.672597
 0.120000   -9.133497   -87.198899
 0.125000   -9.564951   -85.193138
 0.130000   -9.985428   -82.841170
 0.135000   -10.393363   -80.179893
 0.140000   -10.787227   -77.330465
 0.145000   -11.166667   -73.609043
 0.150000   -11.523318   -70.414801
 0.155000   -11.870815   -68.038767
 0.160000   -12.203705   -65.227682
 0.165000   -12.523092   -62.803480
 0.170000   -12.831740   -61.175413
 0.175000   -13.134846   -60.002821
 0.180000   -13.431768   -60.097448
 0.185000   -13.735821   -61.023111
 0.190000   -14.042000   -61.556351
 0.195000   -14.351384   -62.339028
 0.200000   -14.665390   -63.391574
 0.205000   -14.985300   -65.133447
 0.210000   -15.316724   -67.099252
 0.215000   -15.656292   -68.422606
 0.220000   -16.000950   -69.257136
 0.225000   -16.348864   -69.636957
 0.230000   -16.697320   -69.448744
 0.235000   -17.043351   -68.794849
 0.240000   -17.385268   -66.864506
 0.245000   -17.711996   -63.887781
 0.250000   -18.024146   -61.051924
 0.255000   -18.322516   -58.423490
 0.260000   -18.608381   -56.038229
 0.265000   -18.882898   -53.997547
 0.270000   -19.148357   -52.207832
 0.275000   -19.404976   -50.229072
 0.280000   -19.650647   -47.846713
 0.285000   -19.883443   -44.967743
 0.290000   -20.100325   -41.118695
 0.295000   -20.294630   -36.298162
 0.300000   -20.463306   -30.546347
 0.305000   -20.600094   -23.790227
 0.310000   -20.701209   -16.521195
 0.315000   -20.765306   -8.844427
 0.320000   -20.789653   -0.745404
 0.325000   -20.772760   7.602027
 0.330000   -20.713633   16.059749
 0.335000   -20.612162   24.079103
 0.340000   -20.472842   31.442767
 0.345000   -20.297735   38.238819
 0.350000   -20.090453   44.233416
 0.355000   -19.855400   49.547221
 0.360000   -19.594981   54.212325
 0.365000   -19.313277   57.425582
 0.370000   -19.020725   59.564082
 0.375000   -18.717636   61.191409
 0.380000   -18.408811   62.057515
 0.385000   -18.097061   62.485735
 0.390000   -17.783954   62.520161
 0.395000   -17.471860   61.598825
 0.400000   -17.167966   60.057425
 0.405000   -16.871285   58.441218
 0.410000   -16.583554   56.928912
 0.415000   -16.301996   55.798033
 0.420000   -16.025573   54.729633
 0.425000   -15.754700   54.326100
 0.430000   -15.482312   54.702752
 0.435000   -15.207672   55.372243
 0.440000   -14.928590   56.020873
 0.445000   -14.647464   56.188578
 0.450000   -14.366704   55.835362
 0.455000   -14.089110   55.120403
 0.460000   -13.815500   53.639162
 0.465000   -13.552718   50.783604
 0.470000   -13.307664   45.869434
 0.475000   -13.094024   38.490876
 0.480000   -12.922755   29.057144
 0.485000   -12.803453   17.101760
 0.490000   -12.751738   2.989285
 0.495000   -12.773560   -12.303350
 0.500000   -12.874771   -28.038008
 0.505000   -13.053940   -42.754572
 0.510000   -13.302317   -56.490108
 0.515000   -13.618841   -67.646557
 0.520000   -13.978782   -75.119940
 0.525000   -14.370040   -79.827695
 0.530000   -14.777059   -81.033766
 0.535000   -15.180378   -79.017852
 0.540000   -15.567238   -75.309745
 0.545000   -15.933475   -69.242632
 0.550000   -16.259664   -61.123175
 0.555000   -16.544707   -52.732113
 0.560000   -16.786985   -44.670256
 0.565000   -16.991410   -37.588851
 0.570000   -17.162874   -31.051225
 0.575000   -17.301922   -25.062946
 0.580000   -17.413503   -20.311747
 0.585000   -17.505039   -16.477079
 0.590000   -17.578274   -12.892179
 0.595000   -17.633961   -9.357797
 0.600000   -17.671852   -5.220254
 0.605000   -17.686164   -1.078957
 0.610000   -17.682642   1.892361
 0.615000   -17.667240   4.924380
 0.620000   -17.633398   8.659001
 0.625000   -17.580650   12.391996
 0.630000   -17.509478   16.312064
 0.635000   -17.417529   20.172738
 0.640000   -17.307750   23.500190
 0.645000   -17.182528   26.856047
 0.650000   -17.039190   30.575103
 0.655000   -16.876777   34.470999
 0.660000   -16.694480   38.485506
 0.665000   -16.491921   42.931312
 0.670000   -16.265167   47.823647
 0.675000   -16.013685   52.387997
 0.680000   -15.741287   56.388645
 0.685000   -15.449799   60.111651
 0.690000   -15.140170   63.552503
 0.695000   -14.814274   66.497572
 0.700000   -14.475195   68.838040
 0.705000   -14.125893   70.634035
 0.710000   -13.768854   71.840071
 0.715000   -13.407492   72.407451
 0.720000   -13.044780   72.718099
 0.725000   -12.680311   73.111463
 0.730000   -12.313665   74.881920
 0.735000   -11.931492   78.867572
 0.740000   -11.524989   84.199640
 0.745000   -11.089496   90.461362
 0.750000   -10.620376   97.362776
 0.755000   -10.115868   103.693903
 0.760000   -9.583437   110.905013
 0.765000   -9.006818   117.135650
 0.770000   -8.412080   118.722494
 0.775000   -7.819593   116.207166
 0.780000   -7.250009   109.528814
 0.785000   -6.724305   98.727350
 0.790000   -6.262735   85.145173
 0.795000   -5.872853   70.177805
 0.800000   -5.560957   55.185395
 0.805000   -5.320999   41.978151
 0.810000   -5.141176   31.356064
 0.815000   -5.007439   23.579018
 0.820000   -4.905385   18.060478
 0.825000   -4.826834   13.610577
 0.830000   -4.769280   9.331627
 0.835000   -4.733517   4.493739
 0.840000   -4.724342   -1.589699
 0.845000   -4.749414   -9.136940
 0.850000   -4.815712   -18.498701
 0.855000   -4.934401   -28.595107
 0.860000   -5.101663   -37.814345
 0.865000   -5.312545   -45.881847
 0.870000   -5.560481   -52.411324
 0.875000   -5.836658   -56.811814
 0.880000   -6.128599   -59.123620
 0.885000   -6.427894   -59.179502
 0.890000   -6.720394   -56.718694
 0.895000   -6.995081   -53.014708
 0.900000   -7.250541   -49.877329
 0.905000   -7.493855   -49.163158
 0.910000   -7.742173   -53.070844
 0.915000   -8.024563   -63.276774
 0.920000   -8.374941   -80.662874
 0.925000   -8.831192   -105.815554
 0.930000   -9.433096   -138.550602
 0.935000   -10.216698   -177.715747
 0.940000   -11.210254   -220.384735
 0.945000   -12.420545   -259.650075
 0.950000   -13.806755   -285.058278
 0.955000   -15.271128   -282.680682
 0.960000   -16.633561   -236.644353
 0.965000   -17.637571   -135.881203
 0.970000   -17.992373   18.524542
 0.975000   -17.452326   207.232722
 0.980000   -15.920046   390.954751
 0.985000   -13.542779   526.591795
 0.990000   -10.654128   587.918872
 0.995000   -7.663590   573.614167
 1.000000   -4.917987   524.627158
201 psinorm omepp() domepp/dpsiN
 0.000000   18.159419   12.742604
 0.005000   18.232021   16.298155
 0.010000   18.322400   17.817857
 0.015000   18.410199   17.300214
 0.020000   18.495402   16.779664
 0.025000   18.577996   16.256383
 0.030000   18.657966   15.730547
 0.035000   18.735301   15.202334
 0.040000   18.809990   14.671919
 0.045000   18.882021   14.139480
 0.050000   18.951384   13.605194
 0.055000   19.018072   13.069240
 0.060000   19.082077   12.531794
 0.065000   19.143390   11.993035
 0.070000   19.202007   11.453139
 0.075000   19.257922   10.912285
 0.080000   19.311130   10.370648
 0.085000   19.361628   9.828405
 0.090000   19.409414   9.285733
 0.095000   19.454486   8.742807
 0.100000   19.496842   8.199801
 0.105000   19.536484   7.656890
 0.110000   19.573411   7.114247
 0.115000   19.607626   6.572044
 0.120000   19.639131   6.030453
 0.125000   19.667931   5.489643
 0.130000   19.694028   4.949784
 0.135000   19.717428   4.411045
 0.140000   19.738138   3.873591
 0.145000   19.756164   3.337587
 0.150000   19.771514   2.803199
 0.155000   19.784196   2.270587
 0.160000   19.794220   1.739913
 0.165000   19.801595   1.211336
 0.170000   19.806333   0.685013
 0.175000   19.808446   0.161099
 0.180000   19.807944   -0.360251
 0.185000   19.804843   -0.878886
 0.190000   19.799156   -1.394656
 0.195000   19.790897   -1.907414
 0.200000   19.780081   -2.417014
 0.205000   19.766726   -2.923311
 0.210000   19.750848   -3.426167
 0.215000   19.732465   -3.925440
 0.220000   19.711594   -4.420995
 0.225000   19.688255   -4.912697
 0.230000   19.662467   -5.400415
 0.235000   19.634251   -5.884019
 0.240000   19.603627   -6.363382
 0.245000   19.570617   -6.838381
 0.250000   19.535243   -7.308893
 0.255000   19.497528   -7.774801
 0.260000   19.457495   -8.235986
 0.265000   19.415168   -8.692337
 0.270000   19.370572   -9.143742
 0.275000   19.323731   -9.590094
 0.280000   19.274671   -10.031287
 0.285000   19.223418   -10.467219
 0.290000   19.169998   -10.897790
 0.295000   19.114440   -11.322905
 0.300000   19.056769   -11.742470
 0.305000   18.997015   -12.156394
 0.310000   18.935205   -12.564590
 0.315000   18.871369   -12.966973
 0.320000   18.805536   -13.363463
 0.325000   18.737735   -13.753979
 0.330000   18.667996   -14.138448
 0.335000   18.596350   -14.516796
 0.340000   18.522828   -14.888955
 0.345000   18.447461   -15.254858
 0.350000   18.370279   -15.614442
 0.355000   18.291316   -15.967647
 0.360000   18.210603   -16.314417
 0.365000   18.128172   -16.654697
 0.370000   18.044056   -16.988436
 0.375000   17.958288   -17.315588
 0.380000   17.870900   -17.636107
 0.385000   17.781927   -17.949952
 0.390000   17.691401   -18.257085
 0.395000   17.599356   -18.557470
 0.400000   17.505826   -18.851075
 0.405000   17.410845   -19.137871
 0.410000   17.314447   -19.417831
 0.415000   17.216667   -19.690932
 0.420000   17.117538   -19.957155
 0.425000   17.017095   -20.216481
 0.430000   16.915373   -20.468896
 0.435000   16.812406   -20.714390
 0.440000   16.708229   -20.952953
 0.445000   16.602877   -21.184581
 0.450000   16.496383   -21.409270
 0.455000   16.388784   -21.627021
 0.460000   16.280113   -21.837836
 0.465000   16.170406   -22.041723
 0.470000   16.059696   -22.238688
 0.475000   15.948019   -22.428744
 0.480000   15.835408   -22.611906
 0.485000   15.721900   -22.788189
 0.490000   15.607527   -22.957614
 0.495000   15.492323   -23.120203
 0.500000   15.376325   -23.275981
 0.505000   15.259564   -23.424976
 0.510000   15.142075   -23.567218
 0.515000   15.023891   -23.702741
 0.520000   14.905047   -23.831580
 0.525000   14.785576   -23.953775
 0.530000   14.665510   -24.069367
 0.535000   14.544882   -24.178400
 0.540000   14.423726   -24.280921
 0.545000   14.302073   -24.376980
 0.550000   14.179956   -24.466631
 0.555000   14.057406   -24.549930
 0.560000   13.934456   -24.626937
 0.565000   13.811137   -24.697714
 0.570000   13.687479   -24.762329
 0.575000   13.563514   -24.820852
 0.580000   13.439271   -24.873358
 0.585000   13.314780   -24.919928
 0.590000   13.190072   -24.960644
 0.595000   13.065174   -24.995598
 0.600000   12.940116   -25.024886
 0.605000   12.814925   -25.048609
 0.610000   12.689629   -25.066879
 0.615000   12.564256   -25.079813
 0.620000   12.438831   -25.087540
 0.625000   12.313381   -25.090197
 0.630000   12.187929   -25.087934
 0.635000   12.062501   -25.080916
 0.640000   11.937120   -25.069320
 0.645000   11.811808   -25.053344
 0.650000   11.686587   -25.033201
 0.655000   11.561476   -25.009131
 0.660000   11.436495   -24.981395
 0.665000   11.311662   -24.950287
 0.670000   11.186993   -24.916129
 0.675000   11.062501   -24.879283
 0.680000   10.938200   -24.840150
 0.685000   10.814099   -24.799182
 0.690000   10.690208   -24.756879
 0.695000   10.566531   -24.713804
 0.700000   10.443070   -24.670584
 0.705000   10.319825   -24.627923
 0.710000   10.196791   -24.586606
 0.715000   10.073959   -24.547508
 0.720000   9.951316   -24.511608
 0.725000   9.828843   -24.479990
 0.730000   9.706516   -24.453860
 0.735000   9.584304   -24.434548
 0.740000   9.462170   -24.423518
 0.745000   9.340069   -24.422373
 0.750000   9.217947   -24.432854
 0.755000   9.095740   -24.456838
 0.760000   8.973378   -24.496326
 0.765000   8.850777   -24.553422
 0.770000   8.727844   -24.630300
 0.775000   8.604474   -24.729148
 0.780000   8.480552   -24.852091
 0.785000   8.355953   -25.001078
 0.790000   8.230542   -25.177730
 0.795000   8.104176   -25.383119
 0.800000   7.976710   -25.617483
 0.805000   7.848001   -25.879835
 0.810000   7.717912   -26.167448
 0.815000   7.586327   -26.475169
 0.820000   7.453160   -26.794528
 0.825000   7.318381   -27.112579
 0.830000   7.182035   -27.410395
 0.835000   7.044277   -27.661149
 0.840000   6.905423   -27.827664
 0.845000   6.766001   -27.859327
 0.850000   6.626830   -27.688239
 0.855000   6.489118   -27.224465
 0.860000   6.354585   -26.350270
 0.865000   6.225616   -24.913258
 0.870000   6.105453   -22.718399
 0.875000   5.998432   -19.519085
 0.880000   5.910262   -15.007574
 0.885000   5.848356   -8.805530
 0.890000   5.822206   -0.455939
 0.895000   5.843797   10.581568
 0.900000   5.928022   24.928714
 0.905000   6.093084   43.274866
 0.910000   6.360771   66.343662
 0.915000   6.756520   94.827276
 0.920000   7.309044   129.267761
 0.925000   8.049198   169.852792
 0.930000   9.007572   216.077440
 0.935000   10.209972   266.212163
 0.940000   11.669693   316.534990
 0.945000   13.375322   360.387695
 0.950000   15.273570   387.383172
 0.955000   17.249154   383.564107
 0.960000   19.109211   333.793811
 0.965000   20.587092   227.457548
 0.970000   21.383787   66.651787
 0.975000   21.253610   -127.533474
 0.980000   20.108452   -317.263408
 0.985000   18.080976   -461.511916
 0.990000   15.493333   -534.159935
 0.995000   12.739376   -534.078661
 1.000000   10.152546   -500.653476
201 psinorm kpol(km/s/T) dkpol/dpsiN
 0.000000   -0.013609   63.721652
 0.005000   0.246518   40.328880
 0.010000   0.389680   28.159454
 0.015000   0.528112   27.797734
 0.020000   0.667657   27.904048
 0.025000   0.807153   27.512277
 0.030000   0.942780   26.285551
 0.035000   1.070008   24.656561
 0.040000   1.189346   22.915642
 0.045000   1.299165   21.006095
 0.050000   1.399407   19.187646
 0.055000   1.491041   17.613439
 0.060000   1.575541   16.319863
 0.065000   1.654240   15.338674
 0.070000   1.728928   14.649903
 0.075000   1.800739   14.152394
 0.080000   1.870452   13.815083
 0.085000   1.938889   13.696345
 0.090000   2.007415   13.848179
 0.095000   2.077371   14.088950
 0.100000   2.148305   14.332096
 0.105000   2.220692   14.618194
 0.110000   2.294487   14.878261
 0.115000   2.369475   15.109958
 0.120000   2.445586   15.202312
 0.125000   2.521498   15.109033
 0.130000   2.596677   14.806229
 0.135000   2.669560   14.317875
 0.140000   2.739855   13.665835
 0.145000   2.806219   12.867310
 0.150000   2.868528   12.008205
 0.155000   2.926301   11.190126
 0.160000   2.980430   10.429360
 0.165000   3.030594   9.705118
 0.170000   3.077481   9.018716
 0.175000   3.120781   8.382021
 0.180000   3.161301   7.800914
 0.185000   3.198791   7.166172
 0.190000   3.232963   6.449498
 0.195000   3.263285   5.565944
 0.200000   3.288622   4.520322
 0.205000   3.308489   3.235897
 0.210000   3.320981   1.745887
 0.215000   3.325948   0.181320
 0.220000   3.322794   -1.435330
 0.225000   3.311594   -2.971447
 0.230000   3.293080   -4.421401
 0.235000   3.267380   -5.698347
 0.240000   3.236096   -6.772409
 0.245000   3.199656   -7.731123
 0.250000   3.158785   -8.521846
 0.255000   3.114438   -9.257295
 0.260000   3.066212   -10.002016
 0.265000   3.014418   -10.763632
 0.270000   2.958576   -11.621610
 0.275000   2.898201   -12.472794
 0.280000   2.833848   -13.334045
 0.285000   2.764861   -14.260697
 0.290000   2.691241   -15.137576
 0.295000   2.613485   -16.024094
 0.300000   2.531000   -16.936695
 0.305000   2.444118   -17.779799
 0.310000   2.353202   -18.622511
 0.315000   2.257893   -19.459309
 0.320000   2.158609   -20.237935
 0.325000   2.055514   -21.060095
 0.330000   1.948008   -21.960037
 0.335000   1.835913   -22.941825
 0.340000   1.718590   -24.071047
 0.345000   1.595203   -25.327283
 0.350000   1.465317   -26.761672
 0.355000   1.327586   -28.385380
 0.360000   1.181463   -30.066546
 0.365000   1.026921   -31.786268
 0.370000   0.863601   -33.549865
 0.375000   0.691422   -35.275257
 0.380000   0.510848   -36.862782
 0.385000   0.322794   -38.178569
 0.390000   0.129062   -39.162177
 0.395000   -0.068827   -39.851246
 0.400000   -0.269450   -40.265318
 0.405000   -0.471481   -40.450297
 0.410000   -0.673953   -40.452775
 0.415000   -0.876008   -40.545911
 0.420000   -1.079412   -40.906133
 0.425000   -1.285070   -41.501274
 0.430000   -1.494425   -42.346174
 0.435000   -1.708531   -43.466937
 0.440000   -1.929094   -45.030016
 0.445000   -2.158832   -46.766624
 0.450000   -2.396761   -48.319108
 0.455000   -2.642023   -49.760326
 0.460000   -2.894364   -51.191055
 0.465000   -3.153933   -52.995733
 0.470000   -3.424321   -56.249873
 0.475000   -3.716432   -61.243609
 0.480000   -4.036757   -67.454205
 0.485000   -4.390974   -74.724827
 0.490000   -4.784006   -82.880945
 0.495000   -5.219783   -91.905724
 0.500000   -5.703063   -101.014171
 0.505000   -6.229925   -108.530557
 0.510000   -6.788368   -113.755151
 0.515000   -7.367477   -116.556466
 0.520000   -7.953933   -116.589619
 0.525000   -8.533373   -113.391767
 0.530000   -9.087851   -106.421128
 0.535000   -9.597584   -96.432404
 0.540000   -10.052175   -84.924062
 0.545000   -10.446825   -72.641590
 0.550000   -10.778591   -60.285242
 0.555000   -11.049677   -48.252861
 0.560000   -11.261119   -37.724127
 0.565000   -11.426918   -29.627023
 0.570000   -11.557390   -23.438074
 0.575000   -11.661299   -18.943375
 0.580000   -11.746823   -15.735729
 0.585000   -11.818656   -13.367386
 0.590000   -11.880497   -11.474338
 0.595000   -11.933400   -9.544860
 0.600000   -11.975946   -7.320093
 0.605000   -12.006601   -4.837855
 0.610000   -12.024324   -2.198282
 0.615000   -12.028584   0.741568
 0.620000   -12.016909   4.036209
 0.625000   -11.988221   7.388369
 0.630000   -11.943025   10.764497
 0.635000   -11.880577   14.217048
 0.640000   -11.800854   17.540525
 0.645000   -11.705171   20.453346
 0.650000   -11.596321   23.053589
 0.655000   -11.474635   25.438929
 0.660000   -11.341932   27.368005
 0.665000   -11.200955   28.921659
 0.670000   -11.052715   30.248724
 0.675000   -10.898468   31.349180
 0.680000   -10.739223   32.331262
 0.685000   -10.575155   33.448202
 0.690000   -10.404741   34.758763
 0.695000   -10.227568   36.067583
 0.700000   -10.044065   37.367739
 0.705000   -9.853890   38.718188
 0.710000   -9.656884   40.041062
 0.715000   -9.453480   41.281098
 0.720000   -9.244073   42.916008
 0.725000   -9.024320   45.657105
 0.730000   -8.787502   50.912792
 0.735000   -8.515192   59.785264
 0.740000   -8.189649   71.455684
 0.745000   -7.800635   85.078302
 0.750000   -7.338866   100.083155
 0.755000   -6.799803   115.562135
 0.760000   -6.183245   131.372284
 0.765000   -5.486081   144.025244
 0.770000   -4.742992   149.805330
 0.775000   -3.988027   148.650285
 0.780000   -3.256489   140.320278
 0.785000   -2.584825   125.121284
 0.790000   -2.005276   103.853745
 0.795000   -1.546287   79.268667
 0.800000   -1.212590   55.004956
 0.805000   -0.996238   33.244329
 0.810000   -0.880146   15.375637
 0.815000   -0.842481   1.841506
 0.820000   -0.861731   -7.833889
 0.825000   -0.920820   -15.287237
 0.830000   -1.014604   -22.449284
 0.835000   -1.145313   -30.657380
 0.840000   -1.321178   -40.934797
 0.845000   -1.554661   -53.996626
 0.850000   -1.861144   -69.852206
 0.855000   -2.253183   -86.197936
 0.860000   -2.723123   -100.911711
 0.865000   -3.262300   -113.238171
 0.870000   -3.855505   -121.904993
 0.875000   -4.481350   -125.886222
 0.880000   -5.114367   -123.870965
 0.885000   -5.720060   -114.517730
 0.890000   -6.259544   -97.956452
 0.895000   -6.699624   -75.389935
 0.900000   -7.013444   -48.336009
 0.905000   -7.182984   -18.736314
 0.910000   -7.200807   11.337225
 0.915000   -7.069612   40.409789
 0.920000   -6.796709   67.661645
 0.925000   -6.392995   92.470357
 0.930000   -5.872005   114.354023
 0.935000   -5.249455   132.623604
 0.940000   -4.545769   146.210190
 0.945000   -3.787353   154.556046
 0.950000   -3.000209   157.997986
 0.955000   -2.207374   157.325741
 0.960000   -1.426951   153.640903
 0.965000   -0.670964   148.509167
 0.970000   0.058140   144.394122
 0.975000   0.772977   142.037308
 0.980000   1.478513   140.309838
 0.985000   2.176075   138.354228
 0.990000   2.862056   135.007417
 0.995000   3.526149   130.311159
 1.000000   4.165167   125.295971
201 psinorm omghb() domghb/dpsiN
 0.000000   -0.000012   0.173694
 0.005000   0.000835   0.164885
 0.010000   0.001637   0.175882
 0.015000   0.002593   0.198236
 0.020000   0.003619   0.213500
 0.025000   0.004728   0.233181
 0.030000   0.005951   0.261345
 0.035000   0.007342   0.296271
 0.040000   0.008914   0.325565
 0.045000   0.010598   0.341005
 0.050000   0.012324   0.346222
 0.055000   0.014060   0.346677
 0.060000   0.015791   0.341381
 0.065000   0.017474   0.330700
 0.070000   0.019098   0.329042
 0.075000   0.020764   0.334112
 0.080000   0.022439   0.332757
 0.085000   0.024092   0.331572
 0.090000   0.025755   0.329290
 0.095000   0.027384   0.317093
 0.100000   0.028925   0.330693
 0.105000   0.030691   0.346501
 0.110000   0.032390   0.315967
 0.115000   0.033851   0.253234
 0.120000   0.034923   0.199152
 0.125000   0.035843   0.138602
 0.130000   0.036309   0.082714
 0.135000   0.036670   0.079160
 0.140000   0.037100   0.057133
 0.145000   0.037241   -0.011940
 0.150000   0.036981   -0.040580
 0.155000   0.036835   -0.073868
 0.160000   0.036242   -0.043219
 0.165000   0.036403   0.122048
 0.170000   0.037463   0.202372
 0.175000   0.038427   0.231685
 0.180000   0.039780   0.312971
 0.185000   0.041556   0.337605
 0.190000   0.043156   0.387213
 0.195000   0.045429   0.499540
 0.200000   0.048151   0.536535
 0.205000   0.050794   0.545120
 0.210000   0.053602   0.553064
 0.215000   0.056325   0.563236
 0.220000   0.059235   0.550581
 0.225000   0.061830   0.333151
 0.230000   0.062566   0.153270
 0.235000   0.063363   0.092717
 0.240000   0.063493   -0.031628
 0.245000   0.063047   -0.141546
 0.250000   0.062078   -0.181808
 0.255000   0.061229   -0.165278
 0.260000   0.060425   -0.139919
 0.265000   0.059830   -0.086469
 0.270000   0.059560   -0.060637
 0.275000   0.059223   -0.103879
 0.280000   0.058522   -0.164062
 0.285000   0.057583   -0.450034
 0.290000   0.054021   -0.747057
 0.295000   0.050112   -0.873577
 0.300000   0.045286   -1.083627
 0.305000   0.039276   -1.293978
 0.310000   0.032346   -1.473341
 0.315000   0.024542   -1.649037
 0.320000   0.015855   -1.753420
 0.325000   0.007008   -1.792691
 0.330000   -0.002072   -1.813277
 0.335000   -0.011125   -1.757744
 0.340000   -0.019649   -1.747407
 0.345000   -0.028599   -1.581868
 0.350000   -0.035468   -1.316517
 0.355000   -0.041764   -1.161766
 0.360000   -0.047085   -0.942777
 0.365000   -0.051192   -0.729029
 0.370000   -0.054376   -0.649618
 0.375000   -0.057688   -0.419027
 0.380000   -0.058566   -0.124091
 0.385000   -0.058929   -0.006061
 0.390000   -0.058626   0.158931
 0.395000   -0.057339   0.249993
 0.400000   -0.056127   0.295586
 0.405000   -0.054384   0.447596
 0.410000   -0.051651   0.452293
 0.415000   -0.049861   0.283471
 0.420000   -0.048816   0.096241
 0.425000   -0.048898   -0.045267
 0.430000   -0.049269   -0.046409
 0.435000   -0.049362   -0.116577
 0.440000   -0.050434   -0.186019
 0.445000   -0.051223   -0.043602
 0.450000   -0.050870   0.093195
 0.455000   -0.050291   0.316021
 0.460000   -0.047710   0.697277
 0.465000   -0.043318   1.134124
 0.470000   -0.036369   1.783260
 0.475000   -0.025485   2.541215
 0.480000   -0.010957   3.461906
 0.485000   0.009134   4.218417
 0.490000   0.031227   4.647929
 0.495000   0.055613   5.024183
 0.500000   0.081469   4.893048
 0.505000   0.104544   4.498301
 0.510000   0.126452   4.117002
 0.515000   0.145714   3.267265
 0.520000   0.159125   2.317813
 0.525000   0.168892   1.471729
 0.530000   0.173842   0.048423
 0.535000   0.169376   -1.068935
 0.540000   0.163153   -1.717176
 0.545000   0.152204   -2.232442
 0.550000   0.140828   -2.314589
 0.555000   0.129058   -2.381470
 0.560000   0.117014   -2.489237
 0.565000   0.104166   -2.350188
 0.570000   0.093512   -1.955512
 0.575000   0.084611   -1.594632
 0.580000   0.077566   -1.364585
 0.585000   0.070965   -1.580660
 0.590000   0.061759   -1.210384
 0.595000   0.058861   -0.862472
 0.600000   0.053134   -1.171086
 0.605000   0.047150   -1.194387
 0.610000   0.041190   -1.223635
 0.615000   0.034914   -1.535655
 0.620000   0.025834   -1.230858
 0.625000   0.022605   -0.944065
 0.630000   0.016393   -1.297035
 0.635000   0.009635   -1.355351
 0.640000   0.002840   -1.339959
 0.645000   -0.003765   -1.305598
 0.650000   -0.010216   -1.278930
 0.655000   -0.016554   -1.405450
 0.660000   -0.024271   -1.600104
 0.665000   -0.032555   -1.712472
 0.670000   -0.041396   -1.747404
 0.675000   -0.050029   -1.632671
 0.680000   -0.057722   -1.461812
 0.685000   -0.064647   -1.333735
 0.690000   -0.071060   -1.221960
 0.695000   -0.076867   -1.029729
 0.700000   -0.081357   -0.817875
 0.705000   -0.085045   -0.608130
 0.710000   -0.087438   -0.351077
 0.715000   -0.088556   -0.185829
 0.720000   -0.089296   -0.244162
 0.725000   -0.090998   -0.535667
 0.730000   -0.094653   -0.987292
 0.735000   -0.100871   -1.479581
 0.740000   -0.109449   -2.056440
 0.745000   -0.121435   -2.902261
 0.750000   -0.138472   -3.085419
 0.755000   -0.152289   -2.634397
 0.760000   -0.164816   -2.156813
 0.765000   -0.173857   -1.134910
 0.770000   -0.176165   0.075361
 0.775000   -0.173104   1.375230
 0.780000   -0.162412   3.190428
 0.785000   -0.141200   4.786542
 0.790000   -0.114547   5.601223
 0.795000   -0.085187   5.858269
 0.800000   -0.055964   5.535690
 0.805000   -0.029830   4.677021
 0.810000   -0.009194   3.589289
 0.815000   0.006062   2.645248
 0.820000   0.017258   2.009250
 0.825000   0.026155   1.697846
 0.830000   0.034237   1.695498
 0.835000   0.043110   2.195689
 0.840000   0.056194   2.855895
 0.845000   0.071669   3.290279
 0.850000   0.089097   3.527244
 0.855000   0.106941   3.378951
 0.860000   0.122886   2.810920
 0.865000   0.135051   2.296265
 0.870000   0.145849   1.379266
 0.875000   0.148843   -0.143488
 0.880000   0.144414   -1.713634
 0.885000   0.131707   -3.371815
 0.890000   0.110696   -5.008074
 0.895000   0.081626   -6.197044
 0.900000   0.048725   -6.994290
 0.905000   0.011683   -7.439786
 0.910000   -0.025673   -7.321841
 0.915000   -0.061535   -6.906134
 0.920000   -0.094734   -6.176213
 0.925000   -0.123297   -5.495198
 0.930000   -0.149686   -4.813554
 0.935000   -0.171433   -3.775609
 0.940000   -0.187442   -2.551230
 0.945000   -0.196945   -1.180927
 0.950000   -0.199251   0.432460
 0.955000   -0.192621   1.261286
 0.960000   -0.186638   1.526036
 0.965000   -0.177360   2.017139
 0.970000   -0.166467   2.257629
 0.975000   -0.154784   2.395735
 0.980000   -0.142510   3.052174
 0.985000   -0.124262   3.944648
 0.990000   -0.103063   4.829137
 0.995000   -0.075971   6.143649
 1.000000   -0.041627   7.593992
201 psinorm nz1(10^20/m^3) dnz1/dpsiN
 0.000000   0.006912   0.000004
 0.005000   0.006911   -0.000380
 0.010000   0.006908   -0.000771
 0.015000   0.006903   -0.001174
 0.020000   0.006896   -0.001587
 0.025000   0.006887   -0.002010
 0.030000   0.006876   -0.002440
 0.035000   0.006863   -0.002877
 0.040000   0.006847   -0.003319
 0.045000   0.006830   -0.003763
 0.050000   0.006810   -0.004204
 0.055000   0.006788   -0.004637
 0.060000   0.006763   -0.005056
 0.065000   0.006737   -0.005455
 0.070000   0.006709   -0.005827
 0.075000   0.006679   -0.006170
 0.080000   0.006647   -0.006490
 0.085000   0.006614   -0.006786
 0.090000   0.006579   -0.007061
 0.095000   0.006543   -0.007317
 0.100000   0.006506   -0.007557
 0.105000   0.006468   -0.007789
 0.110000   0.006428   -0.008017
 0.115000   0.006387   -0.008236
 0.120000   0.006346   -0.008439
 0.125000   0.006303   -0.008621
 0.130000   0.006260   -0.008777
 0.135000   0.006215   -0.008901
 0.140000   0.006171   -0.008989
 0.145000   0.006125   -0.009042
 0.150000   0.006080   -0.009061
 0.155000   0.006035   -0.009045
 0.160000   0.005990   -0.008992
 0.165000   0.005945   -0.008901
 0.170000   0.005901   -0.008780
 0.175000   0.005857   -0.008634
 0.180000   0.005814   -0.008467
 0.185000   0.005772   -0.008284
 0.190000   0.005731   -0.008092
 0.195000   0.005691   -0.007900
 0.200000   0.005652   -0.007719
 0.205000   0.005614   -0.007548
 0.210000   0.005577   -0.007385
 0.215000   0.005540   -0.007230
 0.220000   0.005505   -0.007085
 0.225000   0.005470   -0.006948
 0.230000   0.005435   -0.006806
 0.235000   0.005402   -0.006652
 0.240000   0.005369   -0.006488
 0.245000   0.005337   -0.006311
 0.250000   0.005306   -0.006123
 0.255000   0.005275   -0.005923
 0.260000   0.005246   -0.005704
 0.265000   0.005218   -0.005468
 0.270000   0.005192   -0.005224
 0.275000   0.005166   -0.004976
 0.280000   0.005142   -0.004730
 0.285000   0.005119   -0.004491
 0.290000   0.005097   -0.004260
 0.295000   0.005076   -0.004039
 0.300000   0.005057   -0.003829
 0.305000   0.005038   -0.003630
 0.310000   0.005020   -0.003443
 0.315000   0.005004   -0.003269
 0.320000   0.004988   -0.003109
 0.325000   0.004972   -0.002960
 0.330000   0.004958   -0.002822
 0.335000   0.004944   -0.002697
 0.340000   0.004931   -0.002583
 0.345000   0.004918   -0.002480
 0.350000   0.004906   -0.002388
 0.355000   0.004895   -0.002311
 0.360000   0.004883   -0.002246
 0.365000   0.004872   -0.002194
 0.370000   0.004861   -0.002156
 0.375000   0.004850   -0.002131
 0.380000   0.004840   -0.002122
 0.385000   0.004829   -0.002129
 0.390000   0.004819   -0.002152
 0.395000   0.004808   -0.002188
 0.400000   0.004797   -0.002237
 0.405000   0.004785   -0.002301
 0.410000   0.004774   -0.002379
 0.415000   0.004762   -0.002464
 0.420000   0.004749   -0.002550
 0.425000   0.004736   -0.002635
 0.430000   0.004723   -0.002715
 0.435000   0.004709   -0.002785
 0.440000   0.004695   -0.002840
 0.445000   0.004681   -0.002881
 0.450000   0.004666   -0.002907
 0.455000   0.004651   -0.002918
 0.460000   0.004637   -0.002914
 0.465000   0.004622   -0.002892
 0.470000   0.004608   -0.002855
 0.475000   0.004594   -0.002810
 0.480000   0.004580   -0.002762
 0.485000   0.004566   -0.002709
 0.490000   0.004553   -0.002654
 0.495000   0.004540   -0.002598
 0.500000   0.004527   -0.002545
 0.505000   0.004514   -0.002495
 0.510000   0.004502   -0.002443
 0.515000   0.004490   -0.002386
 0.520000   0.004478   -0.002323
 0.525000   0.004467   -0.002254
 0.530000   0.004455   -0.002180
 0.535000   0.004445   -0.002100
 0.540000   0.004434   -0.002015
 0.545000   0.004425   -0.001924
 0.550000   0.004415   -0.001828
 0.555000   0.004406   -0.001728
 0.560000   0.004398   -0.001624
 0.565000   0.004390   -0.001517
 0.570000   0.004383   -0.001406
 0.575000   0.004376   -0.001295
 0.580000   0.004370   -0.001182
 0.585000   0.004364   -0.001071
 0.590000   0.004359   -0.000961
 0.595000   0.004355   -0.000855
 0.600000   0.004351   -0.000754
 0.605000   0.004347   -0.000658
 0.610000   0.004344   -0.000569
 0.615000   0.004341   -0.000488
 0.620000   0.004339   -0.000414
 0.625000   0.004337   -0.000349
 0.630000   0.004336   -0.000294
 0.635000   0.004334   -0.000248
 0.640000   0.004333   -0.000212
 0.645000   0.004332   -0.000187
 0.650000   0.004331   -0.000172
 0.655000   0.004330   -0.000169
 0.660000   0.004330   -0.000179
 0.665000   0.004329   -0.000200
 0.670000   0.004328   -0.000234
 0.675000   0.004326   -0.000281
 0.680000   0.004325   -0.000340
 0.685000   0.004323   -0.000413
 0.690000   0.004321   -0.000499
 0.695000   0.004318   -0.000601
 0.700000   0.004315   -0.000721
 0.705000   0.004311   -0.000863
 0.710000   0.004306   -0.001034
 0.715000   0.004300   -0.001238
 0.720000   0.004294   -0.001477
 0.725000   0.004286   -0.001750
 0.730000   0.004276   -0.002061
 0.735000   0.004265   -0.002409
 0.740000   0.004252   -0.002802
 0.745000   0.004237   -0.003243
 0.750000   0.004220   -0.003728
 0.755000   0.004200   -0.004256
 0.760000   0.004177   -0.004827
 0.765000   0.004151   -0.005436
 0.770000   0.004123   -0.006081
 0.775000   0.004091   -0.006749
 0.780000   0.004055   -0.007394
 0.785000   0.004017   -0.007987
 0.790000   0.003975   -0.008515
 0.795000   0.003932   -0.008952
 0.800000   0.003886   -0.009276
 0.805000   0.003839   -0.009459
 0.810000   0.003791   -0.009497
 0.815000   0.003744   -0.009407
 0.820000   0.003697   -0.009204
 0.825000   0.003652   -0.008902
 0.830000   0.003608   -0.008513
 0.835000   0.003567   -0.008033
 0.840000   0.003528   -0.007496
 0.845000   0.003492   -0.006934
 0.850000   0.003458   -0.006353
 0.855000   0.003428   -0.005773
 0.860000   0.003401   -0.005208
 0.865000   0.003376   -0.004666
 0.870000   0.003354   -0.004191
 0.875000   0.003334   -0.003808
 0.880000   0.003316   -0.003490
 0.885000   0.003299   -0.003224
 0.890000   0.003284   -0.002991
 0.895000   0.003269   -0.002783
 0.900000   0.003256   -0.002576
 0.905000   0.003244   -0.002350
 0.910000   0.003232   -0.002113
 0.915000   0.003222   -0.001873
 0.920000   0.003214   -0.001638
 0.925000   0.003206   -0.001429
 0.930000   0.003199   -0.001261
 0.935000   0.003193   -0.001156
 0.940000   0.003188   -0.001146
 0.945000   0.003182   -0.001256
 0.950000   0.003175   -0.001508
 0.955000   0.003167   -0.001931
 0.960000   0.003156   -0.002545
 0.965000   0.003141   -0.003363
 0.970000   0.003122   -0.004406
 0.975000   0.003097   -0.005684
 0.980000   0.003065   -0.007197
 0.985000   0.003025   -0.008982
 0.990000   0.002976   -0.011036
 0.995000   0.002915   -0.013271
 1.000000   0.002843   -0.015576
201 psinorm vtor1(km/s) dvtor1/dpsiN
 0.000000   32.650704   176.193861
 0.005000   33.333151   96.784983
 0.010000   33.618553   49.892782
 0.015000   33.832078   38.557948
 0.020000   34.004133   31.574517
 0.025000   34.147824   26.637647
 0.030000   34.270509   22.644768
 0.035000   34.374271   18.827347
 0.040000   34.458783   15.058330
 0.045000   34.524855   11.302996
 0.050000   34.571813   7.282263
 0.055000   34.597677   2.810644
 0.060000   34.599919   -2.130184
 0.065000   34.576375   -7.610853
 0.070000   34.523811   -13.841904
 0.075000   34.437956   -20.738647
 0.080000   34.316424   -28.158989
 0.085000   34.156366   -36.117913
 0.090000   33.955245   -44.570973
 0.095000   33.710657   -53.336113
 0.100000   33.421884   -62.087975
 0.105000   33.089777   -70.686345
 0.110000   32.715020   -79.146814
 0.115000   32.298309   -87.391705
 0.120000   31.841103   -95.332215
 0.125000   31.344987   -102.954468
 0.130000   30.811559   -110.030554
 0.135000   30.244681   -116.508232
 0.140000   29.646476   -122.597023
 0.145000   29.018711   -128.200589
 0.150000   28.364471   -133.201444
 0.155000   27.686696   -137.666155
 0.160000   26.987809   -141.585541
 0.165000   26.270841   -145.316433
 0.170000   25.534645   -149.554428
 0.175000   24.775297   -154.436265
 0.180000   23.990282   -159.767099
 0.185000   23.177626   -165.351119
 0.190000   22.336771   -170.834065
 0.195000   21.469285   -175.879819
 0.200000   20.577973   -180.425673
 0.205000   19.665028   -184.549864
 0.210000   18.732474   -188.257954
 0.215000   17.782449   -191.521221
 0.220000   16.817262   -194.314270
 0.225000   15.839306   -196.629417
 0.230000   14.850968   -198.316457
 0.235000   13.856142   -199.184201
 0.240000   12.859126   -199.134172
 0.245000   11.864800   -198.078165
 0.250000   10.878344   -195.993487
 0.255000   9.904865   -193.056882
 0.260000   8.947775   -189.568710
 0.265000   8.009178   -185.620708
 0.270000   7.091568   -181.117596
 0.275000   6.198002   -175.915448
 0.280000   5.332414   -169.836106
 0.285000   4.499641   -162.772900
 0.290000   3.704685   -154.016992
 0.295000   2.959471   -143.132445
 0.300000   2.273360   -130.406536
 0.305000   1.655406   -115.934430
 0.310000   1.114016   -99.878025
 0.315000   0.656625   -82.424173
 0.320000   0.289774   -63.883980
 0.325000   0.017786   -44.681081
 0.330000   -0.157037   -25.197701
 0.335000   -0.234191   -5.790440
 0.340000   -0.214941   13.197735
 0.345000   -0.102214   31.345006
 0.350000   0.098509   48.346152
 0.355000   0.381247   64.071212
 0.360000   0.739221   78.381370
 0.365000   1.165061   91.192733
 0.370000   1.651148   102.469472
 0.375000   2.189756   111.873002
 0.380000   2.769878   119.424669
 0.385000   3.384003   125.465679
 0.390000   4.024535   129.981429
 0.395000   4.683817   133.073355
 0.400000   5.355269   134.996655
 0.405000   6.033783   135.971081
 0.410000   6.714980   136.921123
 0.415000   7.402995   138.682942
 0.420000   8.101809   141.173726
 0.425000   8.814732   144.320825
 0.430000   9.545017   148.034931
 0.435000   10.295081   152.359714
 0.440000   11.068614   156.684811
 0.445000   11.861929   159.787800
 0.450000   12.666492   161.282373
 0.455000   13.474753   161.127227
 0.460000   14.277765   159.063261
 0.465000   15.065386   155.001202
 0.470000   15.827777   148.666735
 0.475000   16.552053   139.703554
 0.480000   17.224812   128.361589
 0.485000   17.835669   115.088533
 0.490000   18.375698   100.197020
 0.495000   18.837639   84.013909
 0.500000   19.215837   66.866404
 0.505000   19.506303   49.163639
 0.510000   19.707473   31.317256
 0.515000   19.819476   13.668090
 0.520000   19.844154   -3.454662
 0.525000   19.784929   -19.728218
 0.530000   19.646872   -34.783945
 0.535000   19.437090   -48.429639
 0.540000   19.162575   -60.594445
 0.545000   18.831145   -71.177375
 0.550000   18.450802   -80.175046
 0.555000   18.029395   -87.605804
 0.560000   17.574744   -93.436171
 0.565000   17.095033   -98.074473
 0.570000   16.593999   -101.850135
 0.575000   16.076532   -104.703149
 0.580000   15.546967   -106.716114
 0.585000   15.009370   -107.906592
 0.590000   14.467901   -108.172374
 0.595000   13.927647   -107.571424
 0.600000   13.392187   -106.204397
 0.605000   12.865603   -104.049476
 0.610000   12.351692   -101.161125
 0.615000   11.853992   -97.591325
 0.620000   11.375779   -93.402765
 0.625000   10.919964   -88.653854
 0.630000   10.489241   -83.358389
 0.635000   10.086380   -77.521624
 0.640000   9.714024   -71.171138
 0.645000   9.374669   -64.336092
 0.650000   9.070663   -57.088493
 0.655000   8.803784   -49.422129
 0.660000   8.576442   -41.316014
 0.665000   8.390624   -32.865825
 0.670000   8.247784   -24.199733
 0.675000   8.148626   -15.489410
 0.680000   8.092890   -6.936879
 0.685000   8.079257   1.229733
 0.690000   8.105187   8.804132
 0.695000   8.167299   15.642331
 0.700000   8.261610   21.642872
 0.705000   8.383727   26.744158
 0.710000   8.529052   30.863588
 0.715000   8.692363   34.030705
 0.720000   8.869359   36.410155
 0.725000   9.056465   38.095302
 0.730000   9.250312   39.159959
 0.735000   9.448064   39.709788
 0.740000   9.647410   39.822293
 0.745000   9.846287   39.657395
 0.750000   10.043984   39.376677
 0.755000   10.240054   38.975355
 0.760000   10.433738   38.401261
 0.765000   10.624067   37.599978
 0.770000   10.809737   36.523431
 0.775000   10.989301   35.102013
 0.780000   11.160757   33.220860
 0.785000   11.321510   30.854398
 0.790000   11.469301   28.042151
 0.795000   11.601931   24.801030
 0.800000   11.717312   21.167496
 0.805000   11.813606   17.176167
 0.810000   11.889073   12.845842
 0.815000   11.942065   8.244017
 0.820000   11.971514   3.473554
 0.825000   11.976800   -1.370270
 0.830000   11.957811   -6.182855
 0.835000   11.914972   -10.849186
 0.840000   11.849319   -15.243348
 0.845000   11.762538   -19.255876
 0.850000   11.656760   -22.804953
 0.855000   11.534489   -25.828452
 0.860000   11.398476   -28.286768
 0.865000   11.251621   -30.148888
 0.870000   11.096987   -31.436620
 0.875000   10.937255   -32.176766
 0.880000   10.775219   -32.374043
 0.885000   10.613514   -32.063951
 0.890000   10.454580   -31.286097
 0.895000   10.300653   -30.108179
 0.900000   10.153498   -28.517649
 0.905000   10.015477   -26.444149
 0.910000   9.889056   -23.866628
 0.915000   9.776811   -20.768868
 0.920000   9.681368   -17.148305
 0.925000   9.605327   -13.042280
 0.930000   9.550945   -8.451207
 0.935000   9.520815   -3.419166
 0.940000   9.516753   1.911155
 0.945000   9.539927   7.399191
 0.950000   9.590745   12.879708
 0.955000   9.668724   18.201402
 0.960000   9.772759   23.123244
 0.965000   9.899956   27.331568
 0.970000   10.046075   30.532949
 0.975000   10.205286   32.374363
 0.980000   10.369818   32.442208
 0.985000   10.529708   30.346437
 0.990000   10.673283   25.551641
 0.995000   10.785224   17.468109
 1.000000   10.847964   7.627665
201 psinorm vpol1(km/s) dvpol1/dpsiN
 0.000000   -0.000068   2.434814
 0.005000   0.013770   3.100439
 0.010000   0.030936   3.761694
 0.015000   0.051387   4.393750
 0.020000   0.074874   4.955103
 0.025000   0.100938   5.402246
 0.030000   0.128896   5.679980
 0.035000   0.157738   5.812720
 0.040000   0.187023   5.850146
 0.045000   0.216239   5.804565
 0.050000   0.245069   5.711401
 0.055000   0.273353   5.601294
 0.060000   0.301082   5.505737
 0.065000   0.328410   5.447827
 0.070000   0.355560   5.418921
 0.075000   0.382600   5.410400
 0.080000   0.409664   5.432056
 0.085000   0.436920   5.498511
 0.090000   0.464649   5.614160
 0.095000   0.493062   5.753735
 0.100000   0.522187   5.902710
 0.105000   0.552089   6.057910
 0.110000   0.582766   6.210156
 0.115000   0.614190   6.356055
 0.120000   0.646326   6.469702
 0.125000   0.678887   6.525537
 0.130000   0.711582   6.521753
 0.135000   0.744105   6.460132
 0.140000   0.776183   6.343628
 0.145000   0.807541   6.171924
 0.150000   0.837902   5.971191
 0.155000   0.867253   5.771069
 0.160000   0.895613   5.575049
 0.165000   0.923004   5.381226
 0.170000   0.949425   5.189819
 0.175000   0.974902   5.008228
 0.180000   0.999507   4.829883
 0.185000   1.023201   4.633325
 0.190000   1.045841   4.398706
 0.195000   1.067188   4.107910
 0.200000   1.086920   3.744531
 0.205000   1.104633   3.295264
 0.210000   1.119872   2.767480
 0.215000   1.132308   2.191309
 0.220000   1.141785   1.595679
 0.225000   1.148265   1.002734
 0.230000   1.151813   0.434692
 0.235000   1.152612   -0.086768
 0.240000   1.150945   -0.551172
 0.245000   1.147100   -0.963965
 0.250000   1.141305   -1.340259
 0.255000   1.133697   -1.694556
 0.260000   1.124360   -2.048560
 0.265000   1.113212   -2.425781
 0.270000   1.100102   -2.826050
 0.275000   1.084951   -3.241040
 0.280000   1.067692   -3.667041
 0.285000   1.048281   -4.100781
 0.290000   1.026684   -4.540356
 0.295000   1.002877   -4.982397
 0.300000   0.976860   -5.423022
 0.305000   0.948647   -5.858252
 0.310000   0.918277   -6.287427
 0.315000   0.885773   -6.710840
 0.320000   0.851169   -7.126099
 0.325000   0.814512   -7.549316
 0.330000   0.775676   -8.005615
 0.335000   0.734456   -8.505981
 0.340000   0.690616   -9.056592
 0.345000   0.643890   -9.663794
 0.350000   0.593978   -10.353284
 0.355000   0.540357   -11.114185
 0.360000   0.482836   -11.905359
 0.365000   0.421303   -12.721460
 0.370000   0.355622   -13.552979
 0.375000   0.285773   -14.373730
 0.380000   0.211884   -15.143579
 0.385000   0.134338   -15.799219
 0.390000   0.053892   -16.317004
 0.395000   -0.028832   -16.711108
 0.400000   -0.113219   -16.987659
 0.405000   -0.198709   -17.165625
 0.410000   -0.284875   -17.258728
 0.415000   -0.371296   -17.387878
 0.420000   -0.458754   -17.632385
 0.425000   -0.547620   -17.964014
 0.430000   -0.638394   -18.401355
 0.435000   -0.731634   -18.968921
 0.440000   -0.828083   -19.710535
 0.445000   -0.928739   -20.524805
 0.450000   -1.033331   -21.278906
 0.455000   -1.141528   -21.972791
 0.460000   -1.253059   -22.652661
 0.465000   -1.368055   -23.511475
 0.470000   -1.488174   -25.001208
 0.475000   -1.618067   -27.232544
 0.480000   -1.760500   -30.013281
 0.485000   -1.918200   -33.286853
 0.490000   -2.093368   -36.923364
 0.495000   -2.287433   -40.953186
 0.500000   -2.502900   -45.070215
 0.505000   -2.738135   -48.466730
 0.510000   -2.987567   -50.846417
 0.515000   -3.246600   -52.195221
 0.520000   -3.509519   -52.317990
 0.525000   -3.769779   -50.969687
 0.530000   -4.019216   -47.960190
 0.535000   -4.249381   -43.637956
 0.540000   -4.455596   -38.565666
 0.545000   -4.635038   -33.127414
 0.550000   -4.786870   -27.696440
 0.555000   -4.912002   -22.362511
 0.560000   -5.010495   -17.656511
 0.565000   -5.088568   -14.051614
 0.570000   -5.151011   -11.306059
 0.575000   -5.201628   -9.262567
 0.580000   -5.243637   -7.795131
 0.585000   -5.279579   -6.745993
 0.590000   -5.311097   -5.868164
 0.595000   -5.338261   -4.953397
 0.600000   -5.360631   -3.943237
 0.605000   -5.377693   -2.821204
 0.610000   -5.388843   -1.576569
 0.615000   -5.393459   -0.208209
 0.620000   -5.390925   1.271259
 0.625000   -5.380747   2.826215
 0.630000   -5.362663   4.412433
 0.635000   -5.336622   5.986615
 0.640000   -5.302797   7.499744
 0.645000   -5.261625   8.882361
 0.650000   -5.213973   10.110132
 0.655000   -5.160523   11.188379
 0.660000   -5.102089   12.107471
 0.665000   -5.039449   12.877124
 0.670000   -4.973318   13.498022
 0.675000   -4.904469   14.006372
 0.680000   -4.833254   14.513940
 0.685000   -4.759329   15.070374
 0.690000   -4.682551   15.659619
 0.695000   -4.602733   16.283984
 0.700000   -4.519711   16.925415
 0.705000   -4.433479   17.551147
 0.710000   -4.344199   18.144055
 0.715000   -4.252038   18.749097
 0.720000   -4.156708   19.525842
 0.725000   -4.056780   20.747144
 0.730000   -3.949237   23.120410
 0.735000   -3.825576   27.137500
 0.740000   -3.677862   32.380371
 0.745000   -3.501772   38.468823
 0.750000   -3.293174   45.202783
 0.755000   -3.049744   52.137915
 0.760000   -2.771794   59.173047
 0.765000   -2.458014   64.788647
 0.770000   -2.123908   67.328442
 0.775000   -1.784729   66.746094
 0.780000   -1.456447   62.939722
 0.785000   -1.155332   56.077661
 0.790000   -0.895670   46.516748
 0.795000   -0.690165   35.483545
 0.800000   -0.540835   24.615234
 0.805000   -0.444012   14.887793
 0.810000   -0.391957   6.912988
 0.815000   -0.374882   0.881689
 0.820000   -0.383140   -3.418311
 0.825000   -0.409065   -6.719385
 0.830000   -0.450334   -9.883936
 0.835000   -0.507905   -13.504639
 0.840000   -0.585380   -18.028467
 0.845000   -0.688189   -23.770947
 0.850000   -0.823090   -30.734961
 0.855000   -0.995539   -37.893848
 0.860000   -1.202028   -44.308057
 0.865000   -1.438620   -49.651855
 0.870000   -1.698547   -53.370703
 0.875000   -1.972327   -55.009717
 0.880000   -2.248644   -54.005469
 0.885000   -2.512381   -49.787988
 0.890000   -2.746524   -42.419580
 0.895000   -2.936577   -32.434033
 0.900000   -3.070864   -20.517529
 0.905000   -3.141752   -7.532861
 0.910000   -3.146193   5.626904
 0.915000   -3.085483   18.310791
 0.920000   -2.963085   30.149805
 0.925000   -2.783985   40.884277
 0.930000   -2.554242   50.320508
 0.935000   -2.280780   58.150391
 0.940000   -1.972738   63.909473
 0.945000   -1.641686   67.382520
 0.950000   -1.298913   68.720703
 0.955000   -0.954479   68.265820
 0.960000   -0.616255   66.507227
 0.965000   -0.289406   64.129492
 0.970000   0.025040   62.181641
 0.975000   0.332410   60.982422
 0.980000   0.634864   60.020312
 0.985000   0.932613   58.884570
 0.990000   1.223710   57.146289
 0.995000   1.504076   54.870996
 1.000000   1.772420   52.466504
3 N Z A of ION SPECIES
 6.000000   6.000000   12.010700
 1.000000   1.000000   2.000000
 1.000000   1.000000   2.000000
